FP1	F3	F7	FC3	C3	C5	P3	P7	PO7	PO3	O1	Oz	Pz	CPz	FP2	Fz	F4	F8	FC4	FCz	Cz	C4	C6	P4	P8	PO8	PO4	O2	time
-1.934	0.089	0.953	-0.726	0.261	0.658	1.153	-0.219	2.100	0.112	0.198	-1.252	0.416	0.713	-0.651	0.355	0.084	-0.028	0.117	0.275	0.544	0.057	0.132	0.167	0.907	0.620	0.679	0.186	-199.219
-1.500	-0.146	0.210	-0.657	0.077	0.015	0.740	-0.407	1.302	-0.252	-0.041	-1.393	0.452	0.732	-0.356	0.333	0.324	0.242	0.429	0.372	0.639	0.312	0.440	0.597	1.047	1.113	0.749	0.391	-195.312
-1.138	-0.331	-0.470	-0.567	-0.069	-0.549	0.378	-0.582	0.507	-0.589	-0.278	-1.523	0.503	0.760	-0.091	0.330	0.560	0.486	0.729	0.475	0.737	0.553	0.702	0.990	1.162	1.506	0.819	0.564	-191.406
-0.891	-0.430	-1.000	-0.451	-0.152	-0.972	0.097	-0.741	-0.250	-0.879	-0.509	-1.645	0.574	0.801	0.122	0.358	0.784	0.685	1.009	0.586	0.838	0.765	0.897	1.303	1.216	1.709	0.868	0.664	-187.500
-0.762	-0.429	-1.321	-0.311	-0.163	-1.218	-0.085	-0.878	-0.935	-1.108	-0.723	-1.760	0.662	0.853	0.274	0.422	0.984	0.827	1.252	0.700	0.936	0.932	1.022	1.507	1.174	1.658	0.874	0.667	-183.594
-0.705	-0.340	-1.407	-0.160	-0.107	-1.282	-0.168	-0.983	-1.515	-1.264	-0.905	-1.869	0.761	0.912	0.373	0.514	1.148	0.907	1.441	0.810	1.025	1.043	1.082	1.590	1.013	1.329	0.822	0.558	-179.688
-0.649	-0.190	-1.264	-0.014	-0.001	-1.188	-0.168	-1.041	-1.961	-1.343	-1.038	-1.975	0.855	0.964	0.438	0.620	1.261	0.927	1.559	0.902	1.095	1.089	1.089	1.550	0.716	0.739	0.697	0.340	-175.781
-0.516	-0.019	-0.931	0.108	0.131	-0.979	-0.113	-1.043	-2.254	-1.352	-1.108	-2.078	0.923	0.997	0.492	0.722	1.313	0.891	1.595	0.964	1.137	1.066	1.047	1.396	0.287	-0.051	0.494	0.030	-171.875
-0.256	0.140	-0.466	0.197	0.265	-0.709	-0.040	-0.986	-2.378	-1.303	-1.103	-2.174	0.940	0.995	0.554	0.804	1.302	0.805	1.551	0.989	1.142	0.975	0.954	1.140	-0.253	-0.944	0.212	-0.343	-167.969
0.131	0.265	0.062	0.252	0.381	-0.431	0.017	-0.879	-2.326	-1.212	-1.022	-2.256	0.882	0.948	0.625	0.857	1.233	0.678	1.440	0.975	1.104	0.825	0.807	0.798	-0.860	-1.828	-0.140	-0.744	-164.062
0.594	0.346	0.591	0.276	0.467	-0.180	0.033	-0.743	-2.094	-1.097	-0.867	-2.314	0.733	0.848	0.693	0.877	1.117	0.517	1.284	0.925	1.023	0.626	0.603	0.389	-1.472	-2.587	-0.543	-1.134	-160.156
1.041	0.388	1.066	0.280	0.518	0.022	-0.005	-0.597	-1.693	-0.972	-0.651	-2.331	0.489	0.691	0.734	0.863	0.966	0.333	1.106	0.845	0.898	0.394	0.347	-0.064	-2.016	-3.123	-0.966	-1.475	-156.250
1.369	0.400	1.448	0.270	0.536	0.173	-0.090	-0.460	-1.148	-0.839	-0.388	-2.289	0.159	0.484	0.719	0.816	0.795	0.137	0.930	0.739	0.732	0.149	0.055	-0.531	-2.422	-3.372	-1.369	-1.732	-152.344
1.495	0.389	1.705	0.252	0.525	0.283	-0.198	-0.333	-0.499	-0.692	-0.099	-2.168	-0.231	0.235	0.628	0.732	0.615	-0.057	0.772	0.605	0.530	-0.087	-0.251	-0.974	-2.634	-3.310	-1.705	-1.879	-148.438
1.370	0.358	1.807	0.229	0.492	0.365	-0.294	-0.201	0.197	-0.513	0.200	-1.952	-0.646	-0.039	0.454	0.607	0.435	-0.237	0.638	0.442	0.296	-0.296	-0.544	-1.357	-2.622	-2.956	-1.930	-1.900	-144.531
0.997	0.307	1.726	0.202	0.445	0.425	-0.339	-0.041	0.883	-0.280	0.493	-1.629	-1.040	-0.320	0.207	0.438	0.259	-0.390	0.524	0.244	0.037	-0.463	-0.799	-1.643	-2.388	-2.370	-2.011	-1.793	-140.625
0.426	0.226	1.452	0.169	0.387	0.464	-0.304	0.170	1.508	0.024	0.769	-1.201	-1.371	-0.587	-0.090	0.223	0.084	-0.508	0.411	0.006	-0.238	-0.582	-0.992	-1.809	-1.970	-1.634	-1.933	-1.567	-136.719
-0.257	0.109	0.997	0.123	0.322	0.475	-0.176	0.444	2.037	0.403	1.025	-0.682	-1.604	-0.822	-0.404	-0.036	-0.096	-0.586	0.271	-0.271	-0.520	-0.661	-1.103	-1.844	-1.427	-0.845	-1.705	-1.247	-132.812
-0.947	-0.053	0.405	0.055	0.243	0.448	0.033	0.773	2.448	0.843	1.260	-0.101	-1.718	-1.012	-0.704	-0.331	-0.293	-0.630	0.076	-0.583	-0.798	-0.712	-1.120	-1.755	-0.832	-0.089	-1.353	-0.866	-128.906
-1.548	-0.261	-0.246	-0.051	0.145	0.371	0.293	1.132	2.734	1.307	1.475	0.505	-1.708	-1.147	-0.962	-0.648	-0.516	-0.646	-0.191	-0.914	-1.058	-0.752	-1.044	-1.559	-0.253	0.566	-0.918	-0.459	-125.000
-1.985	-0.511	-0.859	-0.206	0.019	0.241	0.553	1.478	2.892	1.741	1.667	1.089	-1.587	-1.223	-1.159	-0.963	-0.760	-0.645	-0.522	-1.242	-1.284	-0.788	-0.885	-1.281	0.258	1.080	-0.446	-0.061	-121.094
-2.220	-0.786	-1.337	-0.413	-0.140	0.059	0.763	1.767	2.917	2.083	1.827	1.608	-1.376	-1.240	-1.287	-1.250	-1.006	-0.631	-0.878	-1.535	-1.456	-0.818	-0.668	-0.951	0.672	1.439	0.017	0.302	-117.188
-2.255	-1.057	-1.605	-0.662	-0.329	-0.161	0.876	1.955	2.808	2.276	1.937	2.024	-1.106	-1.201	-1.343	-1.480	-1.223	-0.608	-1.198	-1.761	-1.560	-0.829	-0.421	-0.591	0.984	1.654	0.435	0.608	-113.281
-2.125	-1.291	-1.631	-0.930	-0.541	-0.400	0.865	2.011	2.565	2.283	1.974	2.312	-0.805	-1.111	-1.333	-1.627	-1.375	-0.573	-1.420	-1.893	-1.583	-0.801	-0.180	-0.224	1.209	1.752	0.787	0.848	-109.375
-1.885	-1.455	-1.430	-1.184	-0.758	-0.634	0.725	1.918	2.200	2.091	1.918	2.464	-0.499	-0.977	-1.268	-1.680	-1.435	-0.524	-1.497	-1.916	-1.525	-0.721	0.027	0.137	1.377	1.774	1.066	1.024	-105.469
-1.594	-1.528	-1.064	-1.389	-0.962	-0.843	0.475	1.675	1.736	1.716	1.756	2.490	-0.205	-0.808	-1.163	-1.641	-1.395	-0.460	-1.418	-1.835	-1.396	-0.583	0.176	0.481	1.515	1.770	1.277	1.151	-101.562
-1.304	-1.506	-0.620	-1.521	-1.135	-1.010	0.150	1.298	1.208	1.205	1.487	2.415	0.070	-0.615	-1.031	-1.527	-1.265	-0.384	-1.204	-1.667	-1.218	-0.393	0.259	0.800	1.648	1.784	1.438	1.253	-97.656
-1.048	-1.401	-0.195	-1.564	-1.263	-1.131	-0.202	0.816	0.661	0.620	1.130	2.272	0.325	-0.409	-0.886	-1.364	-1.070	-0.297	-0.904	-1.444	-1.014	-0.166	0.279	1.090	1.786	1.850	1.569	1.359	-93.750
-0.842	-1.236	0.131	-1.517	-1.336	-1.205	-0.535	0.272	0.134	0.032	0.714	2.097	0.563	-0.200	-0.734	-1.178	-0.843	-0.203	-0.578	-1.199	-0.813	0.072	0.253	1.344	1.924	1.981	1.687	1.490	-89.844
-0.682	-1.031	0.306	-1.386	-1.346	-1.239	-0.808	-0.287	-0.343	-0.495	0.280	1.920	0.788	0.001	-0.580	-0.991	-0.616	-0.106	-0.284	-0.960	-0.632	0.296	0.204	1.555	2.046	2.164	1.803	1.656	-85.938
-0.557	-0.803	0.316	-1.182	-1.290	-1.237	-0.995	-0.809	-0.755	-0.912	-0.133	1.757	0.999	0.186	-0.426	-0.812	-0.412	-0.008	-0.064	-0.746	-0.482	0.481	0.158	1.713	2.127	2.356	1.910	1.844	-82.031
-0.453	-0.553	0.184	-0.916	-1.166	-1.201	-1.085	-1.251	-1.103	-1.196	-0.495	1.611	1.186	0.346	-0.273	-0.639	-0.242	0.087	0.061	-0.559	-0.361	0.608	0.131	1.802	2.141	2.501	1.987	2.018	-78.125
-0.353	-0.274	-0.033	-0.597	-0.977	-1.131	-1.086	-1.583	-1.400	-1.346	-0.789	1.475	1.331	0.472	-0.121	-0.456	-0.107	0.175	0.098	-0.391	-0.259	0.668	0.131	1.803	2.069	2.535	2.001	2.130	-74.219
-0.241	0.046	-0.264	-0.235	-0.733	-1.021	-1.016	-1.791	-1.663	-1.384	-1.016	1.329	1.407	0.558	0.030	-0.249	0.005	0.250	0.072	-0.223	-0.162	0.660	0.149	1.698	1.900	2.409	1.917	2.126	-70.312
-0.099	0.410	-0.437	0.161	-0.447	-0.867	-0.906	-1.877	-1.903	-1.343	-1.187	1.155	1.390	0.596	0.181	-0.003	0.109	0.308	0.022	-0.038	-0.057	0.595	0.169	1.474	1.632	2.101	1.705	1.963	-66.406
0.094	0.811	-0.499	0.571	-0.139	-0.665	-0.786	-1.857	-2.119	-1.261	-1.318	0.937	1.263	0.582	0.334	0.283	0.217	0.347	-0.013	0.178	0.063	0.490	0.174	1.130	1.277	1.617	1.354	1.619	-62.500
0.350	1.223	-0.428	0.973	0.170	-0.416	-0.680	-1.751	-2.294	-1.167	-1.423	0.672	1.019	0.517	0.492	0.598	0.340	0.368	-0.001	0.425	0.196	0.368	0.148	0.682	0.855	0.996	0.876	1.105	-58.594
0.671	1.612	-0.232	1.338	0.455	-0.123	-0.602	-1.579	-2.397	-1.076	-1.505	0.370	0.673	0.405	0.652	0.915	0.478	0.370	0.074	0.694	0.334	0.247	0.084	0.164	0.391	0.295	0.305	0.460	-54.688
1.038	1.931	0.053	1.633	0.696	0.206	-0.547	-1.353	-2.398	-0.986	-1.558	0.054	0.257	0.256	0.806	1.200	0.616	0.356	0.200	0.959	0.461	0.138	-0.016	-0.381	-0.084	-0.415	-0.308	-0.245	-50.781
1.415	2.140	0.380	1.831	0.878	0.557	-0.500	-1.077	-2.273	-0.879	-1.563	-0.241	-0.185	0.085	0.933	1.414	0.729	0.319	0.344	1.187	0.558	0.044	-0.147	-0.906	-0.540	-1.070	-0.905	-0.928	-46.875
1.755	2.208	0.699	1.913	0.992	0.914	-0.436	-0.748	-2.014	-0.731	-1.502	-0.481	-0.600	-0.092	1.012	1.521	0.782	0.251	0.452	1.345	0.609	-0.047	-0.299	-1.362	-0.949	-1.620	-1.426	-1.507	-42.969
2.007	2.122	0.968	1.872	1.037	1.257	-0.331	-0.364	-1.633	-0.520	-1.358	-0.631	-0.940	-0.259	1.020	1.499	0.741	0.144	0.466	1.404	0.604	-0.147	-0.457	-1.714	-1.288	-2.033	-1.825	-1.915	-39.062
2.137	1.888	1.154	1.716	1.019	1.559	-0.172	0.065	-1.156	-0.234	-1.126	-0.667	-1.166	-0.398	0.946	1.345	0.586	-0.002	0.345	1.348	0.543	-0.268	-0.606	-1.932	-1.537	-2.295	-2.064	-2.112	-35.156
2.130	1.533	1.235	1.467	0.946	1.792	0.040	0.514	-0.620	0.119	-0.811	-0.577	-1.255	-0.495	0.794	1.073	0.324	-0.176	0.077	1.179	0.435	-0.408	-0.725	-2.004	-1.684	-2.398	-2.125	-2.087	-31.250
2.000	1.099	1.199	1.156	0.831	1.930	0.287	0.941	-0.067	0.516	-0.436	-0.363	-1.198	-0.539	0.589	0.717	-0.015	-0.354	-0.305	0.917	0.299	-0.551	-0.795	-1.929	-1.721	-2.338	-2.006	-1.855	-27.344
1.781	0.632	1.044	0.817	0.684	1.955	0.538	1.296	0.466	0.920	-0.031	-0.041	-1.008	-0.522	0.370	0.321	-0.374	-0.503	-0.735	0.597	0.158	-0.669	-0.797	-1.716	-1.644	-2.111	-1.719	-1.449	-23.438
1.522	0.178	0.787	0.480	0.516	1.861	0.761	1.531	0.946	1.288	0.367	0.361	-0.707	-0.445	0.177	-0.071	-0.693	-0.590	-1.129	0.259	0.035	-0.728	-0.726	-1.385	-1.457	-1.721	-1.286	-0.917	-19.531
1.266	-0.224	0.458	0.174	0.338	1.660	0.925	1.618	1.345	1.581	0.721	0.805	-0.329	-0.317	0.045	-0.418	-0.916	-0.594	-1.409	-0.056	-0.057	-0.704	-0.591	-0.962	-1.168	-1.182	-0.742	-0.309	-15.625
1.038	-0.547	0.099	-0.084	0.159	1.382	1.010	1.556	1.640	1.771	0.999	1.245	0.086	-0.154	-0.014	-0.696	-1.014	-0.513	-1.523	-0.318	-0.111	-0.589	-0.414	-0.474	-0.794	-0.526	-0.125	0.324	-11.719
0.838	-0.779	-0.244	-0.286	-0.012	1.070	1.012	1.374	1.821	1.845	1.177	1.636	0.499	0.022	-0.013	-0.897	-0.989	-0.367	-1.462	-0.511	-0.133	-0.394	-0.228	0.045	-0.355	0.193	0.518	0.929	-7.812
0.643	-0.922	-0.528	-0.431	-0.167	0.768	0.941	1.126	1.889	1.806	1.245	1.934	0.872	0.184	0.019	-1.026	-0.870	-0.191	-1.257	-0.634	-0.137	-0.152	-0.071	0.564	0.122	0.917	1.144	1.462	-3.906
0.417	-0.993	-0.724	-0.529	-0.298	0.520	0.817	0.874	1.856	1.674	1.207	2.109	1.174	0.310	0.037	-1.103	-0.708	-0.029	-0.972	-0.698	-0.138	0.096	0.029	1.046	0.606	1.586	1.704	1.886	0.000
0.135	-1.020	-0.823	-0.593	-0.402	0.357	0.666	0.678	1.747	1.476	1.080	2.149	1.379	0.380	0.004	-1.150	-0.560	0.077	-0.684	-0.722	-0.155	0.305	0.052	1.455	1.068	2.158	2.157	2.179	3.906
-0.209	-1.033	-0.835	-0.640	-0.477	0.290	0.513	0.579	1.593	1.242	0.893	2.062	1.475	0.387	-0.105	-1.191	-0.478	0.101	-0.467	-0.727	-0.200	0.436	-0.002	1.759	1.484	2.616	2.469	2.336	7.812
-0.590	-1.056	-0.792	-0.683	-0.523	0.316	0.377	0.589	1.425	1.005	0.684	1.880	1.458	0.331	-0.290	-1.243	-0.493	0.037	-0.375	-0.732	-0.275	0.469	-0.117	1.933	1.838	2.965	2.623	2.369	11.719
-0.960	-1.104	-0.735	-0.731	-0.544	0.412	0.271	0.692	1.274	0.793	0.490	1.650	1.337	0.223	-0.528	-1.314	-0.612	-0.102	-0.432	-0.747	-0.378	0.401	-0.266	1.967	2.125	3.221	2.617	2.301	15.625
-1.259	-1.174	-0.709	-0.783	-0.543	0.547	0.200	0.849	1.165	0.629	0.344	1.424	1.134	0.082	-0.777	-1.399	-0.814	-0.281	-0.624	-0.775	-0.495	0.251	-0.414	1.869	2.345	3.404	2.466	2.161	19.531
-1.433	-1.249	-0.743	-0.832	-0.522	0.688	0.163	1.007	1.111	0.531	0.265	1.246	0.878	-0.068	-0.990	-1.484	-1.060	-0.462	-0.912	-0.807	-0.608	0.047	-0.529	1.659	2.497	3.516	2.197	1.978	23.438
-1.449	-1.302	-0.844	-0.862	-0.479	0.810	0.160	1.114	1.113	0.511	0.257	1.145	0.604	-0.205	-1.125	-1.548	-1.299	-0.608	-1.236	-0.827	-0.697	-0.174	-0.591	1.366	2.572	3.543	1.839	1.768	27.344
-1.303	-1.302	-0.992	-0.852	-0.411	0.899	0.189	1.132	1.160	0.571	0.308	1.123	0.343	-0.309	-1.155	-1.563	-1.481	-0.690	-1.532	-0.816	-0.744	-0.381	-0.594	1.022	2.555	3.453	1.413	1.541	31.250
-1.023	-1.221	-1.144	-0.782	-0.315	0.953	0.247	1.044	1.227	0.703	0.391	1.155	0.119	-0.371	-1.075	-1.506	-1.566	-0.699	-1.745	-0.757	-0.737	-0.550	-0.543	0.651	2.424	3.209	0.936	1.291	35.156
-0.655	-1.042	-1.249	-0.634	-0.188	0.982	0.331	0.856	1.284	0.890	0.472	1.197	-0.056	-0.389	-0.897	-1.356	-1.534	-0.639	-1.839	-0.635	-0.671	-0.672	-0.455	0.267	2.158	2.781	0.412	1.004	39.062
-0.253	-0.765	-1.264	-0.405	-0.030	1.003	0.434	0.594	1.299	1.108	0.515	1.192	-0.183	-0.371	-0.650	-1.108	-1.385	-0.528	-1.805	-0.447	-0.550	-0.749	-0.352	-0.122	1.756	2.162	-0.152	0.666	42.969
0.136	-0.408	-1.167	-0.104	0.153	1.036	0.551	0.296	1.251	1.331	0.488	1.084	-0.268	-0.331	-0.367	-0.770	-1.145	-0.393	-1.663	-0.198	-0.385	-0.797	-0.259	-0.511	1.237	1.380	-0.746	0.268	46.875
0.482	-0.000	-0.964	0.244	0.352	1.099	0.673	0.002	1.138	1.540	0.375	0.832	-0.324	-0.280	-0.082	-0.365	-0.850	-0.261	-1.453	0.094	-0.191	-0.838	-0.201	-0.891	0.646	0.496	-1.346	-0.189	50.781
0.775	0.418	-0.687	0.605	0.552	1.201	0.794	-0.247	0.981	1.724	0.181	0.421	-0.361	-0.230	0.181	0.073	-0.541	-0.155	-1.219	0.406	0.014	-0.888	-0.200	-1.241	0.042	-0.406	-1.911	-0.686	54.688
1.020	0.804	-0.383	0.940	0.740	1.341	0.910	-0.420	0.822	1.887	-0.070	-0.134	-0.382	-0.184	0.407	0.499	-0.257	-0.086	-1.002	0.712	0.214	-0.958	-0.270	-1.531	-0.514	-1.233	-2.387	-1.191	58.594
1.226	1.119	-0.103	1.211	0.899	1.504	1.020	-0.498	0.715	2.042	-0.330	-0.780	-0.387	-0.142	0.592	0.869	-0.024	-0.059	-0.831	0.982	0.394	-1.047	-0.410	-1.722	-0.973	-1.898	-2.715	-1.656	62.500
1.400	1.333	0.107	1.387	1.012	1.662	1.126	-0.476	0.715	2.208	-0.544	-1.442	-0.371	-0.105	0.735	1.141	0.140	-0.067	-0.721	1.188	0.538	-1.146	-0.605	-1.778	-1.301	-2.337	-2.842	-2.025	66.406
1.535	1.421	0.217	1.447	1.068	1.782	1.227	-0.362	0.862	2.400	-0.653	-2.029	-0.334	-0.073	0.834	1.282	0.226	-0.098	-0.680	1.305	0.633	-1.239	-0.823	-1.676	-1.483	-2.511	-2.731	-2.240	70.312
1.612	1.374	0.213	1.383	1.056	1.834	1.319	-0.176	1.171	2.621	-0.607	-2.460	-0.279	-0.052	0.883	1.274	0.231	-0.139	-0.707	1.313	0.663	-1.311	-1.024	-1.411	-1.519	-2.411	-2.376	-2.257	74.219
1.604	1.196	0.097	1.204	0.971	1.795	1.391	0.054	1.628	2.861	-0.383	-2.677	-0.220	-0.053	0.872	1.114	0.157	-0.182	-0.796	1.202	0.618	-1.347	-1.168	-1.002	-1.416	-2.057	-1.806	-2.049	78.125
1.485	0.906	-0.112	0.928	0.814	1.659	1.429	0.301	2.194	3.089	0.019	-2.656	-0.176	-0.091	0.793	0.820	0.010	-0.220	-0.934	0.975	0.492	-1.339	-1.226	-0.492	-1.189	-1.487	-1.080	-1.621	82.031
1.238	0.535	-0.386	0.585	0.592	1.438	1.414	0.539	2.812	3.269	0.567	-2.414	-0.173	-0.182	0.637	0.419	-0.198	-0.254	-1.107	0.643	0.285	-1.293	-1.188	0.058	-0.850	-0.748	-0.277	-1.003	85.938
0.866	0.124	-0.693	0.209	0.318	1.159	1.329	0.748	3.420	3.364	1.207	-1.997	-0.236	-0.337	0.403	-0.049	-0.459	-0.290	-1.306	0.228	0.004	-1.222	-1.064	0.586	-0.414	0.115	0.513	-0.244	89.844
0.391	-0.288	-1.001	-0.166	0.008	0.860	1.166	0.920	3.969	3.350	1.876	-1.471	-0.378	-0.565	0.096	-0.549	-0.766	-0.340	-1.528	-0.244	-0.341	-1.154	-0.884	1.032	0.108	1.063	1.218	0.593	93.750
-0.148	-0.669	-1.283	-0.514	-0.322	0.577	0.929	1.059	4.423	3.226	2.518	-0.900	-0.603	-0.862	-0.270	-1.047	-1.114	-0.415	-1.776	-0.745	-0.736	-1.119	-0.694	1.357	0.702	2.067	1.787	1.449	97.656
-0.696	-0.995	-1.525	-0.817	-0.656	0.339	0.637	1.176	4.774	3.014	3.092	-0.338	-0.895	-1.216	-0.672	-1.523	-1.496	-0.526	-2.051	-1.254	-1.164	-1.143	-0.543	1.545	1.352	3.106	2.201	2.274	101.562
-1.197	-1.260	-1.716	-1.069	-0.977	0.161	0.322	1.290	5.030	2.756	3.579	0.184	-1.223	-1.606	-1.082	-1.965	-1.900	-0.674	-2.353	-1.748	-1.607	-1.242	-0.476	1.605	2.034	4.154	2.472	3.032	105.469
-1.597	-1.468	-1.856	-1.272	-1.276	0.040	0.023	1.417	5.214	2.504	3.979	0.653	-1.548	-2.005	-1.468	-2.370	-2.314	-0.858	-2.675	-2.215	-2.049	-1.422	-0.522	1.563	2.715	5.183	2.628	3.703	109.375
-1.854	-1.633	-1.943	-1.440	-1.543	-0.037	-0.221	1.566	5.347	2.310	4.300	1.073	-1.832	-2.385	-1.803	-2.742	-2.725	-1.066	-3.012	-2.642	-2.473	-1.674	-0.685	1.451	3.360	6.153	2.700	4.275	113.281
-1.942	-1.772	-1.976	-1.589	-1.774	-0.093	-0.381	1.734	5.445	2.210	4.549	1.452	-2.044	-2.725	-2.066	-3.084	-3.123	-1.284	-3.359	-3.023	-2.863	-1.980	-0.940	1.297	3.932	7.016	2.715	4.740	117.188
-1.853	-1.899	-1.953	-1.734	-1.965	-0.148	-0.441	1.907	5.509	2.221	4.728	1.797	-2.173	-3.009	-2.247	-3.396	-3.498	-1.496	-3.715	-3.352	-3.204	-2.318	-1.239	1.118	4.398	7.718	2.682	5.088	121.094
-1.594	-2.019	-1.868	-1.884	-2.116	-0.215	-0.405	2.062	5.527	2.330	4.830	2.106	-2.224	-3.233	-2.341	-3.669	-3.839	-1.684	-4.070	-3.620	-3.484	-2.657	-1.526	0.914	4.733	8.207	2.591	5.303	125.000
-1.187	-2.128	-1.714	-2.043	-2.227	-0.298	-0.296	2.171	5.482	2.503	4.846	2.368	-2.223	-3.400	-2.350	-3.885	-4.131	-1.832	-4.405	-3.819	-3.694	-2.967	-1.750	0.675	4.926	8.436	2.424	5.370	128.906
-0.665	-2.211	-1.488	-2.203	-2.303	-0.386	-0.151	2.207	5.358	2.693	4.774	2.566	-2.204	-3.521	-2.280	-4.018	-4.354	-1.930	-4.688	-3.934	-3.824	-3.218	-1.880	0.383	4.974	8.377	2.158	5.274	132.812
-0.072	-2.250	-1.189	-2.352	-2.346	-0.465	-0.014	2.148	5.150	2.845	4.618	2.684	-2.205	-3.607	-2.141	-4.044	-4.481	-1.972	-4.879	-3.954	-3.872	-3.389	-1.911	0.028	4.886	8.027	1.783	5.016	136.719
0.537	-2.227	-0.830	-2.468	-2.359	-0.518	0.075	1.981	4.866	2.918	4.400	2.712	-2.252	-3.668	-1.946	-3.940	-4.491	-1.956	-4.939	-3.868	-3.837	-3.462	-1.860	-0.385	4.677	7.412	1.306	4.615	140.625
1.101	-2.128	-0.439	-2.528	-2.344	-0.533	0.092	1.701	4.526	2.885	4.151	2.653	-2.351	-3.708	-1.711	-3.695	-4.363	-1.885	-4.837	-3.672	-3.723	-3.432	-1.757	-0.832	4.368	6.582	0.763	4.109	144.531
1.553	-1.945	-0.061	-2.508	-2.302	-0.511	0.030	1.322	4.157	2.746	3.909	2.521	-2.486	-3.720	-1.450	-3.316	-4.092	-1.763	-4.563	-3.369	-3.533	-3.302	-1.631	-1.263	3.977	5.609	0.212	3.555	148.438
1.836	-1.683	0.245	-2.392	-2.231	-0.461	-0.092	0.864	3.790	2.528	3.707	2.338	-2.616	-3.690	-1.182	-2.828	-3.687	-1.595	-4.133	-2.976	-3.277	-3.083	-1.505	-1.617	3.526	4.574	-0.276	3.014	152.344
1.910	-1.360	0.419	-2.178	-2.131	-0.405	-0.239	0.364	3.454	2.281	3.566	2.129	-2.685	-3.596	-0.923	-2.276	-3.177	-1.389	-3.589	-2.522	-2.967	-2.795	-1.387	-1.829	3.032	3.560	-0.628	2.546	156.250
1.768	-1.011	0.406	-1.885	-2.003	-0.363	-0.359	-0.138	3.170	2.066	3.492	1.918	-2.631	-3.413	-0.686	-1.720	-2.606	-1.157	-2.994	-2.049	-2.617	-2.461	-1.279	-1.845	2.511	2.637	-0.785	2.194	160.156
1.437	-0.684	0.175	-1.548	-1.852	-0.350	-0.401	-0.600	2.955	1.947	3.474	1.721	-2.401	-3.122	-0.477	-1.228	-2.026	-0.911	-2.416	-1.603	-2.242	-2.103	-1.176	-1.637	1.977	1.860	-0.708	1.982	164.062
0.973	-0.432	-0.273	-1.215	-1.684	-0.374	-0.325	-0.986	2.821	1.973	3.491	1.545	-1.959	-2.711	-0.298	-0.859	-1.483	-0.663	-1.910	-1.227	-1.859	-1.741	-1.073	-1.203	1.440	1.263	-0.390	1.909	167.969
0.450	-0.297	-0.903	-0.934	-1.509	-0.428	-0.108	-1.274	2.773	2.170	3.520	1.391	-1.296	-2.182	-0.141	-0.650	-1.013	-0.424	-1.511	-0.949	-1.480	-1.387	-0.969	-0.573	0.909	0.856	0.144	1.953	171.875
-0.060	-0.304	-1.643	-0.748	-1.337	-0.496	0.249	-1.454	2.806	2.538	3.541	1.255	-0.436	-1.553	0.001	-0.609	-0.633	-0.203	-1.225	-0.780	-1.114	-1.049	-0.865	0.197	0.390	0.625	0.843	2.078	175.781
-0.503	-0.450	-2.403	-0.676	-1.176	-0.558	0.725	-1.530	2.910	3.051	3.543	1.130	0.570	-0.853	0.134	-0.715	-0.341	-0.005	-1.037	-0.709	-0.766	-0.729	-0.762	1.038	-0.112	0.538	1.641	2.241	179.688
-0.852	-0.705	-3.090	-0.721	-1.034	-0.596	1.282	-1.514	3.059	3.665	3.523	1.012	1.651	-0.122	0.263	-0.919	-0.122	0.171	-0.918	-0.708	-0.440	-0.426	-0.658	1.880	-0.595	0.544	2.465	2.398	183.594
-1.108	-1.023	-3.629	-0.861	-0.912	-0.602	1.875	-1.425	3.223	4.325	3.484	0.902	2.724	0.594	0.385	-1.161	0.045	0.323	-0.838	-0.743	-0.135	-0.143	-0.548	2.658	-1.054	0.593	3.251	2.516	187.500
-1.296	-1.351	-3.981	-1.062	-0.812	-0.584	2.454	-1.287	3.368	4.980	3.435	0.802	3.708	1.252	0.495	-1.383	0.179	0.455	-0.775	-0.779	0.144	0.116	-0.428	3.325	-1.480	0.642	3.949	2.572	191.406
-1.449	-1.639	-4.146	-1.283	-0.734	-0.560	2.977	-1.125	3.470	5.587	3.387	0.722	4.534	1.815	0.586	-1.544	0.296	0.568	-0.714	-0.791	0.391	0.340	-0.297	3.853	-1.857	0.671	4.529	2.561	195.312
-1.602	-1.856	-4.163	-1.489	-0.678	-0.552	3.407	-0.971	3.522	6.116	3.352	0.672	5.154	2.251	0.647	-1.625	0.402	0.661	-0.653	-0.771	0.595	0.521	-0.166	4.235	-2.161	0.684	4.986	2.495	199.219
-1.780	-1.992	-4.095	-1.657	-0.648	-0.583	3.720	-0.855	3.533	6.549	3.344	0.666	5.539	2.542	0.674	-1.632	0.496	0.733	-0.595	-0.722	0.743	0.648	-0.052	4.480	-2.365	0.707	5.328	2.397	203.125
-1.990	-2.063	-4.013	-1.781	-0.652	-0.665	3.896	-0.810	3.531	6.880	3.379	0.713	5.687	2.680	0.664	-1.587	0.568	0.781	-0.552	-0.665	0.823	0.714	0.025	4.610	-2.437	0.780	5.580	2.297	207.031
-2.219	-2.101	-3.972	-1.874	-0.704	-0.799	3.927	-0.864	3.544	7.102	3.468	0.819	5.609	2.665	0.617	-1.528	0.604	0.804	-0.538	-0.625	0.822	0.712	0.053	4.651	-2.356	0.943	5.769	2.226	210.938
-2.438	-2.145	-3.998	-1.961	-0.818	-0.976	3.810	-1.035	3.592	7.209	3.611	0.981	5.332	2.503	0.536	-1.488	0.583	0.799	-0.574	-0.628	0.732	0.640	0.034	4.626	-2.109	1.230	5.917	2.210	214.844
-2.611	-2.228	-4.085	-2.072	-1.008	-1.184	3.547	-1.330	3.678	7.191	3.800	1.184	4.883	2.205	0.427	-1.495	0.489	0.763	-0.679	-0.695	0.548	0.497	-0.020	4.549	-1.701	1.659	6.042	2.267	218.750
-2.699	-2.365	-4.200	-2.226	-1.276	-1.406	3.147	-1.733	3.779	7.038	4.010	1.403	4.294	1.792	0.298	-1.558	0.314	0.700	-0.862	-0.834	0.276	0.293	-0.086	4.430	-1.153	2.226	6.150	2.402	222.656
-2.673	-2.549	-4.297	-2.430	-1.614	-1.627	2.632	-2.208	3.858	6.745	4.207	1.609	3.599	1.286	0.163	-1.667	0.066	0.616	-1.110	-1.035	-0.065	0.044	-0.140	4.276	-0.503	2.908	6.242	2.603	226.562
-2.520	-2.752	-4.338	-2.667	-1.997	-1.832	2.032	-2.702	3.867	6.318	4.353	1.768	2.835	0.724	0.040	-1.796	-0.224	0.522	-1.392	-1.272	-0.446	-0.221	-0.170	4.092	0.198	3.663	6.316	2.850	230.469
-2.247	-2.930	-4.306	-2.904	-2.388	-2.009	1.391	-3.152	3.766	5.781	4.418	1.856	2.041	0.144	-0.051	-1.909	-0.513	0.433	-1.658	-1.509	-0.831	-0.471	-0.171	3.893	0.893	4.438	6.369	3.113	234.375
-1.883	-3.042	-4.214	-3.102	-2.744	-2.149	0.760	-3.501	3.535	5.175	4.386	1.862	1.262	-0.411	-0.094	-1.971	-0.747	0.367	-1.849	-1.706	-1.179	-0.671	-0.152	3.694	1.523	5.179	6.402	3.362	238.281
-1.478	-3.058	-4.096	-3.227	-3.029	-2.250	0.188	-3.711	3.182	4.549	4.262	1.791	0.547	-0.898	-0.079	-1.960	-0.881	0.339	-1.914	-1.832	-1.456	-0.792	-0.124	3.516	2.042	5.836	6.419	3.572	242.188
-1.093	-2.967	-3.995	-3.261	-3.223	-2.320	-0.284	-3.774	2.748	3.961	4.070	1.665	-0.060	-1.284	-0.007	-1.870	-0.885	0.359	-1.821	-1.869	-1.639	-0.818	-0.101	3.381	2.418	6.374	6.426	3.729	246.094
-0.790	-2.787	-3.954	-3.208	-3.321	-2.373	-0.627	-3.708	2.294	3.464	3.849	1.517	-0.522	-1.550	0.107	-1.719	-0.757	0.426	-1.575	-1.822	-1.722	-0.750	-0.087	3.305	2.639	6.770	6.436	3.831	250.000
-0.623	-2.558	-4.000	-3.093	-3.337	-2.425	-0.829	-3.551	1.895	3.100	3.645	1.388	-0.812	-1.688	0.235	-1.542	-0.528	0.529	-1.215	-1.712	-1.716	-0.606	-0.083	3.301	2.716	7.017	6.458	3.889	253.906
-0.625	-2.336	-4.140	-2.956	-3.295	-2.488	-0.889	-3.347	1.620	2.898	3.501	1.314	-0.917	-1.705	0.342	-1.388	-0.254	0.646	-0.816	-1.578	-1.646	-0.420	-0.083	3.370	2.681	7.126	6.498	3.921	257.812
-0.809	-2.176	-4.366	-2.837	-3.219	-2.564	-0.818	-3.128	1.519	2.873	3.451	1.320	-0.835	-1.618	0.392	-1.302	-0.006	0.749	-0.469	-1.459	-1.542	-0.236	-0.085	3.504	2.576	7.124	6.554	3.952	261.719
-1.161	-2.124	-4.659	-2.769	-3.127	-2.640	-0.630	-2.910	1.611	3.023	3.518	1.420	-0.581	-1.449	0.357	-1.321	0.149	0.807	-0.259	-1.394	-1.435	-0.097	-0.091	3.683	2.447	7.047	6.618	4.003	265.625
-1.643	-2.200	-4.990	-2.768	-3.026	-2.695	-0.338	-2.689	1.886	3.334	3.703	1.608	-0.176	-1.218	0.226	-1.462	0.161	0.797	-0.249	-1.404	-1.344	-0.037	-0.113	3.881	2.333	6.933	6.673	4.089	269.531
-2.200	-2.400	-5.325	-2.835	-2.912	-2.701	0.043	-2.446	2.308	3.781	3.994	1.866	0.345	-0.945	0.004	-1.720	0.012	0.706	-0.460	-1.494	-1.280	-0.073	-0.169	4.071	2.257	6.812	6.701	4.205	273.438
-2.766	-2.695	-5.618	-2.954	-2.776	-2.636	0.499	-2.153	2.827	4.329	4.368	2.164	0.945	-0.647	-0.288	-2.069	-0.287	0.535	-0.869	-1.653	-1.240	-0.207	-0.281	4.229	2.227	6.699	6.688	4.338	277.344
-3.277	-3.045	-5.827	-3.104	-2.608	-2.488	1.012	-1.791	3.391	4.942	4.791	2.471	1.578	-0.339	-0.618	-2.475	-0.698	0.294	-1.422	-1.857	-1.219	-0.424	-0.463	4.333	2.236	6.601	6.623	4.461	281.250
-3.680	-3.408	-5.915	-3.263	-2.405	-2.258	1.562	-1.345	3.955	5.576	5.226	2.754	2.193	-0.041	-0.950	-2.897	-1.172	0.005	-2.043	-2.080	-1.207	-0.702	-0.719	4.370	2.269	6.512	6.501	4.550	285.156
-3.948	-3.746	-5.869	-3.411	-2.176	-1.965	2.121	-0.819	4.494	6.195	5.642	2.992	2.741	0.226	-1.256	-3.304	-1.656	-0.307	-2.657	-2.301	-1.201	-1.011	-1.037	4.335	2.308	6.426	6.328	4.588	289.062
-4.084	-4.034	-5.708	-3.532	-1.935	-1.641	2.662	-0.224	4.998	6.764	6.017	3.172	3.177	0.437	-1.519	-3.672	-2.106	-0.616	-3.200	-2.506	-1.203	-1.323	-1.394	4.229	2.337	6.341	6.121	4.572	292.969
-4.119	-4.256	-5.482	-3.616	-1.704	-1.320	3.155	0.419	5.473	7.261	6.340	3.295	3.463	0.568	-1.732	-3.988	-2.487	-0.896	-3.626	-2.692	-1.221	-1.608	-1.757	4.064	2.349	6.261	5.903	4.513	296.875
-4.109	-4.408	-5.265	-3.656	-1.505	-1.040	3.577	1.081	5.939	7.672	6.616	3.373	3.576	0.600	-1.899	-4.249	-2.775	-1.128	-3.906	-2.858	-1.265	-1.842	-2.092	3.861	2.346	6.199	5.702	4.435	300.781
-4.112	-4.491	-5.129	-3.654	-1.360	-0.829	3.907	1.731	6.414	7.992	6.861	3.422	3.510	0.521	-2.030	-4.459	-2.961	-1.298	-4.034	-3.011	-1.343	-2.004	-2.367	3.646	2.337	6.172	5.548	4.368	304.688
-4.180	-4.517	-5.125	-3.618	-1.286	-0.707	4.131	2.337	6.915	8.226	7.096	3.464	3.274	0.331	-2.138	-4.625	-3.047	-1.398	-4.019	-3.160	-1.463	-2.085	-2.560	3.449	2.341	6.197	5.465	4.343	308.594
-4.341	-4.508	-5.267	-3.569	-1.294	-0.676	4.247	2.867	7.447	8.386	7.338	3.515	2.894	0.038	-2.238	-4.760	-3.054	-1.434	-3.893	-3.313	-1.628	-2.088	-2.661	3.296	2.380	6.295	5.471	4.384	312.500
-4.592	-4.489	-5.533	-3.533	-1.389	-0.726	4.258	3.294	8.002	8.489	7.600	3.591	2.411	-0.338	-2.343	-4.883	-3.016	-1.421	-3.706	-3.481	-1.838	-2.032	-2.678	3.207	2.481	6.484	5.571	4.510	316.406
-4.910	-4.494	-5.869	-3.543	-1.569	-0.837	4.178	3.601	8.559	8.553	7.883	3.703	1.872	-0.770	-2.464	-5.012	-2.977	-1.386	-3.522	-3.674	-2.090	-1.948	-2.637	3.188	2.670	6.781	5.763	4.733	320.312
-5.251	-4.555	-6.211	-3.630	-1.827	-0.982	4.029	3.778	9.083	8.599	8.180	3.862	1.332	-1.224	-2.608	-5.166	-2.986	-1.356	-3.404	-3.900	-2.377	-1.870	-2.567	3.238	2.965	7.198	6.032	5.058	324.219
-5.574	-4.701	-6.499	-3.816	-2.149	-1.139	3.837	3.826	9.531	8.643	8.476	4.073	0.844	-1.664	-2.777	-5.356	-3.076	-1.355	-3.402	-4.162	-2.689	-1.831	-2.501	3.345	3.374	7.735	6.360	5.483	328.125
-5.841	-4.949	-6.692	-4.111	-2.516	-1.292	3.629	3.748	9.860	8.692	8.750	4.335	0.456	-2.056	-2.965	-5.585	-3.262	-1.393	-3.538	-4.454	-3.008	-1.845	-2.455	3.496	3.884	8.377	6.729	5.995	332.031
-6.036	-5.300	-6.785	-4.506	-2.905	-1.438	3.429	3.555	10.034	8.748	8.976	4.638	0.206	-2.368	-3.160	-5.844	-3.531	-1.466	-3.801	-4.759	-3.312	-1.914	-2.429	3.680	4.464	9.090	7.123	6.572	335.938
-6.160	-5.734	-6.802	-4.974	-3.290	-1.583	3.256	3.260	10.034	8.804	9.132	4.960	0.117	-2.577	-3.343	-6.114	-3.847	-1.554	-4.152	-5.055	-3.577	-2.016	-2.403	3.895	5.064	9.823	7.533	7.179	339.844
-6.230	-6.211	-6.790	-5.473	-3.644	-1.741	3.122	2.880	9.861	8.847	9.202	5.275	0.195	-2.668	-3.492	-6.367	-4.159	-1.629	-4.531	-5.317	-3.777	-2.119	-2.351	4.142	5.627	10.512	7.954	7.778	343.750
-6.271	-6.678	-6.807	-5.950	-3.941	-1.923	3.032	2.444	9.541	8.867	9.181	5.551	0.434	-2.637	-3.587	-6.578	-4.410	-1.661	-4.869	-5.519	-3.892	-2.188	-2.247	4.430	6.096	11.092	8.382	8.324	347.656
-6.307	-7.077	-6.897	-6.350	-4.158	-2.133	2.988	1.985	9.116	8.854	9.077	5.763	0.812	-2.489	-3.615	-6.723	-4.552	-1.631	-5.104	-5.644	-3.908	-2.193	-2.085	4.761	6.425	11.508	8.812	8.781	351.562
-6.350	-7.356	-7.076	-6.628	-4.279	-2.360	2.987	1.545	8.641	8.805	8.913	5.895	1.298	-2.242	-3.569	-6.789	-4.559	-1.533	-5.194	-5.685	-3.826	-2.121	-1.879	5.128	6.585	11.721	9.232	9.120	355.469
-6.397	-7.480	-7.324	-6.756	-4.297	-2.578	3.024	1.163	8.172	8.725	8.720	5.946	1.852	-1.920	-3.455	-6.775	-4.429	-1.378	-5.129	-5.645	-3.656	-1.980	-1.663	5.509	6.567	11.719	9.622	9.328	359.375
-6.433	-7.439	-7.596	-6.726	-4.215	-2.753	3.094	0.876	7.762	8.623	8.533	5.930	2.432	-1.557	-3.287	-6.690	-4.191	-1.195	-4.933	-5.539	-3.421	-1.798	-1.481	5.865	6.382	11.513	9.953	9.404	363.281
-6.438	-7.244	-7.837	-6.549	-4.046	-2.852	3.194	0.709	7.448	8.516	8.387	5.873	2.997	-1.186	-3.089	-6.552	-3.894	-1.019	-4.660	-5.388	-3.150	-1.619	-1.376	6.149	6.054	11.133	10.193	9.366	367.188
-6.401	-6.925	-7.998	-6.254	-3.808	-2.848	3.320	0.676	7.254	8.425	8.310	5.809	3.508	-0.839	-2.888	-6.383	-3.594	-0.885	-4.374	-5.211	-2.872	-1.486	-1.378	6.316	5.619	10.625	10.311	9.243	371.094
-6.321	-6.525	-8.052	-5.878	-3.522	-2.734	3.469	0.778	7.190	8.368	8.323	5.775	3.937	-0.543	-2.711	-6.201	-3.339	-0.816	-4.135	-5.027	-2.615	-1.436	-1.498	6.331	5.116	10.041	10.287	9.073	375.000
-6.211	-6.090	-7.996	-5.464	-3.215	-2.518	3.639	0.999	7.251	8.366	8.435	5.805	4.265	-0.316	-2.576	-6.022	-3.161	-0.825	-3.982	-4.846	-2.397	-1.487	-1.730	6.181	4.588	9.431	10.118	8.896	378.906
-6.088	-5.671	-7.844	-5.055	-2.911	-2.227	3.821	1.314	7.423	8.432	8.644	5.923	4.483	-0.165	-2.492	-5.855	-3.069	-0.906	-3.928	-4.675	-2.228	-1.638	-2.054	5.879	4.072	8.843	9.821	8.752	382.812
-5.969	-5.310	-7.619	-4.694	-2.633	-1.899	4.008	1.684	7.688	8.570	8.934	6.138	4.595	-0.089	-2.460	-5.707	-3.056	-1.042	-3.962	-4.517	-2.109	-1.868	-2.433	5.462	3.603	8.313	9.431	8.669	386.719
-5.867	-5.040	-7.345	-4.411	-2.401	-1.575	4.184	2.065	8.023	8.773	9.275	6.443	4.611	-0.081	-2.470	-5.582	-3.102	-1.210	-4.056	-4.374	-2.036	-2.145	-2.828	4.986	3.207	7.868	8.998	8.665	390.625
-5.790	-4.876	-7.044	-4.225	-2.229	-1.292	4.334	2.412	8.399	9.023	9.629	6.812	4.547	-0.127	-2.510	-5.480	-3.183	-1.382	-4.181	-4.246	-2.000	-2.431	-3.195	4.514	2.903	7.529	8.573	8.740	394.531
-5.744	-4.814	-6.734	-4.136	-2.125	-1.079	4.439	2.687	8.785	9.290	9.951	7.206	4.417	-0.215	-2.567	-5.398	-3.276	-1.535	-4.308	-4.134	-1.992	-2.690	-3.494	4.103	2.707	7.303	8.205	8.877	398.438
-5.731	-4.827	-6.435	-4.122	-2.084	-0.948	4.483	2.868	9.141	9.536	10.196	7.574	4.235	-0.333	-2.631	-5.330	-3.361	-1.651	-4.415	-4.034	-2.005	-2.894	-3.698	3.795	2.624	7.192	7.923	9.047	402.344
-5.747	-4.873	-6.169	-4.146	-2.096	-0.895	4.453	2.949	9.426	9.720	10.327	7.866	4.005	-0.475	-2.691	-5.263	-3.425	-1.722	-4.488	-3.941	-2.030	-3.024	-3.797	3.605	2.655	7.191	7.736	9.210	406.250
-5.781	-4.905	-5.963	-4.162	-2.140	-0.903	4.343	2.940	9.598	9.800	10.319	8.031	3.731	-0.635	-2.738	-5.182	-3.454	-1.745	-4.517	-3.846	-2.059	-3.073	-3.796	3.526	2.794	7.284	7.630	9.323	410.156
-5.811	-4.879	-5.836	-4.129	-2.194	-0.948	4.152	2.858	9.620	9.745	10.158	8.035	3.414	-0.808	-2.762	-5.077	-3.444	-1.722	-4.497	-3.739	-2.087	-3.045	-3.709	3.533	3.024	7.443	7.574	9.347	414.062
-5.805	-4.774	-5.799	-4.021	-2.238	-1.002	3.889	2.723	9.478	9.536	9.847	7.856	3.059	-0.986	-2.752	-4.940	-3.393	-1.658	-4.431	-3.614	-2.103	-2.949	-3.553	3.588	3.318	7.635	7.527	9.253	417.969
-5.731	-4.589	-5.843	-3.838	-2.258	-1.044	3.569	2.547	9.175	9.174	9.406	7.496	2.679	-1.160	-2.703	-4.774	-3.309	-1.559	-4.329	-3.468	-2.102	-2.801	-3.335	3.657	3.643	7.819	7.453	9.028	421.875
-5.561	-4.351	-5.941	-3.604	-2.247	-1.059	3.214	2.336	8.740	8.679	8.866	6.976	2.299	-1.310	-2.608	-4.589	-3.200	-1.431	-4.203	-3.305	-2.074	-2.615	-3.059	3.718	3.956	7.956	7.327	8.675	425.781
-5.282	-4.101	-6.052	-3.358	-2.209	-1.045	2.852	2.089	8.218	8.091	8.271	6.340	1.956	-1.415	-2.467	-4.400	-3.073	-1.280	-4.058	-3.133	-2.010	-2.402	-2.728	3.763	4.215	8.006	7.144	8.215	429.688
-4.902	-3.885	-6.130	-3.148	-2.148	-1.007	2.517	1.808	7.659	7.464	7.670	5.645	1.697	-1.448	-2.283	-4.221	-2.929	-1.110	-3.893	-2.958	-1.902	-2.165	-2.355	3.803	4.382	7.939	6.917	7.685	433.594
-4.454	-3.737	-6.141	-3.009	-2.071	-0.958	2.244	1.497	7.110	6.861	7.109	4.955	1.567	-1.385	-2.065	-4.059	-2.762	-0.928	-3.694	-2.786	-1.742	-1.906	-1.968	3.855	4.427	7.736	6.675	7.129	437.500
-3.994	-3.671	-6.073	-2.957	-1.981	-0.912	2.062	1.168	6.604	6.339	6.631	4.332	1.601	-1.212	-1.825	-3.916	-2.564	-0.743	-3.451	-2.619	-1.530	-1.626	-1.606	3.936	4.335	7.394	6.445	6.590	441.406
-3.584	-3.673	-5.940	-2.981	-1.876	-0.879	1.989	0.835	6.155	5.939	6.263	3.825	1.815	-0.927	-1.583	-3.786	-2.333	-0.567	-3.166	-2.452	-1.270	-1.335	-1.309	4.053	4.106	6.924	6.247	6.104	445.312
-3.282	-3.708	-5.776	-3.045	-1.753	-0.864	2.026	0.513	5.760	5.679	6.015	3.464	2.196	-0.549	-1.359	-3.658	-2.078	-0.413	-2.858	-2.284	-0.975	-1.050	-1.106	4.192	3.762	6.353	6.083	5.692	449.219
-3.118	-3.728	-5.621	-3.101	-1.605	-0.865	2.157	0.214	5.407	5.546	5.874	3.250	2.704	-0.114	-1.171	-3.523	-1.818	-0.294	-2.563	-2.110	-0.665	-0.800	-1.012	4.327	3.336	5.717	5.937	5.356	453.125
-3.086	-3.689	-5.505	-3.103	-1.430	-0.869	2.348	-0.057	5.079	5.506	5.812	3.163	3.277	0.334	-1.029	-3.375	-1.581	-0.218	-2.323	-1.931	-0.365	-0.613	-1.020	4.419	2.876	5.060	5.778	5.081	457.031
-3.138	-3.562	-5.436	-3.018	-1.234	-0.857	2.556	-0.296	4.765	5.507	5.792	3.165	3.846	0.745	-0.933	-3.213	-1.391	-0.190	-2.170	-1.753	-0.098	-0.509	-1.112	4.434	2.427	4.426	5.576	4.843	460.938
-3.198	-3.345	-5.395	-2.841	-1.028	-0.812	2.740	-0.504	4.462	5.499	5.775	3.209	4.343	1.076	-0.868	-3.047	-1.265	-0.204	-2.114	-1.586	0.115	-0.493	-1.259	4.349	2.034	3.856	5.310	4.615	464.844
-3.185	-3.065	-5.348	-2.593	-0.829	-0.721	2.866	-0.681	4.182	5.443	5.731	3.246	4.719	1.299	-0.817	-2.892	-1.208	-0.249	-2.143	-1.444	0.260	-0.555	-1.430	4.162	1.731	3.379	4.980	4.378	468.750
-3.036	-2.768	-5.257	-2.319	-0.656	-0.578	2.917	-0.824	3.940	5.317	5.647	3.240	4.945	1.403	-0.762	-2.769	-1.214	-0.309	-2.226	-1.344	0.331	-0.673	-1.592	3.896	1.542	3.011	4.607	4.119	472.656
-2.728	-2.513	-5.093	-2.072	-0.530	-0.389	2.890	-0.929	3.758	5.123	5.522	3.164	5.020	1.394	-0.695	-2.701	-1.269	-0.368	-2.326	-1.301	0.327	-0.816	-1.714	3.587	1.476	2.758	4.233	3.838	476.562
-2.291	-2.350	-4.854	-1.903	-0.463	-0.171	2.800	-0.984	3.650	4.879	5.366	3.006	4.963	1.289	-0.618	-2.703	-1.360	-0.414	-2.413	-1.328	0.254	-0.956	-1.775	3.284	1.528	2.620	3.907	3.542	480.469
-1.795	-2.310	-4.559	-1.845	-0.462	0.054	2.668	-0.980	3.618	4.616	5.190	2.767	4.807	1.115	-0.548	-2.779	-1.470	-0.441	-2.466	-1.428	0.120	-1.072	-1.759	3.030	1.682	2.589	3.675	3.249	484.375
-1.332	-2.391	-4.246	-1.901	-0.523	0.261	2.518	-0.906	3.648	4.366	5.002	2.462	4.586	0.898	-0.502	-2.918	-1.584	-0.448	-2.478	-1.591	-0.058	-1.153	-1.667	2.857	1.909	2.656	3.566	2.978	488.281
-0.986	-2.559	-3.955	-2.046	-0.633	0.428	2.369	-0.761	3.707	4.150	4.801	2.110	4.326	0.660	-0.494	-3.090	-1.685	-0.436	-2.446	-1.795	-0.264	-1.194	-1.511	2.774	2.171	2.807	3.584	2.749	492.188
-0.800	-2.757	-3.716	-2.232	-0.772	0.539	2.228	-0.552	3.752	3.975	4.575	1.736	4.040	0.419	-0.525	-3.251	-1.754	-0.408	-2.370	-2.006	-0.477	-1.199	-1.310	2.769	2.428	3.021	3.704	2.573	496.094
-0.770	-2.917	-3.537	-2.403	-0.920	0.587	2.089	-0.304	3.739	3.830	4.311	1.362	3.724	0.180	-0.578	-3.351	-1.770	-0.361	-2.247	-2.185	-0.680	-1.173	-1.081	2.812	2.642	3.269	3.879	2.454	500.000
-0.843	-2.981	-3.409	-2.507	-1.059	0.575	1.935	-0.058	3.634	3.687	3.992	1.007	3.364	-0.058	-0.625	-3.347	-1.717	-0.292	-2.073	-2.296	-0.856	-1.118	-0.840	2.862	2.790	3.518	4.047	2.381	503.906
-0.940	-2.917	-3.312	-2.514	-1.177	0.515	1.743	0.138	3.425	3.513	3.612	0.684	2.940	-0.302	-0.635	-3.208	-1.586	-0.195	-1.847	-2.311	-0.992	-1.038	-0.593	2.877	2.862	3.742	4.147	2.339	507.812
-0.985	-2.720	-3.225	-2.419	-1.267	0.423	1.495	0.233	3.121	3.279	3.171	0.400	2.440	-0.559	-0.584	-2.929	-1.378	-0.068	-1.571	-2.219	-1.084	-0.933	-0.348	2.828	2.871	3.924	4.136	2.306	511.719
-0.921	-2.418	-3.136	-2.237	-1.329	0.320	1.180	0.189	2.756	2.968	2.682	0.156	1.862	-0.832	-0.461	-2.531	-1.109	0.088	-1.256	-2.025	-1.130	-0.805	-0.107	2.704	2.844	4.061	3.996	2.263	515.625
-0.730	-2.058	-3.048	-2.001	-1.365	0.226	0.802	-0.014	2.374	2.579	2.171	-0.049	1.228	-1.116	-0.273	-2.055	-0.803	0.264	-0.923	-1.753	-1.132	-0.657	0.124	2.516	2.814	4.162	3.739	2.198	519.531
-0.432	-1.693	-2.971	-1.750	-1.376	0.157	0.381	-0.369	2.022	2.131	1.668	-0.221	0.574	-1.394	-0.041	-1.557	-0.490	0.450	-0.596	-1.435	-1.097	-0.493	0.339	2.299	2.810	4.239	3.406	2.108	523.438
-0.075	-1.373	-2.925	-1.517	-1.367	0.123	-0.053	-0.844	1.735	1.657	1.206	-0.366	-0.047	-1.645	0.203	-1.098	-0.204	0.629	-0.304	-1.111	-1.031	-0.319	0.533	2.097	2.848	4.307	3.053	1.997	527.344
0.275	-1.131	-2.924	-1.329	-1.342	0.126	-0.460	-1.388	1.530	1.195	0.816	-0.490	-0.579	-1.841	0.425	-0.728	0.028	0.786	-0.074	-0.820	-0.939	-0.142	0.700	1.960	2.930	4.376	2.745	1.880	531.250
0.551	-0.986	-2.977	-1.204	-1.306	0.159	-0.802	-1.935	1.407	0.786	0.519	-0.596	-0.968	-1.956	0.595	-0.487	0.184	0.907	0.071	-0.592	-0.832	0.027	0.838	1.927	3.040	4.450	2.541	1.776	535.156
0.704	-0.936	-3.074	-1.148	-1.266	0.205	-1.046	-2.419	1.355	0.462	0.332	-0.685	-1.176	-1.976	0.690	-0.390	0.251	0.980	0.114	-0.451	-0.718	0.177	0.944	2.020	3.157	4.525	2.479	1.707	539.062
0.714	-0.968	-3.192	-1.163	-1.231	0.241	-1.171	-2.780	1.354	0.249	0.259	-0.749	-1.183	-1.896	0.699	-0.434	0.223	0.996	0.049	-0.406	-0.607	0.296	1.013	2.237	3.254	4.592	2.572	1.688	542.969
0.591	-1.063	-3.295	-1.241	-1.208	0.244	-1.167	-2.977	1.386	0.160	0.298	-0.779	-0.993	-1.723	0.630	-0.597	0.109	0.954	-0.113	-0.455	-0.508	0.371	1.034	2.553	3.308	4.632	2.806	1.727	546.875
0.378	-1.195	-3.350	-1.370	-1.200	0.198	-1.043	-2.989	1.438	0.197	0.439	-0.760	-0.628	-1.476	0.502	-0.842	-0.068	0.859	-0.347	-0.579	-0.426	0.396	0.993	2.926	3.298	4.624	3.143	1.817	550.781
0.136	-1.341	-3.342	-1.526	-1.206	0.100	-0.814	-2.823	1.505	0.351	0.665	-0.681	-0.127	-1.177	0.350	-1.124	-0.277	0.723	-0.613	-0.751	-0.359	0.368	0.877	3.303	3.206	4.543	3.524	1.935	554.688
-0.068	-1.476	-3.277	-1.683	-1.217	-0.043	-0.506	-2.513	1.586	0.609	0.952	-0.533	0.465	-0.850	0.212	-1.399	-0.477	0.564	-0.867	-0.937	-0.300	0.294	0.676	3.632	3.022	4.371	3.884	2.052	558.594
-0.177	-1.584	-3.184	-1.811	-1.222	-0.213	-0.148	-2.112	1.682	0.949	1.274	-0.321	1.099	-0.518	0.125	-1.626	-0.632	0.404	-1.067	-1.100	-0.238	0.186	0.393	3.868	2.743	4.096	4.161	2.129	562.500
-0.156	-1.650	-3.102	-1.884	-1.208	-0.386	0.230	-1.683	1.796	1.342	1.600	-0.060	1.724	-0.199	0.116	-1.779	-0.716	0.265	-1.189	-1.212	-0.163	0.058	0.046	3.979	2.378	3.723	4.304	2.134	566.406
-0.001	-1.670	-3.066	-1.887	-1.170	-0.543	0.596	-1.293	1.924	1.757	1.901	0.224	2.297	0.089	0.189	-1.846	-0.723	0.160	-1.230	-1.256	-0.068	-0.078	-0.331	3.948	1.951	3.279	4.282	2.049	570.312
0.258	-1.647	-3.096	-1.818	-1.105	-0.669	0.921	-0.998	2.061	2.155	2.150	0.494	2.776	0.330	0.329	-1.830	-0.666	0.096	-1.211	-1.227	0.044	-0.213	-0.695	3.776	1.500	2.805	4.086	1.871	574.219
0.569	-1.586	-3.189	-1.685	-1.021	-0.756	1.177	-0.836	2.196	2.496	2.323	0.710	3.125	0.508	0.503	-1.746	-0.573	0.071	-1.167	-1.137	0.165	-0.341	-0.993	3.475	1.075	2.353	3.730	1.616	578.125
0.872	-1.496	-3.318	-1.508	-0.928	-0.801	1.345	-0.821	2.321	2.746	2.403	0.832	3.317	0.609	0.673	-1.617	-0.477	0.078	-1.131	-1.004	0.281	-0.461	-1.178	3.073	0.728	1.976	3.247	1.316	582.031
1.109	-1.385	-3.444	-1.309	-0.835	-0.802	1.412	-0.941	2.428	2.878	2.384	0.832	3.337	0.622	0.803	-1.465	-0.404	0.110	-1.124	-0.847	0.378	-0.567	-1.220	2.607	0.507	1.717	2.687	1.010	585.938
1.243	-1.257	-3.529	-1.105	-0.745	-0.760	1.378	-1.158	2.513	2.881	2.271	0.700	3.185	0.546	0.870	-1.308	-0.364	0.161	-1.141	-0.683	0.446	-0.647	-1.112	2.122	0.447	1.599	2.111	0.739	589.844
1.251	-1.112	-3.551	-0.906	-0.657	-0.677	1.259	-1.421	2.577	2.763	2.082	0.444	2.877	0.389	0.867	-1.155	-0.347	0.228	-1.159	-0.523	0.481	-0.687	-0.880	1.663	0.558	1.631	1.576	0.539	593.750
1.137	-0.947	-3.509	-0.713	-0.561	-0.558	1.079	-1.670	2.622	2.549	1.842	0.094	2.444	0.169	0.804	-1.013	-0.338	0.306	-1.145	-0.374	0.482	-0.675	-0.572	1.271	0.828	1.800	1.133	0.434	597.656
0.924	-0.764	-3.421	-0.525	-0.450	-0.410	0.869	-1.850	2.649	2.277	1.579	-0.309	1.930	-0.093	0.697	-0.885	-0.321	0.388	-1.081	-0.239	0.455	-0.606	-0.248	0.980	1.222	2.077	0.818	0.433	601.562
0.654	-0.572	-3.313	-0.345	-0.321	-0.248	0.663	-1.924	2.652	1.987	1.319	-0.722	1.382	-0.370	0.570	-0.777	-0.289	0.465	-0.965	-0.128	0.404	-0.485	0.039	0.810	1.689	2.420	0.643	0.525	605.469
0.382	-0.391	-3.208	-0.187	-0.181	-0.089	0.483	-1.876	2.623	1.712	1.077	-1.111	0.847	-0.639	0.443	-0.698	-0.248	0.527	-0.815	-0.047	0.335	-0.327	0.255	0.767	2.171	2.784	0.604	0.683	609.375
0.164	-0.248	-3.117	-0.068	-0.044	0.049	0.344	-1.720	2.549	1.471	0.863	-1.452	0.369	-0.877	0.337	-0.657	-0.210	0.569	-0.657	-0.006	0.256	-0.148	0.392	0.847	2.615	3.124	0.678	0.865	613.281
0.046	-0.173	-3.041	-0.010	0.070	0.150	0.246	-1.490	2.421	1.267	0.675	-1.738	-0.023	-1.066	0.265	-0.660	-0.185	0.591	-0.518	-0.006	0.174	0.034	0.461	1.032	2.978	3.403	0.834	1.030	617.188
0.059	-0.185	-2.966	-0.028	0.144	0.204	0.178	-1.238	2.238	1.087	0.509	-1.974	-0.309	-1.195	0.237	-0.703	-0.179	0.596	-0.410	-0.043	0.097	0.207	0.487	1.297	3.240	3.599	1.036	1.140	621.094
0.207	-0.286	-2.876	-0.127	0.166	0.213	0.123	-1.018	2.011	0.912	0.360	-2.169	-0.485	-1.259	0.255	-0.776	-0.189	0.591	-0.338	-0.108	0.031	0.360	0.496	1.609	3.394	3.706	1.254	1.174	625.000
0.470	-0.458	-2.757	-0.297	0.132	0.184	0.064	-0.877	1.762	0.720	0.224	-2.330	-0.556	-1.262	0.312	-0.861	-0.211	0.585	-0.297	-0.184	-0.019	0.486	0.509	1.934	3.455	3.732	1.466	1.126	628.906
0.802	-0.660	-2.598	-0.510	0.053	0.129	-0.012	-0.847	1.525	0.503	0.102	-2.460	-0.534	-1.211	0.399	-0.937	-0.236	0.581	-0.281	-0.257	-0.052	0.576	0.535	2.240	3.441	3.691	1.660	1.005	632.812
1.147	-0.842	-2.403	-0.727	-0.054	0.063	-0.106	-0.934	1.332	0.263	-0.001	-2.555	-0.433	-1.118	0.499	-0.986	-0.256	0.582	-0.283	-0.312	-0.071	0.624	0.569	2.504	3.374	3.602	1.831	0.834	636.719
1.449	-0.952	-2.182	-0.904	-0.161	-0.003	-0.211	-1.122	1.205	0.019	-0.080	-2.606	-0.261	-0.994	0.598	-0.992	-0.264	0.584	-0.297	-0.338	-0.075	0.627	0.596	2.708	3.268	3.476	1.981	0.636	640.625
1.676	-0.948	-1.952	-1.001	-0.243	-0.059	-0.308	-1.377	1.152	-0.200	-0.128	-2.604	-0.023	-0.850	0.689	-0.950	-0.252	0.584	-0.317	-0.330	-0.065	0.585	0.591	2.844	3.129	3.319	2.108	0.436	644.531
1.821	-0.812	-1.735	-0.988	-0.273	-0.096	-0.376	-1.655	1.160	-0.362	-0.147	-2.548	0.277	-0.692	0.774	-0.858	-0.215	0.581	-0.333	-0.285	-0.040	0.503	0.531	2.905	2.949	3.123	2.206	0.248	648.438
1.911	-0.552	-1.550	-0.853	-0.235	-0.110	-0.393	-1.909	1.203	-0.440	-0.141	-2.446	0.638	-0.525	0.864	-0.724	-0.146	0.573	-0.335	-0.205	0.004	0.390	0.400	2.887	2.712	2.873	2.256	0.076	652.344
1.988	-0.194	-1.413	-0.603	-0.120	-0.096	-0.342	-2.103	1.244	-0.419	-0.127	-2.316	1.051	-0.350	0.975	-0.558	-0.040	0.565	-0.307	-0.094	0.069	0.261	0.200	2.783	2.398	2.551	2.235	-0.084	656.250
2.095	0.223	-1.334	-0.259	0.068	-0.050	-0.219	-2.216	1.253	-0.301	-0.122	-2.186	1.498	-0.171	1.120	-0.369	0.107	0.564	-0.240	0.043	0.158	0.128	-0.051	2.591	1.991	2.137	2.115	-0.249	660.156
2.263	0.658	-1.318	0.147	0.315	0.027	-0.032	-2.243	1.207	-0.104	-0.143	-2.087	1.954	0.004	1.303	-0.167	0.291	0.577	-0.131	0.200	0.268	0.004	-0.317	2.310	1.487	1.624	1.877	-0.435	664.062
2.495	1.076	-1.360	0.574	0.597	0.135	0.199	-2.199	1.102	0.134	-0.201	-2.048	2.378	0.165	1.517	0.040	0.498	0.607	0.007	0.366	0.392	-0.100	-0.555	1.947	0.902	1.017	1.510	-0.659	667.969
2.774	1.445	-1.445	0.979	0.882	0.267	0.442	-2.114	0.953	0.369	-0.295	-2.092	2.729	0.294	1.741	0.244	0.705	0.652	0.152	0.530	0.519	-0.183	-0.719	1.518	0.270	0.343	1.025	-0.927	671.875
3.068	1.744	-1.547	1.319	1.136	0.415	0.660	-2.020	0.787	0.558	-0.415	-2.226	2.959	0.373	1.948	0.435	0.886	0.706	0.274	0.678	0.630	-0.241	-0.774	1.045	-0.358	-0.354	0.446	-1.237	675.781
3.346	1.952	-1.625	1.553	1.327	0.568	0.817	-1.951	0.638	0.664	-0.543	-2.447	3.032	0.384	2.112	0.604	1.016	0.760	0.351	0.796	0.707	-0.277	-0.704	0.559	-0.924	-1.016	-0.187	-1.575	679.688
3.587	2.052	-1.639	1.652	1.428	0.707	0.888	-1.930	0.537	0.672	-0.660	-2.732	2.924	0.314	2.214	0.736	1.076	0.806	0.373	0.871	0.735	-0.289	-0.516	0.091	-1.365	-1.582	-0.825	-1.915	683.594
3.786	2.033	-1.554	1.599	1.422	0.812	0.857	-1.967	0.496	0.581	-0.749	-3.054	2.630	0.157	2.247	0.819	1.064	0.838	0.349	0.894	0.704	-0.277	-0.237	-0.324	-1.631	-1.994	-1.416	-2.227	687.500
3.952	1.891	-1.359	1.399	1.309	0.864	0.725	-2.063	0.508	0.407	-0.804	-3.376	2.168	-0.077	2.218	0.842	0.986	0.855	0.299	0.861	0.610	-0.237	0.095	-0.655	-1.682	-2.211	-1.908	-2.481	691.406
4.101	1.642	-1.068	1.073	1.099	0.844	0.502	-2.207	0.547	0.174	-0.829	-3.663	1.575	-0.375	2.144	0.800	0.865	0.865	0.254	0.775	0.459	-0.166	0.440	-0.875	-1.503	-2.210	-2.258	-2.649	695.312
4.242	1.313	-0.725	0.666	0.816	0.742	0.210	-2.388	0.579	-0.093	-0.836	-3.890	0.899	-0.710	2.050	0.697	0.729	0.879	0.244	0.646	0.264	-0.061	0.767	-0.964	-1.104	-1.990	-2.434	-2.716	699.219
4.372	0.951	-0.392	0.232	0.495	0.557	-0.128	-2.597	0.568	-0.371	-0.841	-4.039	0.199	-1.055	1.957	0.545	0.610	0.914	0.297	0.489	0.041	0.083	1.061	-0.916	-0.520	-1.576	-2.419	-2.678	703.125
4.472	0.606	-0.134	-0.169	0.169	0.300	-0.486	-2.828	0.492	-0.646	-0.867	-4.108	-0.469	-1.382	1.885	0.367	0.539	0.983	0.426	0.325	-0.188	0.266	1.325	-0.735	0.187	-1.012	-2.214	-2.539	707.031
4.508	0.326	0.001	-0.485	-0.129	-0.011	-0.837	-3.078	0.341	-0.907	-0.927	-4.103	-1.054	-1.664	1.841	0.193	0.536	1.096	0.633	0.174	-0.402	0.486	1.570	-0.443	0.937	-0.356	-1.842	-2.316	710.938
4.450	0.141	-0.011	-0.680	-0.372	-0.349	-1.156	-3.341	0.124	-1.144	-1.030	-4.039	-1.511	-1.880	1.824	0.048	0.612	1.252	0.905	0.055	-0.581	0.732	1.807	-0.074	1.645	0.326	-1.344	-2.031	714.844
4.276	0.063	-0.165	-0.742	-0.544	-0.683	-1.417	-3.603	-0.137	-1.348	-1.173	-3.933	-1.809	-2.012	1.827	-0.047	0.757	1.436	1.212	-0.021	-0.708	0.987	2.033	0.334	2.231	0.972	-0.772	-1.708	718.750
3.989	0.081	-0.429	-0.685	-0.638	-0.983	-1.599	-3.842	-0.410	-1.504	-1.338	-3.798	-1.924	-2.050	1.837	-0.082	0.949	1.626	1.516	-0.047	-0.770	1.228	2.235	0.739	2.637	1.525	-0.182	-1.377	722.656
3.616	0.164	-0.756	-0.541	-0.658	-1.222	-1.684	-4.030	-0.655	-1.598	-1.500	-3.641	-1.849	-1.987	1.846	-0.063	1.155	1.792	1.772	-0.029	-0.761	1.429	2.387	1.111	2.831	1.943	0.374	-1.064	726.562
3.200	0.276	-1.099	-0.351	-0.612	-1.385	-1.665	-4.140	-0.836	-1.616	-1.626	-3.466	-1.591	-1.826	1.844	-0.007	1.340	1.910	1.942	0.026	-0.679	1.562	2.462	1.427	2.817	2.198	0.856	-0.795	730.469
2.786	0.382	-1.422	-0.154	-0.515	-1.469	-1.546	-4.151	-0.922	-1.556	-1.687	-3.275	-1.175	-1.577	1.826	0.067	1.471	1.960	1.998	0.103	-0.533	1.607	2.442	1.675	2.623	2.283	1.238	-0.591	734.375
2.417	0.460	-1.700	0.021	-0.380	-1.476	-1.349	-4.056	-0.896	-1.425	-1.665	-3.074	-0.643	-1.263	1.790	0.137	1.528	1.936	1.929	0.190	-0.338	1.550	2.320	1.849	2.301	2.209	1.503	-0.466	738.281
2.126	0.503	-1.924	0.162	-0.220	-1.420	-1.105	-3.867	-0.755	-1.245	-1.554	-2.874	-0.049	-0.914	1.739	0.187	1.502	1.841	1.741	0.277	-0.116	1.390	2.105	1.941	1.905	2.006	1.646	-0.427	742.188
1.939	0.520	-2.084	0.266	-0.050	-1.314	-0.854	-3.607	-0.512	-1.047	-1.365	-2.693	0.543	-0.569	1.677	0.212	1.398	1.687	1.456	0.353	0.110	1.136	1.824	1.943	1.489	1.707	1.660	-0.471	746.094
1.874	0.529	-2.163	0.339	0.116	-1.175	-0.635	-3.316	-0.194	-0.868	-1.124	-2.553	1.069	-0.269	1.613	0.212	1.230	1.496	1.106	0.413	0.311	0.811	1.511	1.849	1.089	1.346	1.545	-0.589	750.000
1.952	0.551	-2.133	0.390	0.262	-1.013	-0.482	-3.035	0.164	-0.741	-0.865	-2.476	1.474	-0.048	1.560	0.196	1.021	1.289	0.732	0.453	0.465	0.445	1.209	1.655	0.725	0.944	1.302	-0.768	753.906
2.183	0.602	-1.962	0.422	0.373	-0.840	-0.414	-2.801	0.524	-0.686	-0.626	-2.482	1.722	0.066	1.529	0.176	0.791	1.088	0.368	0.469	0.552	0.074	0.957	1.370	0.402	0.514	0.939	-0.994	757.812
2.571	0.689	-1.626	0.436	0.438	-0.663	-0.434	-2.641	0.846	-0.713	-0.439	-2.579	1.795	0.062	1.530	0.162	0.561	0.909	0.042	0.460	0.562	-0.267	0.785	1.014	0.120	0.061	0.473	-1.256	761.719
3.096	0.808	-1.132	0.432	0.451	-0.493	-0.531	-2.563	1.096	-0.815	-0.328	-2.765	1.700	-0.055	1.568	0.163	0.350	0.762	-0.222	0.426	0.495	-0.550	0.700	0.621	-0.121	-0.405	-0.062	-1.538	765.625
3.715	0.946	-0.531	0.416	0.418	-0.338	-0.678	-2.554	1.247	-0.974	-0.299	-3.024	1.464	-0.266	1.645	0.188	0.181	0.655	-0.402	0.376	0.365	-0.751	0.684	0.235	-0.314	-0.863	-0.616	-1.828	769.531
4.358	1.087	0.084	0.399	0.355	-0.214	-0.843	-2.589	1.283	-1.167	-0.345	-3.330	1.129	-0.538	1.755	0.242	0.081	0.591	-0.466	0.320	0.195	-0.849	0.697	-0.091	-0.447	-1.276	-1.124	-2.109	773.438
4.936	1.217	0.596	0.397	0.283	-0.135	-0.990	-2.637	1.201	-1.373	-0.449	-3.652	0.746	-0.830	1.891	0.329	0.082	0.573	-0.381	0.275	0.014	-0.831	0.681	-0.307	-0.506	-1.602	-1.515	-2.367	777.344
5.366	1.329	0.888	0.430	0.228	-0.116	-1.094	-2.665	1.011	-1.573	-0.587	-3.960	0.362	-1.105	2.045	0.452	0.215	0.600	-0.116	0.256	-0.145	-0.689	0.580	-0.375	-0.482	-1.800	-1.727	-2.588	781.250
5.591	1.422	0.880	0.511	0.210	-0.165	-1.137	-2.652	0.732	-1.760	-0.737	-4.235	0.013	-1.336	2.209	0.610	0.494	0.668	0.345	0.276	-0.260	-0.425	0.350	-0.274	-0.374	-1.846	-1.722	-2.767	785.156
5.597	1.497	0.553	0.646	0.239	-0.282	-1.117	-2.588	0.391	-1.930	-0.880	-4.467	-0.282	-1.510	2.377	0.799	0.914	0.772	0.992	0.338	-0.321	-0.056	-0.023	-0.014	-0.194	-1.742	-1.502	-2.906	789.062
5.421	1.562	-0.043	0.828	0.312	-0.452	-1.045	-2.476	0.015	-2.085	-1.007	-4.660	-0.523	-1.630	2.545	1.010	1.444	0.900	1.782	0.435	-0.332	0.389	-0.522	0.370	0.039	-1.522	-1.110	-3.016	792.969
5.139	1.621	-0.798	1.037	0.415	-0.648	-0.942	-2.331	-0.370	-2.231	-1.116	-4.827	-0.724	-1.715	2.712	1.231	2.032	1.036	2.645	0.552	-0.311	0.866	-1.100	0.819	0.297	-1.241	-0.626	-3.113	796.875
