FP1	F3	F7	FC3	C3	C5	P3	P7	PO7	PO3	O1	Oz	Pz	CPz	FP2	Fz	F4	F8	FC4	FCz	Cz	C4	C6	P4	P8	PO8	PO4	O2	time
3.213	-0.759	2.210	0.841	1.132	0.022	0.900	1.670	1.830	0.214	-1.031	-2.398	-0.210	0.635	0.884	0.405	0.277	-0.265	0.826	0.674	0.579	-0.765	-1.482	-2.991	-1.071	-0.348	-2.998	-0.284	-199.219
2.546	-0.260	2.090	0.796	1.080	0.090	0.919	1.486	0.998	0.212	-1.056	-2.193	0.126	0.833	0.709	0.439	0.119	-0.262	0.317	0.632	0.561	-0.516	-0.900	-2.166	-1.517	-0.967	-2.320	-0.689	-195.312
1.974	0.200	1.984	0.753	1.022	0.171	0.913	1.277	0.250	0.191	-1.071	-2.002	0.412	0.998	0.564	0.472	-0.012	-0.253	-0.120	0.595	0.536	-0.278	-0.375	-1.449	-1.914	-1.509	-1.739	-1.052	-191.406
1.540	0.587	1.878	0.719	0.956	0.264	0.869	1.036	-0.352	0.140	-1.066	-1.829	0.611	1.103	0.462	0.507	-0.096	-0.231	-0.433	0.564	0.496	-0.062	0.050	-0.921	-2.219	-1.915	-1.334	-1.333	-187.500
1.265	0.886	1.759	0.703	0.884	0.371	0.784	0.775	-0.772	0.057	-1.038	-1.683	0.700	1.136	0.411	0.545	-0.117	-0.195	-0.585	0.544	0.443	0.129	0.347	-0.625	-2.417	-2.173	-1.150	-1.518	-183.594
1.146	1.092	1.615	0.711	0.814	0.488	0.671	0.525	-1.006	-0.051	-0.990	-1.574	0.675	1.095	0.412	0.592	-0.068	-0.145	-0.565	0.538	0.380	0.293	0.505	-0.560	-2.516	-2.315	-1.196	-1.615	-179.688
1.160	1.214	1.440	0.743	0.753	0.606	0.550	0.327	-1.075	-0.165	-0.927	-1.506	0.549	0.989	0.461	0.652	0.050	-0.084	-0.388	0.548	0.314	0.433	0.535	-0.684	-2.546	-2.403	-1.438	-1.648	-175.781
1.266	1.263	1.235	0.790	0.706	0.710	0.446	0.222	-1.011	-0.263	-0.849	-1.471	0.351	0.838	0.545	0.722	0.222	-0.018	-0.092	0.569	0.252	0.551	0.462	-0.924	-2.539	-2.494	-1.803	-1.644	-171.875
1.412	1.246	1.007	0.834	0.668	0.778	0.379	0.234	-0.849	-0.319	-0.747	-1.445	0.120	0.665	0.646	0.789	0.422	0.048	0.269	0.589	0.195	0.645	0.322	-1.190	-2.512	-2.617	-2.193	-1.614	-167.969
1.537	1.167	0.766	0.851	0.628	0.790	0.360	0.365	-0.620	-0.312	-0.609	-1.392	-0.100	0.489	0.737	0.832	0.618	0.108	0.635	0.588	0.138	0.714	0.151	-1.395	-2.467	-2.759	-2.498	-1.555	-164.062
1.584	1.022	0.527	0.810	0.570	0.728	0.389	0.591	-0.347	-0.230	-0.420	-1.269	-0.270	0.327	0.791	0.824	0.773	0.153	0.945	0.540	0.072	0.750	-0.018	-1.468	-2.379	-2.861	-2.619	-1.439	-160.156
1.508	0.806	0.305	0.689	0.474	0.586	0.449	0.864	-0.046	-0.075	-0.174	-1.040	-0.363	0.189	0.781	0.736	0.849	0.175	1.147	0.423	-0.013	0.744	-0.161	-1.365	-2.214	-2.840	-2.482	-1.232	-156.250
1.284	0.514	0.113	0.471	0.326	0.369	0.516	1.129	0.271	0.138	0.128	-0.684	-0.368	0.077	0.689	0.550	0.819	0.167	1.200	0.222	-0.129	0.691	-0.262	-1.077	-1.937	-2.614	-2.054	-0.899	-152.344
0.918	0.148	-0.042	0.159	0.120	0.093	0.563	1.332	0.595	0.383	0.473	-0.200	-0.291	-0.013	0.509	0.260	0.668	0.126	1.089	-0.064	-0.280	0.587	-0.317	-0.626	-1.528	-2.123	-1.350	-0.423	-148.438
0.444	-0.279	-0.161	-0.228	-0.135	-0.211	0.567	1.438	0.911	0.629	0.840	0.386	-0.155	-0.087	0.252	-0.122	0.404	0.055	0.825	-0.418	-0.464	0.438	-0.332	-0.062	-0.989	-1.356	-0.432	0.189	-144.531
-0.084	-0.741	-0.260	-0.654	-0.418	-0.507	0.516	1.437	1.205	0.844	1.202	1.027	0.009	-0.154	-0.054	-0.566	0.055	-0.040	0.447	-0.809	-0.670	0.253	-0.319	0.545	-0.346	-0.351	0.601	0.897	-140.625
-0.608	-1.200	-0.363	-1.070	-0.700	-0.756	0.410	1.340	1.458	1.001	1.527	1.661	0.164	-0.220	-0.378	-1.029	-0.336	-0.147	0.009	-1.196	-0.880	0.048	-0.296	1.118	0.356	0.803	1.630	1.638	-136.719
-1.077	-1.615	-0.491	-1.426	-0.950	-0.925	0.261	1.181	1.652	1.081	1.787	2.219	0.278	-0.291	-0.685	-1.463	-0.722	-0.254	-0.428	-1.538	-1.077	-0.162	-0.276	1.589	1.058	1.989	2.530	2.329	-132.812
-1.463	-1.945	-0.657	-1.682	-1.140	-0.994	0.087	0.996	1.770	1.077	1.955	2.634	0.329	-0.371	-0.952	-1.824	-1.063	-0.350	-0.818	-1.799	-1.241	-0.363	-0.265	1.904	1.703	3.076	3.197	2.886	-128.906
-1.750	-2.159	-0.855	-1.814	-1.253	-0.961	-0.089	0.820	1.802	0.990	2.011	2.857	0.308	-0.457	-1.165	-2.076	-1.332	-0.430	-1.130	-1.959	-1.360	-0.545	-0.256	2.035	2.240	3.948	3.561	3.239	-125.000
-1.935	-2.241	-1.052	-1.817	-1.283	-0.839	-0.248	0.671	1.743	0.831	1.941	2.860	0.222	-0.544	-1.317	-2.199	-1.517	-0.488	-1.355	-2.010	-1.426	-0.700	-0.234	1.979	2.632	4.520	3.594	3.340	-121.094
-2.013	-2.187	-1.203	-1.708	-1.235	-0.652	-0.379	0.555	1.588	0.615	1.742	2.641	0.090	-0.624	-1.402	-2.187	-1.611	-0.520	-1.486	-1.953	-1.432	-0.816	-0.179	1.763	2.859	4.748	3.315	3.179	-117.188
-1.975	-2.008	-1.257	-1.509	-1.121	-0.428	-0.476	0.460	1.340	0.360	1.421	2.224	-0.062	-0.682	-1.413	-2.041	-1.610	-0.518	-1.517	-1.801	-1.376	-0.877	-0.080	1.431	2.914	4.632	2.782	2.777	-113.281
-1.810	-1.719	-1.174	-1.250	-0.956	-0.195	-0.542	0.365	1.003	0.079	0.995	1.652	-0.206	-0.706	-1.340	-1.773	-1.507	-0.474	-1.433	-1.564	-1.256	-0.869	0.062	1.038	2.805	4.208	2.078	2.182	-109.375
-1.512	-1.344	-0.941	-0.955	-0.756	0.029	-0.585	0.244	0.586	-0.214	0.488	0.983	-0.318	-0.685	-1.175	-1.403	-1.297	-0.386	-1.223	-1.257	-1.071	-0.779	0.229	0.637	2.552	3.536	1.295	1.461	-105.469
-1.091	-0.908	-0.577	-0.643	-0.530	0.234	-0.613	0.081	0.106	-0.503	-0.062	0.281	-0.385	-0.617	-0.921	-0.957	-0.986	-0.257	-0.892	-0.898	-0.827	-0.612	0.391	0.272	2.178	2.694	0.520	0.690	-101.562
-0.583	-0.437	-0.132	-0.326	-0.288	0.421	-0.627	-0.130	-0.409	-0.772	-0.612	-0.393	-0.402	-0.502	-0.596	-0.471	-0.599	-0.100	-0.467	-0.504	-0.534	-0.385	0.514	-0.030	1.713	1.760	-0.181	-0.060	-97.656
-0.049	0.042	0.322	-0.009	-0.033	0.593	-0.624	-0.379	-0.925	-0.996	-1.112	-0.985	-0.370	-0.352	-0.235	0.017	-0.174	0.063	-0.004	-0.099	-0.207	-0.130	0.576	-0.261	1.185	0.807	-0.767	-0.732	-93.750
0.433	0.498	0.708	0.301	0.230	0.752	-0.595	-0.644	-1.402	-1.149	-1.512	-1.455	-0.300	-0.180	0.118	0.467	0.240	0.209	0.432	0.293	0.135	0.112	0.570	-0.429	0.622	-0.109	-1.224	-1.284	-89.844
0.791	0.900	0.962	0.598	0.491	0.890	-0.527	-0.894	-1.797	-1.205	-1.772	-1.776	-0.201	-0.002	0.418	0.846	0.598	0.321	0.776	0.650	0.469	0.310	0.510	-0.549	0.052	-0.944	-1.554	-1.693	-85.938
0.975	1.216	1.048	0.863	0.736	0.995	-0.409	-1.096	-2.071	-1.144	-1.865	-1.939	-0.086	0.164	0.636	1.130	0.866	0.392	0.990	0.952	0.773	0.442	0.425	-0.638	-0.501	-1.671	-1.776	-1.956	-82.031
0.971	1.419	0.970	1.075	0.943	1.050	-0.241	-1.232	-2.197	-0.961	-1.787	-1.946	0.033	0.304	0.756	1.310	1.034	0.425	1.064	1.184	1.026	0.502	0.353	-0.707	-1.008	-2.271	-1.905	-2.083	-78.125
0.808	1.492	0.766	1.206	1.088	1.037	-0.037	-1.294	-2.161	-0.669	-1.552	-1.815	0.144	0.405	0.785	1.388	1.104	0.432	1.017	1.336	1.211	0.501	0.325	-0.761	-1.440	-2.726	-1.956	-2.094	-74.219
0.542	1.433	0.496	1.235	1.146	0.951	0.180	-1.295	-1.969	-0.301	-1.196	-1.570	0.237	0.455	0.743	1.376	1.095	0.429	0.887	1.403	1.312	0.457	0.359	-0.794	-1.762	-3.020	-1.931	-2.014	-70.312
0.247	1.258	0.219	1.154	1.104	0.796	0.377	-1.257	-1.647	0.093	-0.766	-1.241	0.300	0.450	0.659	1.290	1.025	0.426	0.713	1.387	1.323	0.388	0.448	-0.796	-1.940	-3.134	-1.826	-1.864	-66.406
-0.010	1.002	-0.020	0.973	0.962	0.586	0.522	-1.206	-1.242	0.458	-0.316	-0.860	0.328	0.389	0.559	1.148	0.914	0.427	0.529	1.294	1.246	0.308	0.563	-0.755	-1.946	-3.052	-1.635	-1.661	-62.500
-0.185	0.707	-0.203	0.721	0.737	0.343	0.589	-1.165	-0.807	0.741	0.103	-0.457	0.316	0.280	0.462	0.969	0.777	0.426	0.357	1.138	1.093	0.224	0.659	-0.665	-1.765	-2.763	-1.356	-1.410	-58.594
-0.267	0.417	-0.338	0.437	0.459	0.092	0.562	-1.146	-0.399	0.903	0.449	-0.056	0.268	0.135	0.377	0.771	0.624	0.415	0.206	0.938	0.885	0.135	0.688	-0.528	-1.399	-2.271	-0.994	-1.111	-54.688
-0.276	0.170	-0.448	0.166	0.162	-0.148	0.443	-1.149	-0.061	0.927	0.693	0.321	0.189	-0.029	0.301	0.570	0.464	0.385	0.079	0.717	0.649	0.040	0.619	-0.352	-0.875	-1.599	-0.568	-0.760	-50.781
-0.255	-0.010	-0.559	-0.058	-0.119	-0.358	0.244	-1.163	0.182	0.817	0.824	0.657	0.090	-0.193	0.226	0.379	0.305	0.330	-0.026	0.498	0.411	-0.061	0.445	-0.151	-0.238	-0.789	-0.099	-0.356	-46.875
-0.252	-0.116	-0.688	-0.217	-0.360	-0.531	-0.011	-1.175	0.330	0.598	0.847	0.940	-0.016	-0.340	0.143	0.207	0.156	0.256	-0.108	0.299	0.198	-0.164	0.193	0.061	0.447	0.095	0.384	0.089	-42.969
-0.304	-0.157	-0.837	-0.310	-0.549	-0.664	-0.291	-1.171	0.406	0.310	0.783	1.162	-0.118	-0.459	0.046	0.058	0.026	0.172	-0.165	0.132	0.026	-0.255	-0.091	0.274	1.114	0.979	0.857	0.551	-39.062
-0.425	-0.159	-0.992	-0.352	-0.686	-0.763	-0.565	-1.140	0.442	0.001	0.665	1.318	-0.206	-0.544	-0.064	-0.068	-0.077	0.091	-0.196	0.001	-0.098	-0.323	-0.351	0.480	1.697	1.782	1.298	0.994	-35.156
-0.603	-0.151	-1.133	-0.366	-0.780	-0.836	-0.804	-1.075	0.468	-0.287	0.527	1.410	-0.275	-0.595	-0.179	-0.176	-0.152	0.026	-0.201	-0.098	-0.175	-0.357	-0.541	0.672	2.148	2.435	1.689	1.374	-31.250
-0.803	-0.163	-1.240	-0.376	-0.842	-0.890	-0.986	-0.973	0.498	-0.520	0.403	1.444	-0.323	-0.617	-0.288	-0.267	-0.197	-0.017	-0.182	-0.172	-0.212	-0.352	-0.638	0.846	2.439	2.887	2.014	1.647	-27.344
-0.982	-0.210	-1.295	-0.397	-0.883	-0.929	-1.098	-0.838	0.527	-0.681	0.313	1.429	-0.354	-0.620	-0.376	-0.340	-0.219	-0.038	-0.149	-0.226	-0.220	-0.314	-0.645	0.990	2.567	3.121	2.258	1.782	-23.438
-1.095	-0.294	-1.294	-0.433	-0.909	-0.951	-1.138	-0.681	0.531	-0.770	0.264	1.371	-0.378	-0.613	-0.430	-0.389	-0.219	-0.042	-0.107	-0.263	-0.206	-0.254	-0.587	1.092	2.546	3.148	2.406	1.762	-19.531
-1.111	-0.398	-1.238	-0.474	-0.918	-0.952	-1.114	-0.521	0.480	-0.798	0.246	1.277	-0.403	-0.603	-0.441	-0.403	-0.202	-0.036	-0.061	-0.278	-0.175	-0.187	-0.502	1.137	2.406	3.006	2.448	1.592	-15.625
-1.015	-0.493	-1.141	-0.501	-0.905	-0.921	-1.041	-0.381	0.352	-0.786	0.238	1.149	-0.438	-0.598	-0.401	-0.370	-0.163	-0.023	-0.010	-0.265	-0.130	-0.126	-0.424	1.112	2.182	2.749	2.377	1.298	-11.719
-0.816	-0.545	-1.022	-0.492	-0.862	-0.850	-0.936	-0.286	0.144	-0.751	0.215	0.990	-0.485	-0.598	-0.311	-0.284	-0.098	-0.004	0.051	-0.218	-0.070	-0.079	-0.373	1.012	1.910	2.428	2.193	0.917	-7.812
-0.545	-0.528	-0.904	-0.424	-0.782	-0.735	-0.813	-0.254	-0.125	-0.702	0.156	0.801	-0.543	-0.604	-0.180	-0.146	-0.008	0.024	0.123	-0.134	0.008	-0.046	-0.352	0.840	1.618	2.086	1.906	0.497	-3.906
-0.245	-0.430	-0.806	-0.291	-0.662	-0.575	-0.680	-0.294	-0.411	-0.641	0.054	0.589	-0.602	-0.612	-0.023	0.031	0.104	0.065	0.203	-0.021	0.099	-0.029	-0.347	0.608	1.330	1.751	1.534	0.081	0.000
0.034	-0.263	-0.739	-0.105	-0.511	-0.382	-0.539	-0.403	-0.658	-0.559	-0.079	0.364	-0.647	-0.617	0.137	0.223	0.225	0.116	0.280	0.103	0.198	-0.025	-0.338	0.335	1.064	1.434	1.104	-0.293	3.906
0.250	-0.060	-0.703	0.105	-0.345	-0.173	-0.388	-0.564	-0.807	-0.440	-0.212	0.142	-0.664	-0.619	0.276	0.396	0.334	0.174	0.337	0.218	0.291	-0.039	-0.308	0.043	0.832	1.136	0.647	-0.598	7.812
0.370	0.135	-0.691	0.296	-0.187	0.027	-0.224	-0.753	-0.816	-0.271	-0.308	-0.057	-0.640	-0.615	0.368	0.520	0.406	0.225	0.353	0.298	0.367	-0.075	-0.255	-0.251	0.644	0.854	0.192	-0.821	11.719
0.377	0.275	-0.688	0.426	-0.061	0.189	-0.047	-0.943	-0.667	-0.042	-0.331	-0.212	-0.568	-0.605	0.395	0.573	0.421	0.253	0.312	0.328	0.412	-0.140	-0.189	-0.533	0.503	0.586	-0.234	-0.958	15.625
0.271	0.331	-0.680	0.469	0.016	0.290	0.138	-1.111	-0.378	0.242	-0.262	-0.310	-0.453	-0.591	0.349	0.550	0.369	0.245	0.206	0.303	0.421	-0.240	-0.135	-0.793	0.407	0.327	-0.616	-1.016	19.531
0.074	0.295	-0.656	0.421	0.037	0.317	0.317	-1.241	-0.000	0.558	-0.103	-0.343	-0.309	-0.574	0.236	0.465	0.255	0.192	0.042	0.237	0.397	-0.371	-0.121	-1.029	0.346	0.072	-0.947	-1.008	23.438
-0.169	0.188	-0.608	0.304	0.009	0.271	0.468	-1.330	0.393	0.869	0.120	-0.316	-0.157	-0.555	0.080	0.351	0.100	0.097	-0.158	0.155	0.354	-0.523	-0.164	-1.238	0.303	-0.184	-1.232	-0.952	27.344
-0.403	0.049	-0.536	0.155	-0.053	0.166	0.567	-1.385	0.719	1.122	0.362	-0.244	-0.025	-0.534	-0.084	0.249	-0.063	-0.026	-0.362	0.090	0.309	-0.672	-0.267	-1.421	0.262	-0.444	-1.481	-0.867	31.250
-0.569	-0.075	-0.446	0.021	-0.126	0.027	0.587	-1.419	0.907	1.266	0.571	-0.153	0.058	-0.513	-0.217	0.201	-0.196	-0.153	-0.528	0.076	0.283	-0.793	-0.411	-1.575	0.210	-0.700	-1.704	-0.773	35.156
-0.627	-0.140	-0.359	-0.056	-0.188	-0.122	0.511	-1.446	0.914	1.255	0.702	-0.069	0.074	-0.493	-0.287	0.239	-0.265	-0.256	-0.622	0.136	0.293	-0.856	-0.560	-1.693	0.141	-0.934	-1.898	-0.688	39.062
-0.569	-0.116	-0.300	-0.045	-0.223	-0.257	0.330	-1.475	0.731	1.069	0.716	-0.022	0.009	-0.473	-0.275	0.373	-0.244	-0.308	-0.616	0.278	0.348	-0.838	-0.674	-1.760	0.060	-1.118	-2.051	-0.625	42.969
-0.415	0.003	-0.298	0.058	-0.224	-0.365	0.056	-1.505	0.391	0.718	0.600	-0.039	-0.134	-0.456	-0.182	0.592	-0.128	-0.293	-0.499	0.490	0.447	-0.728	-0.718	-1.754	-0.015	-1.214	-2.130	-0.593	46.875
-0.211	0.198	-0.371	0.235	-0.197	-0.441	-0.288	-1.523	-0.042	0.242	0.359	-0.137	-0.343	-0.446	-0.029	0.861	0.068	-0.210	-0.287	0.744	0.573	-0.533	-0.673	-1.650	-0.054	-1.181	-2.092	-0.589	50.781
-0.012	0.427	-0.518	0.442	-0.158	-0.489	-0.665	-1.513	-0.480	-0.295	0.024	-0.328	-0.599	-0.449	0.151	1.127	0.309	-0.072	-0.014	0.994	0.701	-0.277	-0.544	-1.420	-0.019	-0.977	-1.887	-0.604	54.688
0.130	0.629	-0.716	0.624	-0.132	-0.521	-1.031	-1.456	-0.830	-0.814	-0.361	-0.608	-0.877	-0.474	0.313	1.333	0.541	0.093	0.266	1.190	0.797	-0.002	-0.352	-1.047	0.133	-0.570	-1.475	-0.615	58.594
0.175	0.740	-0.929	0.721	-0.144	-0.547	-1.347	-1.339	-1.011	-1.239	-0.745	-0.966	-1.153	-0.529	0.418	1.428	0.713	0.252	0.495	1.286	0.826	0.245	-0.133	-0.531	0.439	0.059	-0.840	-0.601	62.500
0.106	0.709	-1.115	0.689	-0.213	-0.575	-1.579	-1.159	-0.966	-1.507	-1.079	-1.382	-1.409	-0.624	0.437	1.377	0.778	0.375	0.622	1.252	0.764	0.418	0.077	0.106	0.918	0.899	0.004	-0.542	66.406
-0.076	0.513	-1.241	0.508	-0.346	-0.608	-1.705	-0.920	-0.678	-1.580	-1.329	-1.830	-1.635	-0.765	0.353	1.175	0.709	0.440	0.615	1.077	0.599	0.486	0.250	0.817	1.563	1.912	1.001	-0.427	70.312
-0.354	0.167	-1.292	0.191	-0.534	-0.640	-1.719	-0.633	-0.164	-1.450	-1.480	-2.286	-1.830	-0.952	0.171	0.843	0.508	0.439	0.467	0.780	0.339	0.436	0.368	1.534	2.338	3.027	2.057	-0.261	74.219
-0.699	-0.280	-1.271	-0.217	-0.754	-0.663	-1.628	-0.309	0.525	-1.139	-1.533	-2.728	-2.005	-1.180	-0.090	0.428	0.201	0.375	0.202	0.398	0.009	0.278	0.425	2.177	3.181	4.149	3.052	-0.067	78.125
-1.079	-0.750	-1.207	-0.648	-0.973	-0.666	-1.449	0.042	1.317	-0.691	-1.505	-3.138	-2.173	-1.440	-0.397	-0.011	-0.165	0.263	-0.133	-0.017	-0.354	0.043	0.423	2.665	4.008	5.171	3.857	0.117	82.031
-1.455	-1.155	-1.134	-1.023	-1.155	-0.643	-1.207	0.412	2.132	-0.166	-1.419	-3.506	-2.349	-1.716	-0.712	-0.408	-0.534	0.123	-0.479	-0.408	-0.707	-0.227	0.368	2.933	4.729	5.986	4.355	0.244	85.938
-1.790	-1.425	-1.088	-1.281	-1.274	-0.588	-0.930	0.797	2.898	0.377	-1.297	-3.822	-2.545	-1.991	-0.999	-0.716	-0.854	-0.026	-0.780	-0.730	-1.015	-0.492	0.271	2.940	5.261	6.507	4.462	0.271	89.844
-2.045	-1.523	-1.085	-1.384	-1.316	-0.507	-0.641	1.191	3.559	0.883	-1.155	-4.081	-2.761	-2.250	-1.231	-0.907	-1.093	-0.170	-1.000	-0.956	-1.254	-0.719	0.139	2.679	5.541	6.680	4.147	0.165	93.750
-2.188	-1.454	-1.121	-1.333	-1.283	-0.406	-0.361	1.582	4.086	1.318	-0.996	-4.275	-2.983	-2.477	-1.389	-0.980	-1.241	-0.304	-1.127	-1.081	-1.417	-0.893	-0.021	2.178	5.540	6.497	3.435	-0.081	97.656
-2.203	-1.261	-1.173	-1.159	-1.193	-0.298	-0.100	1.950	4.472	1.667	-0.816	-4.394	-3.185	-2.657	-1.471	-0.955	-1.305	-0.428	-1.169	-1.118	-1.507	-1.014	-0.207	1.495	5.265	5.997	2.411	-0.451	101.562
-2.093	-1.006	-1.212	-0.915	-1.070	-0.195	0.138	2.265	4.730	1.934	-0.599	-4.425	-3.330	-2.778	-1.484	-0.867	-1.309	-0.543	-1.152	-1.090	-1.537	-1.092	-0.411	0.711	4.755	5.262	1.201	-0.898	105.469
-1.888	-0.754	-1.213	-0.655	-0.940	-0.110	0.353	2.493	4.880	2.134	-0.333	-4.354	-3.379	-2.827	-1.441	-0.746	-1.273	-0.648	-1.104	-1.021	-1.519	-1.142	-0.619	-0.084	4.076	4.404	-0.049	-1.360	109.375
-1.637	-0.550	-1.169	-0.423	-0.823	-0.052	0.547	2.593	4.941	2.286	-0.010	-4.173	-3.298	-2.795	-1.358	-0.618	-1.211	-0.733	-1.044	-0.927	-1.461	-1.173	-0.807	-0.805	3.306	3.538	-1.195	-1.772	113.281
-1.394	-0.416	-1.092	-0.245	-0.729	-0.027	0.717	2.526	4.921	2.399	0.365	-3.883	-3.066	-2.672	-1.246	-0.493	-1.126	-0.782	-0.983	-0.815	-1.364	-1.187	-0.942	-1.379	2.521	2.760	-2.114	-2.077	117.188
-1.207	-0.346	-1.008	-0.127	-0.661	-0.039	0.854	2.266	4.814	2.474	0.769	-3.496	-2.683	-2.458	-1.114	-0.369	-1.010	-0.778	-0.918	-0.682	-1.223	-1.175	-0.995	-1.754	1.785	2.133	-2.727	-2.237	121.094
-1.109	-0.318	-0.952	-0.060	-0.616	-0.090	0.945	1.805	4.603	2.500	1.167	-3.034	-2.169	-2.157	-0.963	-0.236	-0.853	-0.708	-0.837	-0.518	-1.032	-1.122	-0.943	-1.904	1.143	1.677	-2.998	-2.240	125.000
-1.102	-0.306	-0.948	-0.031	-0.588	-0.180	0.977	1.158	4.268	2.458	1.518	-2.525	-1.564	-1.784	-0.793	-0.084	-0.644	-0.566	-0.728	-0.318	-0.786	-1.012	-0.782	-1.831	0.619	1.378	-2.940	-2.096	128.906
-1.167	-0.293	-1.009	-0.027	-0.576	-0.312	0.936	0.367	3.798	2.335	1.783	-2.003	-0.922	-1.361	-0.603	0.090	-0.387	-0.362	-0.583	-0.078	-0.486	-0.837	-0.527	-1.558	0.217	1.200	-2.600	-1.831	132.812
-1.266	-0.276	-1.125	-0.044	-0.581	-0.489	0.818	-0.513	3.198	2.124	1.935	-1.495	-0.301	-0.918	-0.398	0.281	-0.096	-0.115	-0.409	0.194	-0.141	-0.599	-0.210	-1.131	-0.068	1.105	-2.050	-1.474	136.719
-1.358	-0.265	-1.279	-0.085	-0.605	-0.712	0.626	-1.414	2.501	1.834	1.964	-1.024	0.247	-0.484	-0.185	0.471	0.203	0.147	-0.221	0.480	0.230	-0.312	0.130	-0.606	-0.250	1.066	-1.368	-1.051	140.625
-1.418	-0.275	-1.451	-0.151	-0.650	-0.977	0.377	-2.268	1.761	1.490	1.882	-0.600	0.681	-0.090	0.022	0.640	0.483	0.398	-0.035	0.760	0.605	0.002	0.450	-0.038	-0.340	1.074	-0.629	-0.583	144.531
-1.447	-0.317	-1.628	-0.239	-0.714	-1.275	0.098	-3.021	1.047	1.130	1.722	-0.226	0.980	0.242	0.206	0.769	0.726	0.617	0.139	1.012	0.960	0.319	0.719	0.523	-0.350	1.135	0.111	-0.085	148.438
-1.474	-0.393	-1.811	-0.338	-0.787	-1.584	-0.180	-3.631	0.432	0.795	1.527	0.100	1.145	0.499	0.352	0.846	0.926	0.794	0.304	1.219	1.272	0.620	0.915	1.044	-0.293	1.257	0.815	0.431	152.344
-1.539	-0.490	-2.007	-0.433	-0.860	-1.878	-0.421	-4.076	-0.027	0.531	1.346	0.385	1.193	0.675	0.451	0.870	1.092	0.931	0.474	1.370	1.520	0.891	1.030	1.509	-0.183	1.447	1.469	0.949	156.250
-1.675	-0.596	-2.229	-0.512	-0.921	-2.131	-0.595	-4.354	-0.294	0.371	1.220	0.633	1.156	0.776	0.502	0.847	1.238	1.036	0.662	1.459	1.690	1.124	1.066	1.919	-0.046	1.695	2.072	1.452	160.156
-1.894	-0.695	-2.483	-0.568	-0.968	-2.319	-0.679	-4.475	-0.365	0.341	1.177	0.845	1.074	0.813	0.512	0.788	1.377	1.118	0.873	1.484	1.773	1.313	1.039	2.282	0.093	1.980	2.632	1.917	164.062
-2.183	-0.783	-2.766	-0.608	-1.002	-2.432	-0.660	-4.465	-0.266	0.450	1.228	1.020	0.988	0.802	0.494	0.702	1.516	1.186	1.099	1.446	1.768	1.452	0.966	2.613	0.204	2.265	3.158	2.322	167.969
-2.506	-0.866	-3.065	-0.646	-1.030	-2.474	-0.537	-4.352	-0.039	0.697	1.364	1.150	0.934	0.762	0.465	0.598	1.650	1.244	1.320	1.350	1.684	1.538	0.864	2.925	0.259	2.511	3.655	2.644	171.875
-2.817	-0.955	-3.359	-0.702	-1.062	-2.460	-0.317	-4.167	0.266	1.067	1.567	1.230	0.944	0.713	0.438	0.476	1.767	1.290	1.510	1.202	1.534	1.565	0.748	3.225	0.239	2.680	4.119	2.868	175.781
-3.077	-1.070	-3.619	-0.795	-1.105	-2.415	-0.014	-3.938	0.601	1.536	1.813	1.257	1.037	0.672	0.417	0.333	1.847	1.317	1.634	1.009	1.340	1.530	0.624	3.513	0.136	2.744	4.541	2.987	179.688
-3.260	-1.223	-3.818	-0.937	-1.164	-2.361	0.353	-3.690	0.932	2.075	2.081	1.233	1.225	0.652	0.399	0.162	1.867	1.312	1.662	0.779	1.125	1.427	0.497	3.780	-0.045	2.692	4.905	3.005	183.594
-3.359	-1.421	-3.935	-1.128	-1.234	-2.315	0.764	-3.440	1.240	2.656	2.357	1.167	1.504	0.657	0.376	-0.044	1.808	1.268	1.570	0.520	0.909	1.258	0.371	4.009	-0.289	2.536	5.196	2.940	187.500
-3.384	-1.656	-3.959	-1.358	-1.308	-2.282	1.199	-3.201	1.519	3.248	2.634	1.075	1.861	0.687	0.335	-0.290	1.655	1.180	1.345	0.239	0.708	1.023	0.252	4.179	-0.567	2.306	5.397	2.820	191.406
-3.357	-1.909	-3.892	-1.605	-1.374	-2.256	1.635	-2.983	1.768	3.825	2.910	0.977	2.270	0.734	0.266	-0.570	1.411	1.049	0.993	-0.054	0.529	0.733	0.147	4.267	-0.847	2.043	5.498	2.679	195.312
-3.297	-2.148	-3.744	-1.844	-1.422	-2.223	2.048	-2.792	1.990	4.361	3.183	0.889	2.696	0.783	0.168	-0.867	1.091	0.887	0.542	-0.344	0.376	0.404	0.063	4.260	-1.096	1.792	5.495	2.548	199.219
-3.222	-2.341	-3.537	-2.049	-1.446	-2.169	2.413	-2.634	2.181	4.829	3.446	0.822	3.098	0.822	0.049	-1.155	0.729	0.710	0.039	-0.614	0.249	0.060	0.003	4.152	-1.285	1.588	5.395	2.449	203.125
-3.138	-2.460	-3.299	-2.198	-1.447	-2.088	2.706	-2.511	2.330	5.202	3.685	0.777	3.434	0.835	-0.074	-1.398	0.370	0.539	-0.456	-0.840	0.145	-0.271	-0.037	3.953	-1.394	1.457	5.211	2.392	207.031
-3.045	-2.489	-3.058	-2.276	-1.434	-1.983	2.903	-2.425	2.426	5.458	3.880	0.750	3.667	0.814	-0.181	-1.562	0.061	0.395	-0.879	-0.999	0.062	-0.559	-0.066	3.684	-1.415	1.411	4.966	2.375	210.938
-2.939	-2.423	-2.848	-2.277	-1.416	-1.865	2.990	-2.377	2.456	5.580	4.008	0.732	3.769	0.755	-0.250	-1.623	-0.154	0.294	-1.173	-1.073	0.001	-0.779	-0.093	3.376	-1.348	1.452	4.686	2.384	214.844
-2.822	-2.275	-2.695	-2.202	-1.404	-1.755	2.958	-2.368	2.417	5.564	4.053	0.714	3.725	0.659	-0.269	-1.567	-0.250	0.248	-1.303	-1.050	-0.039	-0.913	-0.126	3.063	-1.202	1.577	4.402	2.405	218.750
-2.702	-2.066	-2.618	-2.058	-1.407	-1.674	2.813	-2.397	2.318	5.416	4.010	0.688	3.538	0.535	-0.236	-1.404	-0.217	0.257	-1.258	-0.933	-0.055	-0.954	-0.170	2.781	-0.993	1.777	4.146	2.423	222.656
-2.598	-1.824	-2.631	-1.859	-1.427	-1.641	2.571	-2.459	2.183	5.161	3.884	0.657	3.225	0.393	-0.158	-1.156	-0.067	0.317	-1.053	-0.737	-0.046	-0.904	-0.227	2.558	-0.738	2.043	3.945	2.430	226.562
-2.530	-1.580	-2.736	-1.622	-1.465	-1.669	2.259	-2.548	2.044	4.836	3.693	0.624	2.816	0.244	-0.054	-0.861	0.172	0.413	-0.725	-0.487	-0.013	-0.778	-0.295	2.411	-0.455	2.361	3.818	2.424	230.469
-2.514	-1.359	-2.926	-1.372	-1.516	-1.761	1.911	-2.649	1.936	4.488	3.465	0.600	2.351	0.097	0.057	-0.560	0.460	0.530	-0.326	-0.218	0.037	-0.597	-0.377	2.350	-0.163	2.713	3.778	2.416	234.375
-2.551	-1.181	-3.182	-1.135	-1.575	-1.912	1.561	-2.744	1.889	4.167	3.230	0.596	1.870	-0.047	0.156	-0.294	0.753	0.646	0.084	0.038	0.095	-0.392	-0.471	2.368	0.125	3.075	3.824	2.418	238.281
-2.625	-1.061	-3.473	-0.940	-1.642	-2.107	1.243	-2.807	1.920	3.917	3.020	0.623	1.409	-0.187	0.231	-0.090	1.008	0.743	0.445	0.247	0.146	-0.194	-0.577	2.455	0.394	3.422	3.949	2.445	242.188
-2.697	-1.005	-3.756	-0.816	-1.715	-2.323	0.984	-2.814	2.032	3.771	2.860	0.685	0.996	-0.331	0.279	0.031	1.184	0.806	0.703	0.386	0.173	-0.036	-0.690	2.588	0.638	3.726	4.137	2.509	246.094
-2.723	-1.018	-3.982	-0.787	-1.798	-2.532	0.800	-2.749	2.211	3.743	2.769	0.781	0.650	-0.484	0.300	0.062	1.253	0.825	0.814	0.438	0.159	0.052	-0.801	2.748	0.852	3.970	4.365	2.613	250.000
-2.662	-1.102	-4.106	-0.868	-1.895	-2.706	0.695	-2.604	2.434	3.829	2.757	0.905	0.384	-0.649	0.298	0.004	1.192	0.793	0.749	0.397	0.092	0.048	-0.898	2.916	1.041	4.146	4.615	2.754	253.906
-2.500	-1.257	-4.107	-1.061	-2.009	-2.818	0.669	-2.388	2.676	4.012	2.829	1.047	0.207	-0.821	0.273	-0.136	0.997	0.712	0.500	0.266	-0.034	-0.056	-0.966	3.080	1.214	4.266	4.870	2.924	257.812
-2.261	-1.481	-3.992	-1.351	-2.137	-2.854	0.715	-2.120	2.918	4.265	2.984	1.198	0.130	-0.986	0.222	-0.349	0.680	0.589	0.083	0.056	-0.212	-0.252	-0.998	3.238	1.387	4.358	5.126	3.116	261.719
-2.008	-1.766	-3.806	-1.703	-2.270	-2.809	0.829	-1.824	3.153	4.565	3.219	1.354	0.164	-1.123	0.138	-0.621	0.274	0.436	-0.452	-0.213	-0.424	-0.515	-1.001	3.394	1.583	4.465	5.384	3.328	265.625
-1.834	-2.094	-3.617	-2.072	-2.394	-2.697	1.013	-1.525	3.386	4.901	3.528	1.517	0.324	-1.206	0.011	-0.938	-0.174	0.270	-1.039	-0.515	-0.645	-0.810	-0.993	3.556	1.820	4.635	5.659	3.564	269.531
-1.832	-2.444	-3.505	-2.411	-2.490	-2.542	1.272	-1.232	3.635	5.273	3.903	1.698	0.616	-1.214	-0.167	-1.286	-0.613	0.106	-1.605	-0.827	-0.851	-1.101	-1.004	3.732	2.111	4.907	5.965	3.835	273.438
-2.071	-2.795	-3.536	-2.679	-2.545	-2.374	1.611	-0.947	3.923	5.695	4.332	1.907	1.041	-1.134	-0.399	-1.656	-1.002	-0.047	-2.093	-1.131	-1.021	-1.362	-1.067	3.925	2.459	5.301	6.314	4.147	277.344
-2.572	-3.132	-3.745	-2.859	-2.550	-2.224	2.035	-0.655	4.270	6.184	4.799	2.155	1.581	-0.969	-0.683	-2.041	-1.321	-0.187	-2.476	-1.420	-1.147	-1.581	-1.204	4.136	2.849	5.810	6.708	4.504	281.250
-3.302	-3.447	-4.123	-2.955	-2.506	-2.113	2.535	-0.339	4.683	6.751	5.286	2.442	2.202	-0.738	-1.010	-2.437	-1.573	-0.317	-2.760	-1.696	-1.232	-1.763	-1.423	4.357	3.255	6.399	7.137	4.896	285.156
-4.182	-3.739	-4.619	-2.989	-2.423	-2.047	3.091	0.016	5.158	7.390	5.770	2.759	2.859	-0.470	-1.362	-2.840	-1.778	-0.444	-2.975	-1.966	-1.289	-1.920	-1.706	4.579	3.641	7.014	7.576	5.303	289.062
-5.102	-4.006	-5.151	-2.997	-2.315	-2.021	3.670	0.413	5.673	8.074	6.224	3.086	3.495	-0.202	-1.717	-3.240	-1.958	-0.573	-3.155	-2.238	-1.335	-2.069	-2.020	4.785	3.975	7.594	7.988	5.697	292.969
-5.945	-4.244	-5.626	-3.010	-2.199	-2.014	4.224	0.842	6.193	8.753	6.622	3.395	4.052	0.031	-2.049	-3.621	-2.133	-0.703	-3.327	-2.510	-1.385	-2.220	-2.320	4.960	4.235	8.082	8.333	6.046	296.875
-6.609	-4.444	-5.958	-3.052	-2.094	-2.003	4.706	1.280	6.673	9.366	6.935	3.653	4.479	0.198	-2.333	-3.961	-2.309	-0.828	-3.498	-2.775	-1.450	-2.374	-2.562	5.087	4.414	8.434	8.574	6.319	300.781
-7.030	-4.592	-6.089	-3.127	-2.010	-1.964	5.070	1.700	7.066	9.850	7.139	3.830	4.737	0.279	-2.551	-4.238	-2.482	-0.939	-3.658	-3.017	-1.532	-2.524	-2.715	5.153	4.522	8.624	8.681	6.492	304.688
-7.186	-4.674	-6.007	-3.226	-1.954	-1.885	5.283	2.077	7.334	10.155	7.216	3.907	4.806	0.269	-2.692	-4.434	-2.636	-1.025	-3.783	-3.218	-1.628	-2.655	-2.763	5.150	4.580	8.652	8.644	6.549	308.594
-7.107	-4.681	-5.744	-3.326	-1.926	-1.767	5.331	2.394	7.458	10.252	7.162	3.875	4.681	0.169	-2.760	-4.538	-2.753	-1.079	-3.849	-3.358	-1.728	-2.755	-2.714	5.078	4.615	8.536	8.468	6.491	312.500
-6.861	-4.615	-5.369	-3.399	-1.921	-1.625	5.218	2.640	7.447	10.147	6.990	3.743	4.379	-0.005	-2.767	-4.554	-2.820	-1.099	-3.837	-3.426	-1.822	-2.810	-2.588	4.940	4.653	8.319	8.176	6.330	316.406
-6.536	-4.491	-4.970	-3.423	-1.934	-1.482	4.966	2.811	7.333	9.867	6.727	3.535	3.928	-0.234	-2.738	-4.495	-2.833	-1.089	-3.747	-3.424	-1.901	-2.818	-2.416	4.750	4.713	8.055	7.803	6.096	320.312
-6.218	-4.337	-4.625	-3.390	-1.959	-1.361	4.611	2.908	7.170	9.465	6.419	3.286	3.373	-0.495	-2.696	-4.386	-2.799	-1.058	-3.592	-3.361	-1.961	-2.783	-2.230	4.526	4.808	7.800	7.394	5.824	324.219
-5.963	-4.187	-4.386	-3.311	-1.993	-1.282	4.199	2.936	7.012	9.003	6.112	3.036	2.762	-0.764	-2.662	-4.253	-2.736	-1.017	-3.404	-3.256	-2.000	-2.716	-2.058	4.289	4.938	7.603	6.994	5.553	328.125
-5.795	-4.074	-4.271	-3.208	-2.032	-1.253	3.774	2.902	6.901	8.544	5.853	2.826	2.148	-1.016	-2.643	-4.123	-2.665	-0.977	-3.220	-3.131	-2.021	-2.633	-1.918	4.065	5.091	7.487	6.644	5.316	332.031
-5.702	-4.021	-4.266	-3.107	-2.075	-1.272	3.382	2.818	6.859	8.141	5.673	2.683	1.582	-1.232	-2.640	-4.013	-2.605	-0.946	-3.073	-3.005	-2.026	-2.545	-1.820	3.878	5.243	7.455	6.377	5.138	335.938
-5.654	-4.031	-4.339	-3.033	-2.118	-1.333	3.056	2.699	6.883	7.834	5.589	2.629	1.106	-1.397	-2.641	-3.929	-2.567	-0.929	-2.986	-2.892	-2.014	-2.464	-1.765	3.746	5.363	7.492	6.210	5.031	339.844
-5.618	-4.091	-4.451	-2.997	-2.160	-1.423	2.821	2.563	6.955	7.643	5.596	2.667	0.750	-1.501	-2.636	-3.871	-2.557	-0.925	-2.972	-2.797	-1.988	-2.396	-1.747	3.678	5.426	7.571	6.144	5.001	343.750
-5.577	-4.173	-4.572	-3.002	-2.198	-1.529	2.685	2.427	7.047	7.574	5.676	2.793	0.529	-1.545	-2.618	-3.831	-2.573	-0.935	-3.031	-2.724	-1.950	-2.348	-1.759	3.670	5.416	7.668	6.167	5.048	347.656
-5.528	-4.247	-4.686	-3.038	-2.229	-1.640	2.644	2.306	7.139	7.614	5.804	2.992	0.445	-1.535	-2.588	-3.802	-2.611	-0.955	-3.154	-2.672	-1.904	-2.325	-1.793	3.711	5.338	7.765	6.256	5.163	351.562
-5.487	-4.284	-4.789	-3.089	-2.254	-1.743	2.686	2.210	7.219	7.742	5.950	3.242	0.487	-1.484	-2.553	-3.778	-2.661	-0.982	-3.319	-2.640	-1.857	-2.326	-1.843	3.787	5.209	7.845	6.388	5.336	355.469
-5.477	-4.273	-4.888	-3.138	-2.274	-1.830	2.790	2.146	7.288	7.930	6.091	3.518	0.640	-1.402	-2.519	-3.755	-2.711	-1.010	-3.495	-2.625	-1.815	-2.345	-1.910	3.885	5.058	7.897	6.539	5.550	359.375
-5.517	-4.215	-4.989	-3.172	-2.291	-1.893	2.935	2.114	7.352	8.151	6.209	3.793	0.887	-1.294	-2.493	-3.731	-2.740	-1.034	-3.641	-2.622	-1.781	-2.369	-1.992	3.998	4.909	7.910	6.693	5.782	363.281
-5.615	-4.125	-5.094	-3.184	-2.306	-1.926	3.102	2.109	7.416	8.377	6.296	4.044	1.213	-1.163	-2.474	-3.705	-2.731	-1.046	-3.718	-2.626	-1.753	-2.382	-2.090	4.127	4.778	7.874	6.842	6.011	367.188
-5.762	-4.029	-5.194	-3.176	-2.322	-1.929	3.276	2.120	7.477	8.584	6.350	4.253	1.601	-1.006	-2.458	-3.680	-2.671	-1.041	-3.699	-2.629	-1.728	-2.367	-2.200	4.272	4.666	7.787	6.979	6.217	371.094
-5.932	-3.952	-5.277	-3.158	-2.342	-1.909	3.445	2.137	7.524	8.758	6.379	4.412	2.036	-0.821	-2.439	-3.659	-2.561	-1.017	-3.582	-2.630	-1.702	-2.317	-2.313	4.433	4.563	7.655	7.104	6.389	375.000
-6.094	-3.918	-5.331	-3.144	-2.370	-1.874	3.600	2.147	7.539	8.889	6.395	4.527	2.496	-0.609	-2.412	-3.648	-2.416	-0.977	-3.389	-2.632	-1.674	-2.236	-2.417	4.604	4.456	7.498	7.217	6.532	378.906
-6.219	-3.945	-5.352	-3.151	-2.411	-1.839	3.732	2.135	7.511	8.976	6.416	4.616	2.956	-0.380	-2.379	-3.661	-2.265	-0.930	-3.165	-2.645	-1.648	-2.137	-2.501	4.774	4.335	7.346	7.321	6.664	382.812
-6.288	-4.043	-5.352	-3.196	-2.471	-1.819	3.837	2.091	7.435	9.026	6.458	4.709	3.389	-0.147	-2.343	-3.710	-2.141	-0.884	-2.963	-2.682	-1.632	-2.042	-2.551	4.928	4.201	7.236	7.423	6.813	386.719
-6.298	-4.208	-5.348	-3.287	-2.554	-1.825	3.909	2.009	7.314	9.045	6.537	4.837	3.766	0.070	-2.312	-3.807	-2.072	-0.846	-2.831	-2.755	-1.632	-1.972	-2.554	5.055	4.065	7.196	7.531	7.006	390.625
-6.265	-4.427	-5.365	-3.424	-2.660	-1.862	3.944	1.887	7.161	9.041	6.658	5.026	4.068	0.256	-2.294	-3.954	-2.073	-0.817	-2.793	-2.871	-1.653	-1.939	-2.498	5.144	3.939	7.239	7.648	7.261	394.531
-6.218	-4.674	-5.421	-3.590	-2.784	-1.926	3.942	1.732	6.985	9.018	6.812	5.286	4.280	0.396	-2.295	-4.142	-2.138	-0.794	-2.848	-3.024	-1.692	-1.946	-2.377	5.192	3.837	7.357	7.769	7.575	398.438
-6.189	-4.910	-5.526	-3.758	-2.910	-2.007	3.906	1.555	6.793	8.972	6.981	5.608	4.394	0.485	-2.317	-4.348	-2.243	-0.768	-2.964	-3.194	-1.742	-1.982	-2.188	5.197	3.767	7.517	7.878	7.922	402.344
-6.205	-5.089	-5.674	-3.889	-3.021	-2.084	3.834	1.376	6.581	8.890	7.127	5.958	4.410	0.521	-2.358	-4.536	-2.353	-0.730	-3.094	-3.352	-1.787	-2.031	-1.938	5.157	3.723	7.669	7.945	8.256	406.250
-6.272	-5.172	-5.841	-3.946	-3.096	-2.132	3.728	1.215	6.335	8.754	7.206	6.282	4.328	0.507	-2.406	-4.669	-2.431	-0.674	-3.188	-3.467	-1.813	-2.071	-1.643	5.069	3.692	7.750	7.933	8.515	410.156
-6.367	-5.127	-5.990	-3.900	-3.119	-2.125	3.586	1.096	6.041	8.543	7.170	6.513	4.151	0.449	-2.449	-4.712	-2.450	-0.601	-3.209	-3.509	-1.809	-2.084	-1.325	4.927	3.650	7.699	7.802	8.633	414.062
-6.444	-4.945	-6.073	-3.743	-3.078	-2.045	3.407	1.035	5.691	8.239	6.983	6.584	3.886	0.351	-2.470	-4.643	-2.400	-0.521	-3.142	-3.462	-1.770	-2.061	-1.014	4.725	3.569	7.470	7.525	8.555	417.969
-6.438	-4.638	-6.039	-3.484	-2.972	-1.880	3.193	1.042	5.294	7.834	6.627	6.441	3.540	0.221	-2.456	-4.459	-2.290	-0.447	-2.998	-3.324	-1.698	-2.003	-0.738	4.460	3.428	7.038	7.087	8.245	421.875
-6.288	-4.243	-5.847	-3.156	-2.809	-1.637	2.949	1.118	4.881	7.337	6.118	6.062	3.129	0.065	-2.396	-4.175	-2.144	-0.394	-2.804	-3.106	-1.602	-1.916	-0.524	4.136	3.219	6.413	6.500	7.700	425.781
-5.955	-3.805	-5.478	-2.798	-2.605	-1.337	2.689	1.252	4.501	6.776	5.498	5.463	2.679	-0.108	-2.289	-3.822	-1.988	-0.376	-2.595	-2.833	-1.495	-1.815	-0.391	3.763	2.947	5.634	5.792	6.951	429.688
-5.437	-3.375	-4.946	-2.456	-2.379	-1.013	2.433	1.426	4.211	6.193	4.838	4.701	2.221	-0.287	-2.138	-3.437	-1.848	-0.396	-2.398	-2.535	-1.392	-1.714	-0.350	3.359	2.635	4.768	5.016	6.067	433.594
-4.776	-2.995	-4.304	-2.164	-2.153	-0.704	2.206	1.619	4.062	5.643	4.219	3.867	1.791	-0.460	-1.957	-3.062	-1.737	-0.450	-2.231	-2.243	-1.305	-1.622	-0.399	2.954	2.318	3.899	4.234	5.143	437.500
-4.053	-2.694	-3.635	-1.944	-1.947	-0.447	2.033	1.808	4.082	5.178	3.718	3.070	1.426	-0.612	-1.764	-2.731	-1.659	-0.525	-2.101	-1.982	-1.241	-1.548	-0.525	2.580	2.031	3.114	3.515	4.287	441.406
-3.369	-2.485	-3.041	-1.802	-1.776	-0.266	1.929	1.975	4.266	4.840	3.389	2.416	1.157	-0.731	-1.583	-2.474	-1.611	-0.606	-2.008	-1.770	-1.205	-1.494	-0.706	2.272	1.810	2.492	2.924	3.599	445.312
-2.825	-2.369	-2.618	-1.734	-1.651	-0.178	1.905	2.106	4.572	4.648	3.259	1.986	1.005	-0.804	-1.437	-2.307	-1.586	-0.680	-1.949	-1.619	-1.193	-1.457	-0.917	2.057	1.676	2.091	2.511	3.158	449.219
-2.497	-2.336	-2.433	-1.722	-1.576	-0.181	1.954	2.193	4.927	4.597	3.316	1.819	0.977	-0.824	-1.344	-2.235	-1.577	-0.735	-1.918	-1.527	-1.198	-1.433	-1.129	1.951	1.637	1.942	2.302	3.001	453.125
-2.422	-2.373	-2.512	-1.751	-1.548	-0.265	2.060	2.235	5.242	4.656	3.520	1.910	1.066	-0.786	-1.312	-2.250	-1.575	-0.765	-1.910	-1.488	-1.209	-1.417	-1.317	1.953	1.690	2.043	2.296	3.123	457.031
-2.581	-2.462	-2.827	-1.803	-1.562	-0.410	2.198	2.233	5.434	4.782	3.806	2.205	1.250	-0.694	-1.339	-2.334	-1.580	-0.771	-1.924	-1.491	-1.216	-1.404	-1.461	2.048	1.818	2.356	2.464	3.476	460.938
-2.912	-2.589	-3.299	-1.869	-1.608	-0.590	2.338	2.191	5.438	4.923	4.101	2.621	1.500	-0.555	-1.414	-2.466	-1.596	-0.759	-1.966	-1.521	-1.209	-1.398	-1.545	2.207	2.002	2.817	2.758	3.978	464.844
-3.315	-2.741	-3.816	-1.944	-1.679	-0.780	2.453	2.113	5.225	5.032	4.335	3.056	1.782	-0.386	-1.518	-2.621	-1.635	-0.738	-2.048	-1.567	-1.184	-1.402	-1.559	2.397	2.216	3.339	3.115	4.529	468.750
-3.686	-2.905	-4.259	-2.028	-1.762	-0.952	2.521	2.004	4.804	5.075	4.455	3.416	2.060	-0.203	-1.629	-2.775	-1.706	-0.718	-2.179	-1.622	-1.143	-1.423	-1.496	2.588	2.436	3.831	3.472	5.031	472.656
-3.941	-3.068	-4.535	-2.118	-1.846	-1.088	2.532	1.868	4.222	5.032	4.430	3.629	2.307	-0.023	-1.727	-2.909	-1.815	-0.705	-2.363	-1.678	-1.088	-1.464	-1.358	2.753	2.634	4.212	3.779	5.406	476.562
-4.038	-3.214	-4.602	-2.205	-1.920	-1.171	2.487	1.711	3.552	4.901	4.261	3.661	2.504	0.142	-1.797	-3.009	-1.951	-0.698	-2.583	-1.726	-1.023	-1.519	-1.150	2.879	2.787	4.426	3.999	5.609	480.469
-3.982	-3.322	-4.478	-2.274	-1.969	-1.197	2.397	1.536	2.879	4.697	3.973	3.522	2.643	0.286	-1.827	-3.063	-2.086	-0.690	-2.802	-1.758	-0.946	-1.572	-0.892	2.961	2.874	4.455	4.120	5.632	484.375
-3.817	-3.376	-4.229	-2.305	-1.983	-1.170	2.279	1.346	2.287	4.443	3.611	3.254	2.728	0.410	-1.813	-3.067	-2.182	-0.668	-2.965	-1.763	-0.857	-1.601	-0.610	3.007	2.883	4.316	4.153	5.505	488.281
-3.606	-3.365	-3.946	-2.280	-1.955	-1.105	2.153	1.142	1.845	4.167	3.233	2.927	2.768	0.521	-1.753	-3.023	-2.198	-0.617	-3.014	-1.735	-0.753	-1.585	-0.339	3.026	2.812	4.053	4.123	5.284	492.188
-3.406	-3.289	-3.715	-2.193	-1.888	-1.021	2.034	0.926	1.599	3.896	2.895	2.614	2.779	0.623	-1.652	-2.938	-2.108	-0.531	-2.909	-1.675	-0.637	-1.512	-0.119	3.032	2.674	3.729	4.060	5.035	496.094
-3.257	-3.162	-3.591	-2.050	-1.790	-0.940	1.932	0.697	1.561	3.650	2.644	2.380	2.773	0.716	-1.520	-2.832	-1.912	-0.413	-2.645	-1.592	-0.519	-1.386	0.022	3.032	2.491	3.409	3.991	4.822	500.000
-3.171	-3.006	-3.587	-1.872	-1.681	-0.878	1.852	0.460	1.710	3.443	2.509	2.266	2.759	0.798	-1.375	-2.726	-1.641	-0.278	-2.262	-1.507	-0.415	-1.230	0.065	3.026	2.298	3.147	3.934	4.692	503.906
-3.139	-2.851	-3.676	-1.690	-1.579	-0.846	1.793	0.225	1.993	3.276	2.497	2.282	2.745	0.863	-1.239	-2.644	-1.353	-0.152	-1.838	-1.441	-0.343	-1.081	0.011	3.007	2.129	2.978	3.890	4.668	507.812
-3.136	-2.720	-3.805	-1.534	-1.501	-0.844	1.754	0.005	2.335	3.145	2.590	2.407	2.736	0.904	-1.135	-2.600	-1.112	-0.062	-1.467	-1.412	-0.315	-0.974	-0.122	2.967	2.012	2.913	3.851	4.747	511.719
-3.129	-2.625	-3.914	-1.426	-1.457	-0.864	1.731	-0.185	2.653	3.042	2.752	2.598	2.735	0.924	-1.074	-2.596	-0.966	-0.028	-1.223	-1.426	-0.334	-0.935	-0.306	2.900	1.964	2.933	3.802	4.899	515.625
-3.085	-2.561	-3.957	-1.373	-1.442	-0.894	1.724	-0.331	2.873	2.955	2.928	2.791	2.749	0.930	-1.051	-2.614	-0.932	-0.050	-1.138	-1.469	-0.388	-0.963	-0.508	2.812	1.980	2.998	3.732	5.075	519.531
-2.981	-2.509	-3.909	-1.361	-1.444	-0.920	1.731	-0.428	2.937	2.870	3.060	2.921	2.779	0.939	-1.044	-2.623	-0.981	-0.112	-1.186	-1.511	-0.449	-1.032	-0.697	2.716	2.038	3.056	3.635	5.217	523.438
-2.799	-2.437	-3.774	-1.360	-1.440	-0.933	1.748	-0.476	2.816	2.777	3.089	2.926	2.826	0.967	-1.021	-2.582	-1.053	-0.181	-1.292	-1.514	-0.484	-1.098	-0.845	2.631	2.098	3.052	3.509	5.267	527.344
-2.540	-2.314	-3.579	-1.336	-1.410	-0.924	1.769	-0.482	2.512	2.662	2.973	2.764	2.880	1.024	-0.947	-2.460	-1.078	-0.219	-1.366	-1.442	-0.465	-1.110	-0.928	2.575	2.119	2.946	3.360	5.183	531.250
-2.217	-2.123	-3.363	-1.256	-1.338	-0.892	1.783	-0.458	2.054	2.516	2.694	2.414	2.926	1.109	-0.802	-2.242	-1.002	-0.197	-1.333	-1.278	-0.375	-1.035	-0.926	2.559	2.069	2.726	3.191	4.945	535.156
-1.857	-1.863	-3.167	-1.106	-1.223	-0.837	1.776	-0.415	1.497	2.335	2.263	1.890	2.942	1.208	-0.589	-1.936	-0.810	-0.103	-1.165	-1.029	-0.217	-0.863	-0.827	2.579	1.937	2.412	3.009	4.561	539.062
-1.495	-1.557	-3.020	-0.895	-1.076	-0.764	1.736	-0.361	0.912	2.120	1.719	1.228	2.910	1.297	-0.334	-1.578	-0.528	0.051	-0.890	-0.725	-0.014	-0.616	-0.635	2.625	1.732	2.056	2.823	4.071	542.969
-1.173	-1.248	-2.937	-0.656	-0.923	-0.682	1.656	-0.299	0.378	1.886	1.127	0.494	2.818	1.349	-0.080	-1.225	-0.222	0.232	-0.581	-0.420	0.197	-0.340	-0.369	2.677	1.488	1.729	2.645	3.533	546.875
-0.928	-0.988	-2.912	-0.434	-0.795	-0.605	1.541	-0.224	-0.028	1.656	0.566	-0.235	2.667	1.343	0.121	-0.937	0.030	0.395	-0.328	-0.169	0.374	-0.092	-0.070	2.718	1.251	1.503	2.490	3.022	550.781
-0.792	-0.830	-2.932	-0.279	-0.719	-0.547	1.406	-0.131	-0.246	1.464	0.117	-0.876	2.475	1.271	0.223	-0.769	0.156	0.496	-0.214	-0.025	0.482	0.078	0.211	2.736	1.071	1.432	2.378	2.607	554.688
-0.780	-0.809	-2.975	-0.227	-0.716	-0.521	1.277	-0.010	-0.241	1.346	-0.150	-1.357	2.273	1.137	0.201	-0.755	0.115	0.507	-0.282	-0.019	0.499	0.134	0.422	2.727	0.988	1.539	2.323	2.350	558.594
-0.885	-0.936	-3.023	-0.296	-0.790	-0.538	1.179	0.143	-0.012	1.331	-0.190	-1.625	2.096	0.961	0.056	-0.904	-0.095	0.420	-0.529	-0.158	0.425	0.070	0.528	2.696	1.020	1.806	2.335	2.282	562.500
-1.075	-1.192	-3.061	-0.477	-0.933	-0.599	1.135	0.326	0.407	1.437	0.008	-1.660	1.978	0.770	-0.182	-1.194	-0.435	0.254	-0.906	-0.422	0.272	-0.095	0.517	2.656	1.161	2.175	2.415	2.405	566.406
-1.297	-1.536	-3.078	-0.739	-1.124	-0.698	1.157	0.527	0.953	1.660	0.418	-1.480	1.937	0.592	-0.460	-1.578	-0.837	0.048	-1.332	-0.767	0.070	-0.321	0.408	2.623	1.376	2.557	2.551	2.687	570.312
-1.485	-1.915	-3.066	-1.042	-1.338	-0.820	1.238	0.728	1.544	1.973	0.976	-1.135	1.976	0.448	-0.719	-1.998	-1.225	-0.153	-1.718	-1.139	-0.151	-0.557	0.241	2.613	1.616	2.858	2.722	3.068	574.219
-1.583	-2.271	-3.015	-1.342	-1.549	-0.946	1.359	0.905	2.098	2.335	1.597	-0.700	2.079	0.350	-0.906	-2.390	-1.528	-0.305	-1.989	-1.483	-0.357	-0.758	0.064	2.632	1.829	3.002	2.896	3.473	578.125
-1.558	-2.553	-2.922	-1.599	-1.738	-1.053	1.491	1.036	2.541	2.694	2.188	-0.256	2.218	0.298	-0.989	-2.704	-1.702	-0.381	-2.098	-1.757	-0.525	-0.891	-0.079	2.677	1.980	2.953	3.043	3.833	582.031
-1.411	-2.726	-2.794	-1.789	-1.889	-1.121	1.604	1.107	2.822	3.001	2.663	0.120	2.357	0.282	-0.964	-2.907	-1.735	-0.378	-2.043	-1.936	-0.643	-0.945	-0.166	2.735	2.053	2.726	3.136	4.093	585.938
-1.177	-2.776	-2.648	-1.897	-1.994	-1.139	1.675	1.116	2.915	3.220	2.961	0.373	2.465	0.289	-0.855	-2.995	-1.652	-0.312	-1.858	-2.017	-0.711	-0.932	-0.197	2.782	2.058	2.383	3.158	4.226	589.844
-0.916	-2.711	-2.513	-1.926	-2.048	-1.104	1.693	1.070	2.825	3.333	3.057	0.474	2.522	0.304	-0.705	-2.987	-1.500	-0.214	-1.612	-2.018	-0.735	-0.880	-0.189	2.799	2.024	2.012	3.108	4.236	593.750
-0.695	-2.559	-2.423	-1.887	-2.055	-1.026	1.661	0.981	2.584	3.339	2.963	0.424	2.518	0.315	-0.566	-2.917	-1.340	-0.121	-1.381	-1.968	-0.731	-0.825	-0.169	2.770	1.988	1.708	2.999	4.152	597.656
-0.576	-2.366	-2.406	-1.803	-2.016	-0.920	1.590	0.866	2.248	3.256	2.722	0.247	2.462	0.319	-0.481	-2.828	-1.227	-0.064	-1.234	-1.901	-0.710	-0.794	-0.155	2.693	1.983	1.541	2.854	4.017	601.562
-0.602	-2.181	-2.474	-1.695	-1.939	-0.805	1.501	0.741	1.882	3.109	2.393	-0.022	2.366	0.313	-0.479	-2.752	-1.192	-0.057	-1.208	-1.841	-0.680	-0.803	-0.148	2.578	2.025	1.541	2.700	3.871	605.469
-0.778	-2.047	-2.617	-1.582	-1.829	-0.692	1.410	0.619	1.549	2.927	2.034	-0.345	2.250	0.304	-0.563	-2.706	-1.236	-0.093	-1.300	-1.797	-0.640	-0.841	-0.132	2.447	2.113	1.688	2.560	3.740	609.375
-1.075	-1.991	-2.803	-1.477	-1.691	-0.586	1.331	0.513	1.294	2.732	1.685	-0.695	2.127	0.297	-0.710	-2.685	-1.334	-0.149	-1.468	-1.762	-0.583	-0.885	-0.072	2.323	2.227	1.922	2.447	3.627	613.281
-1.430	-2.014	-2.985	-1.381	-1.534	-0.483	1.267	0.431	1.138	2.534	1.361	-1.057	2.004	0.297	-0.878	-2.668	-1.437	-0.191	-1.646	-1.715	-0.498	-0.895	0.067	2.228	2.332	2.157	2.359	3.515	617.188
-1.765	-2.091	-3.114	-1.285	-1.361	-0.375	1.208	0.377	1.070	2.330	1.048	-1.429	1.879	0.307	-1.018	-2.620	-1.492	-0.189	-1.759	-1.631	-0.375	-0.835	0.307	2.172	2.395	2.308	2.282	3.373	621.094
-2.005	-2.174	-3.159	-1.173	-1.180	-0.257	1.141	0.348	1.058	2.105	0.720	-1.818	1.746	0.329	-1.086	-2.505	-1.451	-0.118	-1.745	-1.481	-0.208	-0.679	0.649	2.154	2.387	2.309	2.195	3.165	625.000
-2.096	-2.204	-3.110	-1.025	-0.996	-0.128	1.048	0.338	1.054	1.840	0.347	-2.231	1.597	0.358	-1.051	-2.294	-1.288	0.026	-1.572	-1.250	0.002	-0.420	1.063	2.162	2.292	2.131	2.076	2.869	628.906
-2.012	-2.129	-2.984	-0.824	-0.815	0.007	0.916	0.337	1.010	1.522	-0.086	-2.666	1.430	0.393	-0.905	-1.979	-1.003	0.231	-1.247	-0.935	0.247	-0.077	1.499	2.178	2.114	1.788	1.911	2.483	632.812
-1.749	-1.924	-2.815	-0.570	-0.644	0.139	0.742	0.334	0.894	1.150	-0.572	-3.108	1.250	0.428	-0.657	-1.573	-0.627	0.469	-0.813	-0.555	0.507	0.311	1.893	2.182	1.870	1.327	1.700	2.028	636.719
-1.322	-1.595	-2.636	-0.283	-0.493	0.260	0.533	0.318	0.692	0.744	-1.079	-3.525	1.072	0.457	-0.333	-1.114	-0.211	0.704	-0.340	-0.143	0.760	0.690	2.186	2.156	1.592	0.822	1.453	1.545	640.625
-0.756	-1.191	-2.470	0.000	-0.376	0.362	0.311	0.285	0.421	0.338	-1.552	-3.870	0.913	0.478	0.032	-0.656	0.185	0.902	0.100	0.254	0.978	1.007	2.327	2.090	1.315	0.347	1.190	1.090	644.531
-0.094	-0.786	-2.326	0.228	-0.303	0.439	0.103	0.239	0.116	-0.019	-1.928	-4.096	0.794	0.488	0.400	-0.256	0.506	1.034	0.446	0.592	1.140	1.219	2.294	1.980	1.070	-0.032	0.936	0.719	648.438
0.605	-0.460	-2.202	0.355	-0.284	0.489	-0.058	0.193	-0.171	-0.275	-2.150	-4.163	0.734	0.489	0.730	0.034	0.717	1.085	0.663	0.831	1.230	1.303	2.092	1.835	0.875	-0.281	0.713	0.477	652.344
1.260	-0.280	-2.092	0.348	-0.321	0.512	-0.146	0.165	-0.387	-0.387	-2.185	-4.051	0.743	0.482	0.987	0.183	0.801	1.056	0.745	0.947	1.247	1.263	1.760	1.667	0.734	-0.393	0.538	0.387	656.250
1.780	-0.281	-1.992	0.201	-0.408	0.507	-0.144	0.178	-0.490	-0.334	-2.024	-3.765	0.819	0.473	1.142	0.182	0.766	0.960	0.707	0.935	1.196	1.122	1.361	1.496	0.637	-0.390	0.419	0.451	660.156
2.077	-0.458	-1.910	-0.065	-0.531	0.476	-0.050	0.244	-0.454	-0.118	-1.689	-3.337	0.953	0.466	1.172	0.043	0.634	0.819	0.577	0.807	1.096	0.917	0.970	1.340	0.570	-0.308	0.358	0.649	664.062
2.087	-0.768	-1.861	-0.402	-0.666	0.423	0.119	0.365	-0.277	0.228	-1.227	-2.815	1.126	0.464	1.073	-0.202	0.435	0.657	0.387	0.588	0.967	0.692	0.655	1.216	0.518	-0.187	0.350	0.947	667.969
1.790	-1.140	-1.872	-0.747	-0.790	0.351	0.336	0.531	0.018	0.651	-0.703	-2.261	1.314	0.469	0.857	-0.508	0.205	0.500	0.168	0.316	0.833	0.488	0.467	1.136	0.468	-0.063	0.386	1.302	671.875
1.216	-1.495	-1.965	-1.029	-0.879	0.268	0.565	0.717	0.382	1.090	-0.187	-1.736	1.498	0.488	0.556	-0.823	-0.018	0.372	-0.049	0.034	0.720	0.342	0.430	1.106	0.413	0.039	0.457	1.668	675.781
0.448	-1.762	-2.156	-1.192	-0.912	0.186	0.774	0.898	0.744	1.480	0.249	-1.296	1.663	0.525	0.221	-1.095	-0.196	0.291	-0.235	-0.210	0.651	0.280	0.541	1.134	0.344	0.101	0.553	2.006	679.688
-0.395	-1.895	-2.441	-1.198	-0.878	0.123	0.936	1.045	1.024	1.771	0.548	-0.982	1.804	0.588	-0.091	-1.277	-0.295	0.272	-0.359	-0.374	0.646	0.318	0.772	1.220	0.259	0.119	0.666	2.281	683.594
-1.180	-1.878	-2.798	-1.042	-0.778	0.095	1.037	1.130	1.150	1.928	0.670	-0.820	1.922	0.685	-0.321	-1.337	-0.289	0.322	-0.394	-0.426	0.717	0.459	1.078	1.359	0.155	0.096	0.786	2.470	687.500
-1.788	-1.727	-3.184	-0.751	-0.626	0.117	1.070	1.129	1.079	1.934	0.603	-0.815	2.017	0.816	-0.427	-1.262	-0.169	0.437	-0.324	-0.351	0.863	0.688	1.404	1.542	0.042	0.046	0.902	2.561	691.406
-2.130	-1.482	-3.544	-0.375	-0.447	0.198	1.036	1.025	0.804	1.793	0.356	-0.957	2.087	0.973	-0.393	-1.063	0.053	0.602	-0.154	-0.158	1.072	0.975	1.699	1.744	-0.067	-0.008	0.998	2.553	695.312
-2.170	-1.196	-3.821	0.015	-0.273	0.331	0.939	0.808	0.361	1.523	-0.037	-1.221	2.122	1.137	-0.228	-0.773	0.341	0.791	0.091	0.124	1.318	1.277	1.922	1.934	-0.145	-0.045	1.054	2.453	699.219
-1.920	-0.922	-3.962	0.354	-0.136	0.500	0.783	0.483	-0.182	1.153	-0.530	-1.570	2.104	1.282	0.029	-0.439	0.644	0.977	0.367	0.448	1.564	1.547	2.057	2.076	-0.169	-0.047	1.049	2.272	703.125
-1.442	-0.702	-3.931	0.589	-0.064	0.679	0.575	0.071	-0.741	0.715	-1.069	-1.967	2.010	1.378	0.327	-0.111	0.911	1.133	0.627	0.762	1.774	1.746	2.113	2.138	-0.117	-0.007	0.967	2.028	707.031
-0.834	-0.554	-3.720	0.697	-0.068	0.836	0.319	-0.389	-1.234	0.242	-1.603	-2.372	1.821	1.401	0.607	0.168	1.098	1.240	0.831	1.018	1.916	1.852	2.118	2.103	0.016	0.064	0.798	1.737	710.938
-0.202	-0.477	-3.350	0.681	-0.150	0.946	0.023	-0.847	-1.603	-0.239	-2.090	-2.756	1.529	1.336	0.823	0.370	1.185	1.293	0.961	1.184	1.970	1.866	2.113	1.971	0.218	0.140	0.550	1.416	714.844
0.360	-0.447	-2.874	0.573	-0.294	0.992	-0.302	-1.246	-1.821	-0.704	-2.499	-3.093	1.143	1.184	0.950	0.487	1.177	1.299	1.019	1.248	1.934	1.809	2.136	1.768	0.458	0.193	0.245	1.087	718.750
0.791	-0.440	-2.363	0.413	-0.479	0.972	-0.642	-1.536	-1.897	-1.133	-2.810	-3.366	0.690	0.962	0.983	0.523	1.095	1.272	1.023	1.213	1.819	1.715	2.209	1.534	0.698	0.197	-0.080	0.771	722.656
1.070	-0.438	-1.890	0.239	-0.684	0.900	-0.973	-1.677	-1.861	-1.507	-3.016	-3.563	0.214	0.698	0.938	0.487	0.968	1.227	0.994	1.096	1.644	1.620	2.340	1.314	0.903	0.148	-0.384	0.498	726.562
1.213	-0.439	-1.513	0.070	-0.890	0.801	-1.270	-1.653	-1.753	-1.801	-3.110	-3.668	-0.229	0.424	0.841	0.388	0.817	1.176	0.944	0.916	1.432	1.551	2.517	1.152	1.049	0.063	-0.622	0.299	730.469
1.252	-0.464	-1.269	-0.094	-1.088	0.703	-1.500	-1.470	-1.607	-1.987	-3.090	-3.666	-0.580	0.174	0.718	0.230	0.657	1.127	0.876	0.688	1.201	1.519	2.712	1.075	1.131	-0.019	-0.756	0.206	734.375
1.217	-0.545	-1.173	-0.268	-1.275	0.625	-1.633	-1.155	-1.439	-2.029	-2.949	-3.541	-0.786	-0.024	0.585	0.010	0.489	1.078	0.785	0.424	0.969	1.519	2.888	1.097	1.164	-0.047	-0.760	0.247	738.281
1.120	-0.713	-1.225	-0.472	-1.448	0.576	-1.636	-0.746	-1.245	-1.893	-2.679	-3.280	-0.807	-0.150	0.452	-0.275	0.313	1.026	0.668	0.131	0.747	1.537	3.003	1.215	1.175	0.026	-0.620	0.440	742.188
0.951	-0.983	-1.415	-0.714	-1.605	0.549	-1.486	-0.284	-1.014	-1.554	-2.276	-2.879	-0.625	-0.193	0.317	-0.621	0.135	0.966	0.531	-0.182	0.543	1.553	3.020	1.413	1.194	0.225	-0.339	0.783	746.094
0.687	-1.351	-1.728	-0.989	-1.738	0.528	-1.177	0.197	-0.732	-1.007	-1.738	-2.352	-0.246	-0.150	0.174	-1.015	-0.033	0.897	0.391	-0.505	0.366	1.556	2.914	1.671	1.239	0.547	0.066	1.255	750.000
0.311	-1.790	-2.136	-1.279	-1.843	0.494	-0.721	0.664	-0.392	-0.278	-1.076	-1.728	0.298	-0.029	0.022	-1.434	-0.176	0.822	0.274	-0.822	0.221	1.537	2.685	1.965	1.311	0.952	0.561	1.811	753.906
-0.177	-2.265	-2.597	-1.560	-1.912	0.431	-0.157	1.093	0.001	0.576	-0.315	-1.051	0.952	0.152	-0.140	-1.849	-0.279	0.745	0.201	-1.118	0.110	1.499	2.353	2.267	1.394	1.381	1.099	2.394	757.812
-0.745	-2.736	-3.059	-1.808	-1.949	0.335	0.455	1.458	0.428	1.472	0.504	-0.377	1.642	0.368	-0.307	-2.231	-0.336	0.669	0.180	-1.378	0.036	1.445	1.957	2.550	1.461	1.769	1.627	2.945	761.719
-1.346	-3.168	-3.471	-2.009	-1.960	0.213	1.040	1.734	0.862	2.315	1.318	0.236	2.289	0.589	-0.474	-2.552	-0.358	0.596	0.195	-1.589	-0.008	1.376	1.550	2.783	1.490	2.064	2.085	3.412	765.625
-1.929	-3.530	-3.801	-2.155	-1.957	0.082	1.525	1.898	1.268	3.013	2.048	0.732	2.817	0.784	-0.641	-2.797	-0.373	0.520	0.202	-1.747	-0.026	1.288	1.188	2.933	1.469	2.243	2.420	3.766	769.531
-2.459	-3.799	-4.044	-2.240	-1.951	-0.033	1.848	1.936	1.614	3.496	2.609	1.068	3.166	0.927	-0.818	-2.959	-0.426	0.430	0.133	-1.851	-0.027	1.166	0.924	2.969	1.410	2.317	2.586	3.999	773.438
-2.937	-3.956	-4.227	-2.264	-1.950	-0.109	1.975	1.847	1.872	3.727	2.918	1.216	3.301	0.998	-1.027	-3.046	-0.567	0.310	-0.097	-1.908	-0.022	0.987	0.797	2.862	1.336	2.322	2.552	4.126	777.344
-3.389	-3.993	-4.400	-2.227	-1.958	-0.123	1.901	1.644	2.023	3.708	2.917	1.169	3.215	0.987	-1.294	-3.074	-0.847	0.146	-0.564	-1.931	-0.020	0.723	0.826	2.596	1.281	2.308	2.306	4.176	781.250
-3.861	-3.913	-4.615	-2.132	-1.974	-0.066	1.647	1.353	2.065	3.474	2.588	0.940	2.929	0.897	-1.644	-3.066	-1.298	-0.078	-1.321	-1.935	-0.029	0.354	1.009	2.167	1.275	2.324	1.858	4.186	785.156
-4.392	-3.734	-4.910	-1.990	-1.995	0.062	1.258	1.005	2.013	3.084	1.962	0.565	2.485	0.740	-2.089	-3.043	-1.926	-0.365	-2.373	-1.932	-0.054	-0.126	1.322	1.595	1.334	2.401	1.240	4.189	789.062
-4.995	-3.490	-5.294	-1.815	-2.021	0.244	0.787	0.630	1.894	2.603	1.115	0.094	1.943	0.539	-2.619	-3.025	-2.701	-0.706	-3.668	-1.934	-0.094	-0.701	1.724	0.917	1.457	2.552	0.504	4.209	792.969
-5.651	-3.220	-5.744	-1.631	-2.049	0.458	0.287	0.252	1.745	2.098	0.159	-0.413	1.364	0.317	-3.200	-3.021	-3.562	-1.080	-5.104	-1.946	-0.147	-1.332	2.166	0.186	1.622	2.762	-0.283	4.257	796.875
