FP1	F3	F7	FC3	C3	C5	P3	P7	PO7	PO3	O1	Oz	Pz	CPz	FP2	Fz	F4	F8	FC4	FCz	Cz	C4	C6	P4	P8	PO8	PO4	O2	time
-5.001	-1.531	-4.549	0.415	0.191	-3.387	1.488	0.646	3.902	3.487	1.691	2.792	2.145	1.148	-1.083	-1.140	0.128	0.369	-0.160	-0.483	0.101	0.727	-0.258	2.455	1.876	4.605	4.211	3.688	-199.219
-4.540	-1.668	-3.726	-0.146	-0.026	-2.662	1.641	0.809	3.430	3.480	1.889	2.627	2.477	1.257	-0.985	-1.216	0.171	0.302	0.055	-0.674	0.045	0.599	-0.421	2.635	1.568	4.018	4.221	3.308	-195.312
-4.042	-1.795	-2.919	-0.661	-0.215	-1.981	1.761	0.930	2.990	3.434	2.039	2.439	2.748	1.352	-0.888	-1.285	0.177	0.231	0.198	-0.839	0.008	0.469	-0.533	2.756	1.247	3.432	4.162	2.912	-191.406
-3.488	-1.874	-2.164	-1.061	-0.338	-1.375	1.823	0.986	2.581	3.307	2.088	2.192	2.905	1.425	-0.783	-1.317	0.138	0.158	0.239	-0.940	0.010	0.352	-0.563	2.755	0.892	2.830	3.951	2.466	-187.500
-2.862	-1.871	-1.485	-1.294	-0.373	-0.863	1.804	0.961	2.192	3.061	1.993	1.864	2.904	1.463	-0.664	-1.289	0.060	0.089	0.173	-0.949	0.066	0.255	-0.495	2.592	0.499	2.198	3.533	1.944	-183.594
-2.161	-1.759	-0.892	-1.333	-0.311	-0.450	1.689	0.853	1.804	2.670	1.731	1.442	2.721	1.460	-0.522	-1.180	-0.042	0.029	0.022	-0.850	0.180	0.187	-0.329	2.249	0.075	1.523	2.886	1.327	-179.688
-1.390	-1.520	-0.378	-1.175	-0.156	-0.128	1.475	0.671	1.391	2.124	1.303	0.928	2.355	1.408	-0.351	-0.973	-0.138	-0.011	-0.167	-0.641	0.345	0.155	-0.085	1.733	-0.359	0.795	2.019	0.611	-175.781
-0.565	-1.148	0.076	-0.839	0.075	0.124	1.172	0.435	0.935	1.434	0.725	0.332	1.826	1.308	-0.142	-0.659	-0.187	-0.022	-0.322	-0.331	0.549	0.166	0.207	1.072	-0.782	0.012	0.972	-0.194	-171.875
0.279	-0.652	0.486	-0.362	0.361	0.332	0.806	0.174	0.426	0.633	0.033	-0.325	1.175	1.167	0.106	-0.238	-0.150	0.006	-0.370	0.063	0.776	0.230	0.505	0.314	-1.173	-0.819	-0.198	-1.060	-167.969
1.098	-0.055	0.862	0.209	0.675	0.517	0.412	-0.083	-0.134	-0.226	-0.725	-1.014	0.456	0.995	0.389	0.277	0.002	0.077	-0.254	0.516	1.007	0.351	0.768	-0.484	-1.514	-1.673	-1.416	-1.948	-164.062
1.835	0.606	1.202	0.820	0.990	0.697	0.032	-0.309	-0.727	-1.077	-1.490	-1.701	-0.268	0.807	0.691	0.857	0.275	0.187	0.048	0.993	1.224	0.523	0.963	-1.260	-1.792	-2.510	-2.600	-2.800	-160.156
2.431	1.274	1.494	1.417	1.277	0.876	-0.295	-0.485	-1.327	-1.849	-2.203	-2.343	-0.939	0.618	0.985	1.453	0.645	0.323	0.511	1.454	1.405	0.729	1.069	-1.955	-1.987	-3.267	-3.666	-3.552	-156.250
2.834	1.884	1.722	1.939	1.508	1.045	-0.538	-0.606	-1.900	-2.476	-2.803	-2.891	-1.506	0.437	1.235	2.004	1.057	0.465	1.062	1.849	1.528	0.939	1.084	-2.515	-2.083	-3.870	-4.528	-4.135	-152.344
3.011	2.364	1.874	2.328	1.654	1.186	-0.684	-0.677	-2.406	-2.908	-3.237	-3.294	-1.932	0.270	1.404	2.442	1.436	0.586	1.597	2.132	1.571	1.113	1.026	-2.894	-2.057	-4.244	-5.111	-4.481	-148.438
2.951	2.647	1.946	2.531	1.690	1.273	-0.734	-0.711	-2.800	-3.112	-3.462	-3.504	-2.199	0.118	1.459	2.701	1.702	0.664	2.005	2.257	1.517	1.212	0.926	-3.062	-1.893	-4.327	-5.355	-4.537	-144.531
2.665	2.685	1.939	2.508	1.596	1.279	-0.707	-0.724	-3.040	-3.083	-3.451	-3.486	-2.303	-0.024	1.379	2.733	1.790	0.682	2.194	2.195	1.353	1.207	0.820	-3.003	-1.585	-4.079	-5.225	-4.275	-140.625
2.190	2.461	1.855	2.243	1.368	1.184	-0.630	-0.730	-3.086	-2.838	-3.196	-3.225	-2.254	-0.158	1.164	2.517	1.666	0.635	2.111	1.937	1.080	1.087	0.741	-2.718	-1.142	-3.501	-4.717	-3.698	-136.719
1.578	1.995	1.694	1.756	1.015	0.976	-0.534	-0.731	-2.914	-2.414	-2.714	-2.733	-2.075	-0.289	0.834	2.066	1.335	0.529	1.763	1.498	0.710	0.860	0.705	-2.229	-0.588	-2.630	-3.863	-2.847	-132.812
0.891	1.344	1.450	1.097	0.563	0.661	-0.446	-0.717	-2.517	-1.865	-2.043	-2.053	-1.795	-0.418	0.426	1.423	0.842	0.380	1.201	0.917	0.268	0.554	0.708	-1.574	0.037	-1.541	-2.730	-1.798	-128.906
0.198	0.586	1.123	0.340	0.055	0.257	-0.386	-0.666	-1.914	-1.247	-1.242	-1.250	-1.448	-0.544	-0.012	0.658	0.254	0.206	0.515	0.253	-0.212	0.208	0.722	-0.807	0.686	-0.329	-1.410	-0.651	-125.000
-0.437	-0.192	0.717	-0.428	-0.464	-0.202	-0.360	-0.552	-1.149	-0.618	-0.384	-0.405	-1.070	-0.665	-0.431	-0.150	-0.353	0.025	-0.197	-0.431	-0.693	-0.139	0.709	0.009	1.312	0.902	-0.011	0.488	-121.094
-0.965	-0.910	0.252	-1.126	-0.946	-0.669	-0.364	-0.353	-0.288	-0.027	0.459	0.402	-0.694	-0.775	-0.792	-0.921	-0.909	-0.151	-0.846	-1.073	-1.137	-0.453	0.626	0.807	1.871	2.052	1.358	1.520	-117.188
-1.361	-1.510	-0.242	-1.691	-1.350	-1.097	-0.389	-0.062	0.592	0.487	1.219	1.101	-0.347	-0.871	-1.070	-1.588	-1.364	-0.317	-1.371	-1.622	-1.514	-0.713	0.445	1.528	2.324	3.042	2.600	2.368	-113.281
-1.627	-1.953	-0.723	-2.083	-1.647	-1.437	-0.417	0.309	1.405	0.897	1.841	1.648	-0.050	-0.943	-1.259	-2.107	-1.695	-0.471	-1.742	-2.042	-1.801	-0.905	0.161	2.121	2.647	3.811	3.636	2.986	-109.375
-1.783	-2.225	-1.152	-2.286	-1.823	-1.649	-0.432	0.731	2.071	1.188	2.287	2.020	0.187	-0.987	-1.370	-2.453	-1.896	-0.613	-1.962	-2.316	-1.984	-1.028	-0.204	2.555	2.823	4.324	4.408	3.360	-105.469
-1.862	-2.329	-1.489	-2.307	-1.871	-1.709	-0.424	1.157	2.525	1.356	2.536	2.219	0.360	-0.993	-1.418	-2.620	-1.981	-0.741	-2.050	-2.440	-2.059	-1.085	-0.606	2.810	2.851	4.561	4.885	3.502	-101.562
-1.893	-2.279	-1.706	-2.169	-1.801	-1.608	-0.388	1.535	2.728	1.404	2.587	2.264	0.468	-0.957	-1.418	-2.619	-1.964	-0.847	-2.032	-2.420	-2.029	-1.081	-0.983	2.883	2.735	4.522	5.054	3.443	-97.656
-1.888	-2.092	-1.783	-1.903	-1.625	-1.357	-0.329	1.817	2.672	1.340	2.453	2.183	0.515	-0.879	-1.381	-2.467	-1.862	-0.919	-1.930	-2.266	-1.900	-1.019	-1.274	2.781	2.491	4.217	4.920	3.220	-93.750
-1.840	-1.788	-1.713	-1.547	-1.367	-0.990	-0.259	1.961	2.386	1.176	2.159	2.003	0.506	-0.761	-1.304	-2.182	-1.684	-0.941	-1.756	-1.995	-1.686	-0.907	-1.429	2.518	2.136	3.673	4.499	2.866	-89.844
-1.726	-1.385	-1.501	-1.135	-1.048	-0.551	-0.195	1.943	1.927	0.927	1.740	1.746	0.443	-0.613	-1.179	-1.785	-1.438	-0.902	-1.518	-1.623	-1.400	-0.754	-1.422	2.108	1.691	2.927	3.818	2.406	-85.938
-1.513	-0.901	-1.162	-0.695	-0.695	-0.094	-0.151	1.757	1.369	0.616	1.234	1.425	0.330	-0.449	-0.997	-1.298	-1.133	-0.798	-1.223	-1.171	-1.061	-0.577	-1.257	1.567	1.176	2.029	2.909	1.857	-82.031
-1.171	-0.358	-0.725	-0.249	-0.328	0.337	-0.134	1.420	0.790	0.266	0.682	1.045	0.173	-0.285	-0.751	-0.745	-0.782	-0.637	-0.884	-0.662	-0.688	-0.396	-0.965	0.914	0.612	1.033	1.814	1.230	-78.125
-0.685	0.215	-0.221	0.186	0.034	0.707	-0.139	0.971	0.252	-0.090	0.123	0.611	-0.017	-0.135	-0.441	-0.151	-0.401	-0.434	-0.517	-0.123	-0.301	-0.233	-0.604	0.174	0.020	-0.005	0.584	0.537	-74.219
-0.061	0.784	0.313	0.596	0.374	1.005	-0.154	0.466	-0.206	-0.422	-0.407	0.127	-0.224	-0.010	-0.078	0.452	-0.010	-0.213	-0.141	0.416	0.082	-0.105	-0.240	-0.618	-0.579	-1.033	-0.715	-0.204	-70.312
0.672	1.309	0.842	0.967	0.680	1.230	-0.164	-0.033	-0.569	-0.703	-0.880	-0.397	-0.427	0.086	0.317	1.030	0.369	-0.000	0.227	0.926	0.442	-0.019	0.067	-1.412	-1.164	-2.011	-2.006	-0.965	-66.406
1.457	1.750	1.334	1.280	0.935	1.393	-0.157	-0.475	-0.844	-0.915	-1.276	-0.940	-0.603	0.152	0.716	1.546	0.713	0.183	0.567	1.375	0.762	0.025	0.275	-2.149	-1.712	-2.901	-3.198	-1.709	-62.500
2.220	2.072	1.757	1.513	1.126	1.503	-0.128	-0.826	-1.049	-1.057	-1.583	-1.472	-0.733	0.190	1.084	1.963	1.001	0.321	0.859	1.733	1.025	0.038	0.372	-2.762	-2.198	-3.665	-4.198	-2.388	-58.594
2.879	2.254	2.079	1.647	1.239	1.565	-0.087	-1.078	-1.205	-1.135	-1.794	-1.953	-0.803	0.202	1.386	2.249	1.216	0.408	1.087	1.977	1.217	0.037	0.371	-3.191	-2.591	-4.259	-4.918	-2.945	-54.688
3.354	2.286	2.272	1.669	1.265	1.577	-0.050	-1.243	-1.329	-1.169	-1.905	-2.333	-0.808	0.193	1.593	2.380	1.345	0.446	1.240	2.090	1.327	0.036	0.305	-3.391	-2.857	-4.628	-5.293	-3.322	-50.781
3.583	2.179	2.309	1.578	1.201	1.529	-0.035	-1.346	-1.426	-1.174	-1.913	-2.562	-0.750	0.161	1.684	2.346	1.384	0.445	1.312	2.067	1.350	0.047	0.209	-3.347	-2.963	-4.719	-5.289	-3.465	-46.875
3.536	1.955	2.179	1.384	1.055	1.412	-0.058	-1.411	-1.491	-1.158	-1.812	-2.595	-0.640	0.109	1.651	2.152	1.333	0.415	1.298	1.913	1.284	0.069	0.115	-3.072	-2.884	-4.491	-4.911	-3.338	-42.969
3.216	1.644	1.887	1.108	0.839	1.221	-0.122	-1.454	-1.509	-1.120	-1.599	-2.404	-0.496	0.034	1.497	1.818	1.196	0.365	1.197	1.642	1.135	0.093	0.042	-2.608	-2.613	-3.932	-4.205	-2.931	-39.062
2.663	1.274	1.459	0.777	0.574	0.958	-0.218	-1.472	-1.466	-1.046	-1.275	-1.986	-0.338	-0.063	1.239	1.377	0.979	0.299	1.008	1.278	0.910	0.102	-0.008	-2.015	-2.162	-3.075	-3.247	-2.266	-35.156
1.944	0.870	0.939	0.418	0.278	0.637	-0.328	-1.447	-1.343	-0.914	-0.844	-1.362	-0.186	-0.182	0.903	0.866	0.694	0.217	0.735	0.848	0.623	0.078	-0.043	-1.358	-1.569	-1.997	-2.134	-1.397	-31.250
1.138	0.446	0.376	0.054	-0.028	0.281	-0.429	-1.356	-1.129	-0.707	-0.320	-0.582	-0.057	-0.318	0.521	0.328	0.358	0.121	0.393	0.381	0.292	0.011	-0.075	-0.696	-0.887	-0.806	-0.965	-0.404	-27.344
0.325	0.008	-0.184	-0.299	-0.330	-0.083	-0.501	-1.178	-0.818	-0.417	0.272	0.287	0.035	-0.467	0.125	-0.200	-0.006	0.013	0.007	-0.095	-0.066	-0.098	-0.119	-0.076	-0.178	0.380	0.169	0.626	-23.438
-0.424	-0.442	-0.703	-0.632	-0.619	-0.428	-0.531	-0.903	-0.411	-0.053	0.897	1.168	0.081	-0.623	-0.253	-0.690	-0.370	-0.103	-0.388	-0.555	-0.432	-0.239	-0.179	0.472	0.498	1.454	1.198	1.604	-19.531
-1.057	-0.899	-1.154	-0.946	-0.891	-0.733	-0.521	-0.539	0.079	0.357	1.507	1.984	0.076	-0.781	-0.589	-1.124	-0.709	-0.218	-0.753	-0.980	-0.789	-0.392	-0.252	0.929	1.089	2.340	2.072	2.459	-15.625
-1.544	-1.352	-1.514	-1.242	-1.145	-0.981	-0.485	-0.113	0.629	0.773	2.048	2.671	0.020	-0.937	-0.867	-1.493	-1.003	-0.325	-1.059	-1.355	-1.124	-0.537	-0.324	1.289	1.561	2.999	2.765	3.137	-11.719
-1.874	-1.782	-1.768	-1.526	-1.379	-1.161	-0.442	0.340	1.206	1.147	2.469	3.184	-0.084	-1.083	-1.083	-1.798	-1.242	-0.417	-1.288	-1.672	-1.424	-0.658	-0.378	1.549	1.898	3.427	3.269	3.610	-7.812
-2.058	-2.157	-1.906	-1.794	-1.585	-1.265	-0.415	0.784	1.766	1.435	2.725	3.503	-0.230	-1.217	-1.241	-2.043	-1.426	-0.493	-1.438	-1.923	-1.681	-0.747	-0.400	1.712	2.098	3.642	3.589	3.871	-3.906
-2.119	-2.445	-1.930	-2.035	-1.749	-1.284	-0.415	1.189	2.267	1.608	2.798	3.633	-0.406	-1.330	-1.351	-2.228	-1.560	-0.556	-1.519	-2.104	-1.885	-0.807	-0.391	1.778	2.175	3.678	3.731	3.932	0.000
-2.086	-2.613	-1.851	-2.229	-1.852	-1.213	-0.444	1.537	2.671	1.655	2.693	3.602	-0.599	-1.418	-1.423	-2.350	-1.653	-0.614	-1.551	-2.209	-2.025	-0.850	-0.366	1.743	2.146	3.570	3.703	3.818	3.906
-1.990	-2.639	-1.689	-2.348	-1.872	-1.049	-0.493	1.822	2.955	1.586	2.444	3.451	-0.798	-1.476	-1.468	-2.401	-1.712	-0.676	-1.552	-2.231	-2.094	-0.893	-0.353	1.603	2.034	3.348	3.506	3.559	7.812
-1.850	-2.517	-1.469	-2.367	-1.791	-0.796	-0.540	2.046	3.109	1.430	2.102	3.224	-0.990	-1.501	-1.488	-2.370	-1.742	-0.748	-1.539	-2.170	-2.087	-0.956	-0.385	1.351	1.853	3.031	3.142	3.185	11.719
-1.670	-2.257	-1.207	-2.266	-1.603	-0.465	-0.564	2.213	3.142	1.225	1.728	2.963	-1.166	-1.495	-1.481	-2.246	-1.743	-0.835	-1.523	-2.027	-2.006	-1.052	-0.489	0.987	1.613	2.629	2.612	2.723	15.625
-1.439	-1.886	-0.913	-2.044	-1.313	-0.075	-0.544	2.324	3.071	1.012	1.376	2.696	-1.319	-1.462	-1.437	-2.025	-1.710	-0.930	-1.502	-1.807	-1.857	-1.188	-0.674	0.516	1.322	2.144	1.929	2.193	19.531
-1.137	-1.442	-0.587	-1.712	-0.943	0.347	-0.471	2.373	2.917	0.826	1.077	2.440	-1.444	-1.407	-1.342	-1.713	-1.637	-1.024	-1.467	-1.526	-1.655	-1.356	-0.932	-0.040	0.981	1.578	1.118	1.615	23.438
-0.747	-0.967	-0.226	-1.301	-0.527	0.771	-0.343	2.353	2.701	0.691	0.844	2.198	-1.532	-1.336	-1.184	-1.327	-1.513	-1.098	-1.396	-1.201	-1.418	-1.536	-1.232	-0.645	0.597	0.935	0.226	1.007	27.344
-0.271	-0.501	0.164	-0.850	-0.103	1.166	-0.175	2.254	2.436	0.615	0.665	1.969	-1.576	-1.253	-0.961	-0.896	-1.333	-1.134	-1.272	-0.856	-1.166	-1.699	-1.531	-1.248	0.186	0.237	-0.681	0.396	31.250
0.261	-0.080	0.560	-0.405	0.290	1.500	0.013	2.072	2.129	0.591	0.518	1.755	-1.568	-1.161	-0.684	-0.458	-1.101	-1.115	-1.087	-0.519	-0.922	-1.818	-1.773	-1.792	-0.229	-0.480	-1.527	-0.184	35.156
0.786	0.272	0.918	-0.007	0.619	1.744	0.195	1.809	1.781	0.604	0.378	1.557	-1.500	-1.060	-0.380	-0.056	-0.832	-1.036	-0.849	-0.214	-0.703	-1.867	-1.910	-2.218	-0.614	-1.160	-2.234	-0.688	39.062
1.221	0.539	1.183	0.312	0.860	1.877	0.345	1.482	1.390	0.630	0.228	1.386	-1.370	-0.949	-0.088	0.272	-0.553	-0.899	-0.588	0.034	-0.524	-1.836	-1.900	-2.481	-0.933	-1.740	-2.737	-1.073	42.969
1.482	0.715	1.302	0.533	1.005	1.887	0.446	1.116	0.963	0.650	0.056	1.248	-1.178	-0.826	0.149	0.495	-0.296	-0.718	-0.345	0.214	-0.391	-1.723	-1.724	-2.549	-1.153	-2.160	-2.989	-1.300	46.875
1.507	0.798	1.244	0.650	1.054	1.774	0.491	0.748	0.512	0.653	-0.135	1.150	-0.935	-0.690	0.297	0.600	-0.090	-0.512	-0.157	0.321	-0.306	-1.539	-1.389	-2.413	-1.256	-2.373	-2.968	-1.352	50.781
1.271	0.793	1.008	0.666	1.019	1.553	0.482	0.419	0.068	0.642	-0.334	1.091	-0.656	-0.543	0.337	0.591	0.050	-0.302	-0.046	0.361	-0.260	-1.300	-0.932	-2.085	-1.234	-2.358	-2.678	-1.234	54.688
0.794	0.703	0.626	0.590	0.914	1.251	0.435	0.163	-0.324	0.633	-0.515	1.062	-0.362	-0.390	0.272	0.484	0.122	-0.110	-0.009	0.347	-0.243	-1.024	-0.414	-1.590	-1.095	-2.120	-2.141	-0.976	58.594
0.131	0.532	0.151	0.433	0.759	0.901	0.368	0.009	-0.609	0.651	-0.649	1.055	-0.080	-0.241	0.120	0.306	0.138	0.049	-0.031	0.291	-0.248	-0.732	0.087	-0.967	-0.854	-1.687	-1.393	-0.625	62.500
-0.636	0.277	-0.354	0.206	0.570	0.541	0.304	-0.030	-0.727	0.723	-0.696	1.060	0.168	-0.111	-0.093	0.079	0.109	0.161	-0.087	0.202	-0.269	-0.449	0.493	-0.262	-0.525	-1.098	-0.483	-0.231	66.406
-1.426	-0.062	-0.839	-0.078	0.365	0.209	0.261	0.049	-0.630	0.874	-0.622	1.071	0.359	-0.018	-0.341	-0.180	0.042	0.214	-0.167	0.081	-0.311	-0.202	0.744	0.477	-0.121	-0.393	0.534	0.159	70.312
-2.171	-0.484	-1.272	-0.407	0.155	-0.063	0.251	0.238	-0.290	1.115	-0.406	1.087	0.477	0.018	-0.607	-0.467	-0.070	0.199	-0.274	-0.081	-0.387	-0.023	0.804	1.199	0.352	0.394	1.596	0.519	74.219
-2.835	-0.975	-1.646	-0.762	-0.046	-0.250	0.279	0.528	0.289	1.440	-0.045	1.107	0.509	-0.022	-0.887	-0.785	-0.241	0.113	-0.427	-0.294	-0.512	0.061	0.675	1.855	0.888	1.241	2.637	0.833	78.125
-3.406	-1.508	-1.972	-1.125	-0.232	-0.341	0.339	0.905	1.074	1.829	0.440	1.130	0.449	-0.150	-1.184	-1.139	-0.488	-0.042	-0.653	-0.567	-0.699	0.030	0.393	2.404	1.483	2.131	3.594	1.104	82.031
-3.898	-2.044	-2.269	-1.471	-0.397	-0.341	0.420	1.360	2.006	2.246	1.006	1.152	0.294	-0.369	-1.507	-1.528	-0.821	-0.257	-0.969	-0.898	-0.957	-0.119	0.020	2.813	2.125	3.046	4.405	1.338	85.938
-4.329	-2.537	-2.548	-1.783	-0.543	-0.268	0.505	1.886	3.013	2.648	1.597	1.167	0.044	-0.677	-1.860	-1.944	-1.236	-0.515	-1.378	-1.279	-1.286	-0.377	-0.371	3.064	2.795	3.961	5.023	1.544	89.844
-4.709	-2.946	-2.799	-2.046	-0.676	-0.150	0.572	2.473	4.020	2.989	2.152	1.168	-0.297	-1.061	-2.239	-2.369	-1.715	-0.794	-1.860	-1.691	-1.676	-0.717	-0.708	3.153	3.463	4.844	5.414	1.726	93.750
-5.031	-3.241	-2.994	-2.259	-0.806	-0.022	0.602	3.102	4.967	3.236	2.616	1.147	-0.724	-1.501	-2.629	-2.779	-2.228	-1.071	-2.378	-2.110	-2.107	-1.102	-0.942	3.088	4.099	5.658	5.564	1.884	97.656
-5.272	-3.414	-3.091	-2.427	-0.946	0.088	0.580	3.750	5.812	3.371	2.952	1.104	-1.224	-1.973	-3.004	-3.145	-2.735	-1.326	-2.876	-2.509	-2.555	-1.494	-1.050	2.887	4.668	6.367	5.476	2.014	101.562
-5.402	-3.472	-3.056	-2.560	-1.100	0.159	0.502	4.385	6.535	3.394	3.145	1.040	-1.776	-2.449	-3.334	-3.445	-3.190	-1.539	-3.296	-2.864	-2.990	-1.851	-1.040	2.573	5.143	6.938	5.172	2.107	105.469
-5.396	-3.433	-2.875	-2.665	-1.265	0.184	0.374	4.969	7.126	3.323	3.197	0.966	-2.349	-2.897	-3.588	-3.655	-3.550	-1.696	-3.581	-3.150	-3.377	-2.142	-0.943	2.177	5.500	7.339	4.688	2.152	109.375
-5.243	-3.318	-2.564	-2.740	-1.426	0.168	0.214	5.466	7.581	3.188	3.131	0.895	-2.904	-3.282	-3.740	-3.764	-3.777	-1.789	-3.693	-3.348	-3.685	-2.341	-0.805	1.733	5.725	7.544	4.073	2.136	113.281
-4.955	-3.148	-2.172	-2.777	-1.561	0.130	0.049	5.845	7.894	3.025	2.976	0.838	-3.392	-3.572	-3.775	-3.762	-3.851	-1.815	-3.616	-3.442	-3.884	-2.437	-0.671	1.278	5.807	7.531	3.384	2.044	117.188
-4.563	-2.936	-1.760	-2.761	-1.640	0.094	-0.091	6.085	8.055	2.865	2.765	0.804	-3.766	-3.740	-3.690	-3.653	-3.766	-1.778	-3.365	-3.424	-3.954	-2.431	-0.576	0.844	5.741	7.289	2.675	1.866	121.094
-4.110	-2.696	-1.392	-2.677	-1.640	0.087	-0.178	6.176	8.049	2.728	2.523	0.795	-3.981	-3.767	-3.497	-3.445	-3.539	-1.686	-2.981	-3.292	-3.888	-2.334	-0.533	0.461	5.530	6.827	1.997	1.602	125.000
-3.644	-2.439	-1.113	-2.516	-1.548	0.130	-0.192	6.121	7.861	2.627	2.267	0.806	-4.010	-3.648	-3.219	-3.152	-3.200	-1.552	-2.522	-3.054	-3.689	-2.167	-0.540	0.148	5.186	6.180	1.391	1.265	128.906
-3.214	-2.178	-0.946	-2.283	-1.362	0.231	-0.128	5.932	7.484	2.557	2.006	0.827	-3.844	-3.391	-2.888	-2.797	-2.794	-1.390	-2.052	-2.725	-3.376	-1.955	-0.577	-0.085	4.733	5.406	0.887	0.880	132.812
-2.860	-1.924	-0.890	-1.990	-1.100	0.388	0.006	5.626	6.929	2.506	1.744	0.850	-3.498	-3.018	-2.539	-2.403	-2.363	-1.216	-1.628	-2.327	-2.975	-1.721	-0.616	-0.236	4.207	4.581	0.501	0.485	136.719
-2.611	-1.688	-0.925	-1.665	-0.794	0.578	0.184	5.222	6.225	2.452	1.489	0.867	-3.004	-2.560	-2.205	-1.993	-1.948	-1.042	-1.290	-1.888	-2.520	-1.485	-0.629	-0.306	3.651	3.782	0.244	0.123	140.625
-2.482	-1.479	-1.024	-1.343	-0.483	0.769	0.369	4.734	5.427	2.372	1.251	0.878	-2.412	-2.055	-1.912	-1.592	-1.576	-0.876	-1.054	-1.437	-2.045	-1.258	-0.595	-0.295	3.111	3.079	0.119	-0.165	144.531
-2.467	-1.303	-1.162	-1.058	-0.211	0.919	0.520	4.180	4.608	2.246	1.047	0.888	-1.780	-1.543	-1.672	-1.221	-1.263	-0.721	-0.914	-1.005	-1.584	-1.046	-0.506	-0.201	2.627	2.521	0.130	-0.346	148.438
-2.543	-1.163	-1.317	-0.844	-0.016	0.990	0.600	3.577	3.849	2.068	0.897	0.907	-1.163	-1.063	-1.488	-0.901	-1.011	-0.579	-0.848	-0.622	-1.167	-0.847	-0.364	-0.019	2.232	2.135	0.276	-0.399	152.344
-2.675	-1.062	-1.472	-0.728	0.073	0.955	0.586	2.954	3.228	1.844	0.815	0.950	-0.614	-0.647	-1.354	-0.649	-0.816	-0.447	-0.825	-0.314	-0.819	-0.659	-0.183	0.250	1.949	1.928	0.558	-0.318	156.250
-2.827	-1.008	-1.615	-0.726	0.042	0.807	0.473	2.349	2.808	1.596	0.811	1.029	-0.170	-0.323	-1.259	-0.478	-0.667	-0.322	-0.811	-0.101	-0.561	-0.482	0.015	0.604	1.794	1.897	0.971	-0.107	160.156
-2.973	-1.011	-1.740	-0.842	-0.105	0.558	0.272	1.806	2.624	1.357	0.885	1.157	0.143	-0.110	-1.194	-0.398	-0.557	-0.205	-0.779	0.002	-0.405	-0.316	0.206	1.032	1.778	2.036	1.513	0.219	164.062
-3.107	-1.086	-1.851	-1.069	-0.351	0.236	0.015	1.375	2.686	1.166	1.028	1.340	0.318	-0.016	-1.160	-0.420	-0.483	-0.098	-0.721	-0.013	-0.361	-0.174	0.367	1.520	1.906	2.336	2.174	0.643	167.969
-3.243	-1.248	-1.965	-1.391	-0.672	-0.122	-0.261	1.098	2.972	1.062	1.230	1.580	0.362	-0.044	-1.165	-0.548	-0.457	-0.012	-0.650	-0.148	-0.431	-0.071	0.480	2.049	2.179	2.793	2.945	1.146	171.875
-3.412	-1.513	-2.105	-1.784	-1.036	-0.485	-0.513	1.008	3.439	1.074	1.480	1.875	0.296	-0.184	-1.226	-0.790	-0.497	0.040	-0.605	-0.401	-0.614	-0.027	0.532	2.598	2.590	3.405	3.815	1.712	175.781
-3.650	-1.889	-2.302	-2.223	-1.418	-0.830	-0.703	1.117	4.029	1.218	1.771	2.221	0.151	-0.421	-1.362	-1.149	-0.630	0.040	-0.635	-0.766	-0.902	-0.062	0.516	3.153	3.128	4.170	4.765	2.328	179.688
-3.982	-2.372	-2.580	-2.685	-1.795	-1.146	-0.803	1.419	4.681	1.495	2.104	2.611	-0.038	-0.730	-1.585	-1.618	-0.873	-0.021	-0.783	-1.226	-1.283	-0.182	0.435	3.699	3.771	5.080	5.775	2.983	183.594
-4.419	-2.944	-2.946	-3.148	-2.153	-1.436	-0.800	1.883	5.337	1.887	2.479	3.035	-0.233	-1.081	-1.892	-2.181	-1.227	-0.144	-1.071	-1.759	-1.733	-0.379	0.301	4.231	4.491	6.122	6.820	3.664	187.500
-4.951	-3.573	-3.391	-3.596	-2.486	-1.704	-0.696	2.461	5.954	2.364	2.894	3.479	-0.402	-1.441	-2.268	-2.805	-1.672	-0.317	-1.484	-2.332	-2.221	-0.630	0.135	4.747	5.256	7.267	7.873	4.353	191.406
-5.552	-4.212	-3.886	-4.018	-2.789	-1.958	-0.508	3.086	6.505	2.883	3.343	3.925	-0.522	-1.779	-2.681	-3.445	-2.163	-0.514	-1.978	-2.905	-2.711	-0.899	-0.036	5.248	6.030	8.477	8.902	5.026	195.312
-6.181	-4.814	-4.392	-4.408	-3.062	-2.202	-0.263	3.683	6.981	3.399	3.808	4.354	-0.584	-2.069	-3.093	-4.054	-2.649	-0.706	-2.491	-3.436	-3.165	-1.149	-0.181	5.728	6.778	9.698	9.874	5.656	199.219
-6.799	-5.331	-4.869	-4.760	-3.302	-2.428	0.004	4.181	7.384	3.873	4.265	4.744	-0.586	-2.295	-3.468	-4.582	-3.077	-0.863	-2.960	-3.890	-3.550	-1.353	-0.276	6.178	7.468	10.869	10.752	6.217	203.125
-7.368	-5.727	-5.287	-5.066	-3.508	-2.628	0.262	4.526	7.724	4.269	4.679	5.075	-0.539	-2.449	-3.778	-4.996	-3.409	-0.966	-3.340	-4.240	-3.845	-1.495	-0.303	6.579	8.071	11.925	11.497	6.687	207.031
-7.859	-5.979	-5.633	-5.319	-3.673	-2.787	0.485	4.688	8.000	4.568	5.018	5.329	-0.456	-2.532	-4.006	-5.274	-3.627	-1.004	-3.608	-4.476	-4.039	-1.577	-0.254	6.913	8.560	12.796	12.080	7.052	210.938
-8.253	-6.081	-5.905	-5.505	-3.792	-2.893	0.657	4.669	8.206	4.760	5.248	5.498	-0.351	-2.550	-4.146	-5.414	-3.732	-0.981	-3.765	-4.602	-4.133	-1.611	-0.135	7.162	8.913	13.423	12.478	7.307	214.844
-8.536	-6.042	-6.115	-5.610	-3.857	-2.939	0.777	4.503	8.321	4.856	5.347	5.575	-0.235	-2.510	-4.200	-5.430	-3.734	-0.908	-3.824	-4.628	-4.135	-1.609	0.039	7.315	9.113	13.758	12.680	7.453	218.750
-8.696	-5.882	-6.279	-5.620	-3.863	-2.926	0.855	4.242	8.322	4.873	5.307	5.563	-0.110	-2.421	-4.174	-5.341	-3.650	-0.800	-3.801	-4.574	-4.060	-1.582	0.240	7.373	9.150	13.778	12.694	7.499	222.656
-8.725	-5.630	-6.412	-5.528	-3.807	-2.865	0.910	3.950	8.190	4.842	5.134	5.467	0.026	-2.286	-4.072	-5.173	-3.494	-0.669	-3.707	-4.455	-3.920	-1.534	0.439	7.345	9.023	13.490	12.541	7.454	226.562
-8.621	-5.320	-6.522	-5.338	-3.691	-2.770	0.961	3.679	7.925	4.793	4.853	5.299	0.183	-2.107	-3.901	-4.950	-3.279	-0.528	-3.547	-4.286	-3.731	-1.461	0.607	7.249	8.743	12.931	12.254	7.330	230.469
-8.393	-4.989	-6.606	-5.072	-3.526	-2.659	1.027	3.465	7.547	4.757	4.505	5.073	0.367	-1.889	-3.669	-4.698	-3.017	-0.386	-3.329	-4.083	-3.504	-1.363	0.720	7.105	8.331	12.170	11.877	7.140	234.375
-8.061	-4.675	-6.643	-4.765	-3.328	-2.551	1.119	3.320	7.098	4.757	4.137	4.810	0.586	-1.635	-3.397	-4.441	-2.729	-0.254	-3.069	-3.856	-3.250	-1.242	0.765	6.929	7.822	11.293	11.453	6.900	238.281
-7.666	-4.413	-6.605	-4.463	-3.115	-2.455	1.244	3.233	6.635	4.804	3.803	4.534	0.841	-1.351	-3.110	-4.200	-2.440	-0.146	-2.792	-3.617	-2.981	-1.110	0.735	6.735	7.254	10.395	11.023	6.627	242.188
-7.255	-4.231	-6.466	-4.212	-2.908	-2.376	1.397	3.184	6.219	4.901	3.549	4.273	1.125	-1.047	-2.841	-3.996	-2.182	-0.075	-2.532	-3.379	-2.706	-0.983	0.634	6.533	6.668	9.562	10.617	6.342	246.094
-6.881	-4.147	-6.215	-4.046	-2.723	-2.308	1.570	3.143	5.899	5.039	3.407	4.052	1.429	-0.732	-2.621	-3.841	-1.982	-0.051	-2.324	-3.150	-2.434	-0.881	0.477	6.332	6.104	8.863	10.258	6.066	250.000
-6.591	-4.161	-5.867	-3.983	-2.569	-2.244	1.755	3.087	5.708	5.205	3.390	3.892	1.737	-0.416	-2.475	-3.743	-1.865	-0.080	-2.206	-2.941	-2.169	-0.822	0.287	6.139	5.594	8.342	9.960	5.820	253.906
-6.418	-4.261	-5.470	-4.016	-2.448	-2.171	1.940	3.007	5.650	5.381	3.489	3.801	2.034	-0.108	-2.414	-3.700	-1.839	-0.157	-2.198	-2.757	-1.916	-0.811	0.093	5.966	5.162	8.017	9.729	5.617	257.812
-6.375	-4.424	-5.096	-4.121	-2.354	-2.084	2.119	2.905	5.704	5.551	3.677	3.777	2.308	0.185	-2.434	-3.702	-1.896	-0.265	-2.302	-2.600	-1.675	-0.845	-0.073	5.830	4.827	7.882	9.570	5.467	261.719
-6.461	-4.616	-4.826	-4.259	-2.276	-1.979	2.292	2.799	5.831	5.704	3.915	3.808	2.549	0.460	-2.513	-3.734	-2.009	-0.380	-2.490	-2.469	-1.446	-0.904	-0.183	5.748	4.595	7.913	9.485	5.373	265.625
-6.658	-4.809	-4.732	-4.389	-2.203	-1.863	2.460	2.712	5.988	5.837	4.162	3.873	2.757	0.716	-2.621	-3.778	-2.132	-0.470	-2.708	-2.361	-1.226	-0.960	-0.221	5.737	4.469	8.074	9.478	5.334	269.531
-6.940	-4.978	-4.859	-4.478	-2.126	-1.745	2.630	2.671	6.135	5.955	4.386	3.951	2.934	0.953	-2.727	-3.819	-2.217	-0.508	-2.888	-2.270	-1.016	-0.983	-0.180	5.812	4.442	8.325	9.550	5.346	273.438
-7.288	-5.112	-5.210	-4.507	-2.040	-1.641	2.806	2.694	6.254	6.070	4.570	4.023	3.089	1.173	-2.806	-3.848	-2.223	-0.474	-2.966	-2.195	-0.816	-0.950	-0.073	5.977	4.506	8.623	9.703	5.404	277.344
-7.690	-5.211	-5.749	-4.475	-1.946	-1.564	2.995	2.792	6.345	6.198	4.715	4.076	3.234	1.376	-2.853	-3.866	-2.133	-0.368	-2.903	-2.138	-0.633	-0.854	0.075	6.230	4.651	8.937	9.935	5.503	281.250
-8.146	-5.287	-6.407	-4.398	-1.853	-1.527	3.196	2.968	6.429	6.359	4.837	4.104	3.379	1.560	-2.878	-3.889	-1.956	-0.209	-2.699	-2.110	-0.481	-0.705	0.229	6.557	4.866	9.242	10.238	5.639	285.156
-8.664	-5.358	-7.102	-4.308	-1.772	-1.538	3.408	3.215	6.538	6.567	4.960	4.111	3.532	1.718	-2.911	-3.939	-1.733	-0.030	-2.396	-2.126	-0.377	-0.531	0.355	6.934	5.146	9.531	10.603	5.810	289.062
-9.251	-5.446	-7.755	-4.240	-1.718	-1.596	3.625	3.521	6.707	6.833	5.112	4.105	3.696	1.842	-2.986	-4.043	-1.524	0.128	-2.067	-2.204	-0.338	-0.368	0.425	7.335	5.490	9.809	11.016	6.016	292.969
-9.901	-5.573	-8.304	-4.230	-1.708	-1.696	3.838	3.872	6.966	7.157	5.317	4.103	3.869	1.923	-3.134	-4.226	-1.396	0.225	-1.800	-2.361	-0.381	-0.259	0.426	7.732	5.897	10.088	11.458	6.258	296.875
-10.588	-5.755	-8.709	-4.305	-1.754	-1.824	4.038	4.254	7.332	7.530	5.589	4.123	4.042	1.952	-3.372	-4.505	-1.402	0.236	-1.673	-2.606	-0.517	-0.236	0.358	8.099	6.367	10.387	11.911	6.536	300.781
-11.270	-6.005	-8.955	-4.486	-1.868	-1.964	4.213	4.657	7.805	7.937	5.927	4.185	4.205	1.923	-3.696	-4.882	-1.571	0.150	-1.735	-2.940	-0.745	-0.316	0.237	8.416	6.891	10.721	12.354	6.849	304.688
-11.887	-6.324	-9.051	-4.779	-2.053	-2.102	4.358	5.069	8.372	8.358	6.322	4.305	4.344	1.838	-4.084	-5.343	-1.903	-0.022	-1.994	-3.351	-1.058	-0.498	0.088	8.670	7.455	11.101	12.768	7.194	308.594
-12.379	-6.707	-9.022	-5.180	-2.308	-2.230	4.466	5.477	9.008	8.773	6.751	4.493	4.446	1.701	-4.497	-5.863	-2.369	-0.253	-2.423	-3.819	-1.434	-0.763	-0.057	8.854	8.037	11.536	13.133	7.565	312.500
-12.695	-7.142	-8.906	-5.670	-2.619	-2.346	4.539	5.862	9.680	9.162	7.188	4.746	4.505	1.525	-4.890	-6.407	-2.918	-0.507	-2.966	-4.315	-1.846	-1.080	-0.169	8.964	8.609	12.024	13.434	7.954	316.406
-12.808	-7.611	-8.743	-6.216	-2.964	-2.451	4.580	6.204	10.345	9.509	7.603	5.050	4.517	1.326	-5.221	-6.937	-3.488	-0.749	-3.551	-4.807	-2.263	-1.410	-0.227	9.005	9.142	12.555	13.662	8.346	320.312
-12.727	-8.084	-8.574	-6.772	-3.315	-2.547	4.595	6.483	10.953	9.801	7.967	5.377	4.488	1.126	-5.462	-7.414	-4.015	-0.945	-4.100	-5.258	-2.649	-1.712	-0.223	8.986	9.607	13.101	13.812	8.724	324.219
-12.498	-8.525	-8.433	-7.282	-3.637	-2.631	4.591	6.681	11.448	10.028	8.253	5.690	4.428	0.946	-5.600	-7.802	-4.441	-1.075	-4.543	-5.635	-2.972	-1.948	-0.164	8.922	9.981	13.624	13.887	9.068	328.125
-12.202	-8.893	-8.351	-7.689	-3.899	-2.698	4.575	6.789	11.782	10.184	8.440	5.955	4.351	0.807	-5.641	-8.074	-4.724	-1.129	-4.828	-5.907	-3.206	-2.090	-0.066	8.834	10.245	14.071	13.895	9.359	332.031
-11.926	-9.147	-8.349	-7.948	-4.077	-2.744	4.546	6.809	11.919	10.264	8.518	6.143	4.270	0.722	-5.606	-8.211	-4.839	-1.113	-4.927	-6.056	-3.334	-2.126	0.044	8.742	10.393	14.392	13.850	9.579	335.938
-11.748	-9.257	-8.436	-8.030	-4.162	-2.765	4.503	6.748	11.852	10.268	8.490	6.242	4.192	0.692	-5.523	-8.211	-4.790	-1.041	-4.845	-6.076	-3.357	-2.060	0.137	8.661	10.422	14.546	13.762	9.721	339.844
-11.707	-9.206	-8.604	-7.936	-4.157	-2.764	4.440	6.621	11.603	10.200	8.372	6.258	4.118	0.708	-5.418	-8.081	-4.603	-0.940	-4.617	-5.979	-3.286	-1.916	0.185	8.594	10.342	14.510	13.640	9.787	343.750
-11.795	-9.004	-8.821	-7.692	-4.080	-2.744	4.348	6.446	11.232	10.070	8.197	6.216	4.040	0.750	-5.312	-7.846	-4.322	-0.835	-4.297	-5.789	-3.149	-1.730	0.164	8.534	10.160	14.288	13.486	9.792	347.656
-11.963	-8.676	-9.036	-7.344	-3.955	-2.714	4.225	6.246	10.815	9.894	8.004	6.154	3.949	0.792	-5.216	-7.536	-4.002	-0.753	-3.950	-5.539	-2.978	-1.546	0.064	8.464	9.891	13.905	13.297	9.755	351.562
-12.140	-8.265	-9.194	-6.950	-3.807	-2.680	4.074	6.040	10.434	9.694	7.839	6.119	3.836	0.811	-5.130	-7.186	-3.693	-0.711	-3.634	-5.262	-2.802	-1.402	-0.113	8.361	9.544	13.402	13.073	9.702	355.469
-12.254	-7.817	-9.245	-6.562	-3.653	-2.646	3.906	5.848	10.159	9.497	7.741	6.152	3.697	0.788	-5.048	-6.826	-3.432	-0.717	-3.392	-4.988	-2.648	-1.324	-0.356	8.206	9.130	12.826	12.812	9.652	359.375
-12.256	-7.375	-9.160	-6.220	-3.505	-2.612	3.740	5.688	10.025	9.330	7.740	6.286	3.535	0.720	-4.963	-6.481	-3.240	-0.766	-3.240	-4.737	-2.528	-1.323	-0.643	7.989	8.661	12.227	12.522	9.622	363.281
-12.133	-6.974	-8.947	-5.948	-3.366	-2.576	3.596	5.570	10.036	9.215	7.850	6.538	3.360	0.610	-4.870	-6.171	-3.117	-0.848	-3.176	-4.521	-2.448	-1.396	-0.949	7.711	8.153	11.652	12.213	9.621	367.188
-11.911	-6.635	-8.643	-5.753	-3.237	-2.533	3.495	5.502	10.165	9.165	8.072	6.909	3.188	0.472	-4.773	-5.910	-3.057	-0.949	-3.186	-4.349	-2.406	-1.527	-1.249	7.388	7.631	11.148	11.905	9.655	371.094
-11.641	-6.376	-8.312	-5.632	-3.121	-2.476	3.448	5.481	10.366	9.186	8.391	7.384	3.033	0.322	-4.683	-5.712	-3.051	-1.055	-3.254	-4.229	-2.397	-1.699	-1.523	7.042	7.132	10.758	11.623	9.731	375.000
-11.389	-6.207	-8.023	-5.581	-3.029	-2.406	3.458	5.501	10.587	9.272	8.786	7.943	2.911	0.173	-4.618	-5.593	-3.095	-1.160	-3.373	-4.171	-2.421	-1.899	-1.755	6.705	6.699	10.519	11.395	9.858	378.906
-11.207	-6.138	-7.835	-5.602	-2.976	-2.326	3.518	5.549	10.787	9.411	9.231	8.560	2.828	0.037	-4.595	-5.569	-3.193	-1.259	-3.544	-4.189	-2.480	-2.116	-1.935	6.412	6.374	10.461	11.249	10.048	382.812
-11.128	-6.175	-7.780	-5.700	-2.983	-2.250	3.610	5.606	10.935	9.584	9.697	9.210	2.788	-0.084	-4.628	-5.654	-3.350	-1.355	-3.773	-4.295	-2.580	-2.343	-2.059	6.194	6.193	10.594	11.212	10.312	386.719
-11.151	-6.322	-7.857	-5.879	-3.068	-2.195	3.716	5.656	11.014	9.774	10.156	9.870	2.787	-0.188	-4.719	-5.850	-3.567	-1.447	-4.056	-4.496	-2.722	-2.573	-2.126	6.077	6.176	10.908	11.300	10.654	390.625
-11.253	-6.570	-8.037	-6.138	-3.237	-2.179	3.817	5.683	11.023	9.961	10.581	10.514	2.820	-0.277	-4.856	-6.147	-3.836	-1.535	-4.381	-4.784	-2.905	-2.796	-2.143	6.075	6.324	11.371	11.513	11.068	394.531
-11.400	-6.897	-8.272	-6.460	-3.482	-2.215	3.898	5.675	10.970	10.131	10.951	11.116	2.880	-0.350	-5.023	-6.519	-4.136	-1.613	-4.720	-5.138	-3.117	-2.999	-2.121	6.188	6.616	11.932	11.833	11.534	398.438
-11.560	-7.267	-8.513	-6.814	-3.779	-2.307	3.949	5.628	10.872	10.270	11.246	11.644	2.961	-0.402	-5.194	-6.924	-4.431	-1.676	-5.029	-5.521	-3.336	-3.165	-2.074	6.398	7.013	12.525	12.228	12.016	402.344
-11.710	-7.633	-8.720	-7.155	-4.093	-2.450	3.968	5.546	10.748	10.371	11.449	12.062	3.059	-0.426	-5.346	-7.311	-4.679	-1.713	-5.260	-5.889	-3.534	-3.276	-2.015	6.679	7.463	13.083	12.649	12.464	406.250
-11.842	-7.950	-8.871	-7.437	-4.382	-2.626	3.958	5.442	10.621	10.429	11.545	12.334	3.175	-0.411	-5.458	-7.631	-4.838	-1.715	-5.367	-6.195	-3.680	-3.316	-1.954	6.996	7.905	13.540	13.046	12.821	410.156
-11.950	-8.177	-8.961	-7.624	-4.606	-2.810	3.927	5.334	10.506	10.442	11.523	12.429	3.308	-0.350	-5.514	-7.843	-4.877	-1.673	-5.322	-6.403	-3.750	-3.275	-1.892	7.311	8.281	13.840	13.367	13.034	414.062
-12.028	-8.289	-8.994	-7.696	-4.739	-2.969	3.885	5.243	10.410	10.413	11.373	12.324	3.457	-0.240	-5.506	-7.928	-4.787	-1.587	-5.121	-6.493	-3.731	-3.156	-1.820	7.586	8.539	13.943	13.568	13.060	417.969
-12.065	-8.281	-8.976	-7.656	-4.767	-3.070	3.839	5.188	10.332	10.341	11.093	12.016	3.615	-0.087	-5.439	-7.888	-4.583	-1.463	-4.793	-6.465	-3.626	-2.975	-1.723	7.787	8.646	13.830	13.616	12.881	421.875
-12.046	-8.160	-8.915	-7.523	-4.696	-3.085	3.790	5.178	10.257	10.221	10.689	11.526	3.769	0.090	-5.324	-7.746	-4.305	-1.312	-4.394	-6.341	-3.454	-2.759	-1.580	7.886	8.590	13.508	13.491	12.503	425.781
-11.958	-7.949	-8.814	-7.329	-4.542	-3.000	3.736	5.208	10.166	10.046	10.179	10.891	3.903	0.270	-5.180	-7.538	-4.006	-1.155	-3.994	-6.150	-3.245	-2.544	-1.376	7.862	8.382	13.005	13.191	11.956	429.688
-11.790	-7.676	-8.673	-7.105	-4.331	-2.812	3.665	5.260	10.036	9.808	9.591	10.167	3.998	0.429	-5.028	-7.300	-3.740	-1.011	-3.661	-5.930	-3.031	-2.362	-1.107	7.706	8.053	12.368	12.731	11.288	433.594
-11.537	-7.366	-8.485	-6.874	-4.089	-2.534	3.564	5.299	9.848	9.497	8.955	9.412	4.034	0.544	-4.883	-7.060	-3.545	-0.896	-3.443	-5.706	-2.836	-2.238	-0.788	7.426	7.643	11.655	12.139	10.553	437.500
-11.189	-7.042	-8.239	-6.646	-3.838	-2.188	3.419	5.292	9.584	9.112	8.300	8.682	4.001	0.605	-4.748	-6.830	-3.435	-0.820	-3.354	-5.494	-2.676	-2.181	-0.446	7.041	7.195	10.914	11.453	9.800	441.406
-10.738	-6.720	-7.923	-6.419	-3.590	-1.800	3.221	5.210	9.234	8.655	7.652	8.015	3.893	0.609	-4.613	-6.608	-3.399	-0.781	-3.371	-5.292	-2.548	-2.184	-0.121	6.580	6.745	10.183	10.713	9.065	445.312
-10.172	-6.405	-7.529	-6.179	-3.347	-1.400	2.970	5.037	8.800	8.140	7.026	7.432	3.713	0.567	-4.459	-6.374	-3.397	-0.770	-3.437	-5.086	-2.438	-2.220	0.149	6.078	6.314	9.481	9.953	8.368	449.219
-9.490	-6.096	-7.063	-5.907	-3.106	-1.015	2.674	4.778	8.294	7.584	6.436	6.933	3.472	0.493	-4.261	-6.105	-3.378	-0.766	-3.479	-4.852	-2.324	-2.254	0.333	5.564	5.905	8.809	9.195	7.712	453.125
-8.711	-5.781	-6.549	-5.589	-2.860	-0.669	2.350	4.451	7.743	7.010	5.889	6.506	3.185	0.411	-4.000	-5.779	-3.290	-0.748	-3.422	-4.568	-2.184	-2.249	0.417	5.063	5.514	8.163	8.452	7.094	457.031
-7.873	-5.448	-6.026	-5.219	-2.605	-0.377	2.017	4.083	7.182	6.440	5.388	6.127	2.875	0.339	-3.674	-5.384	-3.096	-0.701	-3.220	-4.221	-2.000	-2.178	0.405	4.589	5.130	7.537	7.731	6.504	460.938
-7.038	-5.088	-5.534	-4.805	-2.343	-0.148	1.698	3.707	6.647	5.894	4.933	5.773	2.561	0.293	-3.297	-4.924	-2.789	-0.620	-2.863	-3.810	-1.769	-2.027	0.312	4.152	4.747	6.936	7.034	5.936	464.844
-6.274	-4.704	-5.107	-4.371	-2.083	0.018	1.411	3.349	6.170	5.385	4.523	5.419	2.263	0.281	-2.902	-4.418	-2.392	-0.511	-2.382	-3.353	-1.498	-1.804	0.164	3.752	4.369	6.371	6.365	5.386	468.750
-5.643	-4.310	-4.764	-3.952	-1.841	0.128	1.170	3.030	5.768	4.922	4.153	5.048	1.996	0.304	-2.530	-3.900	-1.952	-0.393	-1.839	-2.878	-1.204	-1.529	-0.007	3.393	4.012	5.865	5.735	4.855	472.656
-5.190	-3.931	-4.508	-3.582	-1.631	0.191	0.981	2.764	5.446	4.509	3.820	4.650	1.769	0.357	-2.221	-3.408	-1.525	-0.285	-1.312	-2.418	-0.911	-1.232	-0.172	3.078	3.696	5.440	5.159	4.349	476.562
-4.931	-3.596	-4.333	-3.285	-1.461	0.221	0.846	2.558	5.198	4.149	3.523	4.228	1.585	0.430	-2.002	-2.977	-1.163	-0.202	-0.869	-2.008	-0.641	-0.944	-0.299	2.817	3.440	5.111	4.659	3.877	480.469
-4.855	-3.332	-4.232	-3.075	-1.333	0.231	0.765	2.418	5.012	3.846	3.262	3.793	1.446	0.515	-1.886	-2.635	-0.903	-0.154	-0.559	-1.674	-0.413	-0.690	-0.366	2.619	3.258	4.883	4.255	3.454	484.375
-4.927	-3.157	-4.198	-2.949	-1.240	0.233	0.732	2.347	4.877	3.604	3.039	3.367	1.347	0.601	-1.864	-2.399	-0.759	-0.137	-0.404	-1.430	-0.235	-0.487	-0.358	2.492	3.152	4.746	3.962	3.094	488.281
-5.098	-3.075	-4.224	-2.892	-1.169	0.237	0.743	2.346	4.785	3.427	2.859	2.974	1.284	0.682	-1.917	-2.268	-0.726	-0.146	-0.398	-1.281	-0.110	-0.344	-0.277	2.441	3.111	4.678	3.785	2.813	492.188
-5.315	-3.080	-4.299	-2.883	-1.107	0.255	0.790	2.409	4.733	3.317	2.724	2.640	1.252	0.755	-2.016	-2.230	-0.783	-0.169	-0.510	-1.217	-0.031	-0.263	-0.135	2.460	3.119	4.651	3.714	2.620	496.094
-5.532	-3.151	-4.409	-2.899	-1.044	0.297	0.861	2.522	4.721	3.267	2.631	2.381	1.246	0.818	-2.132	-2.263	-0.896	-0.197	-0.697	-1.221	0.014	-0.240	0.041	2.536	3.156	4.638	3.728	2.516	500.000
-5.710	-3.264	-4.525	-2.920	-0.976	0.367	0.943	2.657	4.747	3.260	2.573	2.201	1.264	0.874	-2.239	-2.336	-1.027	-0.220	-0.905	-1.264	0.040	-0.265	0.221	2.650	3.207	4.620	3.794	2.492	503.906
-5.821	-3.388	-4.617	-2.934	-0.903	0.468	1.020	2.780	4.806	3.271	2.538	2.088	1.305	0.927	-2.314	-2.416	-1.140	-0.231	-1.079	-1.318	0.063	-0.324	0.373	2.780	3.261	4.588	3.879	2.529	507.812
-5.847	-3.499	-4.653	-2.933	-0.829	0.595	1.074	2.851	4.881	3.265	2.506	2.018	1.367	0.987	-2.341	-2.473	-1.200	-0.224	-1.168	-1.352	0.101	-0.396	0.474	2.905	3.313	4.543	3.947	2.596	511.719
-5.780	-3.569	-4.614	-2.911	-0.760	0.736	1.089	2.837	4.948	3.210	2.454	1.952	1.447	1.058	-2.312	-2.485	-1.184	-0.193	-1.141	-1.341	0.167	-0.459	0.516	3.007	3.365	4.493	3.974	2.661	515.625
-5.627	-3.579	-4.502	-2.865	-0.697	0.878	1.055	2.713	4.974	3.077	2.355	1.850	1.538	1.146	-2.225	-2.436	-1.085	-0.133	-0.988	-1.270	0.267	-0.495	0.510	3.073	3.423	4.448	3.942	2.689	519.531
-5.408	-3.512	-4.340	-2.791	-0.640	1.008	0.970	2.475	4.926	2.851	2.188	1.676	1.630	1.249	-2.090	-2.327	-0.912	-0.047	-0.731	-1.136	0.400	-0.491	0.479	3.098	3.493	4.417	3.847	2.655	523.438
-5.158	-3.358	-4.166	-2.682	-0.585	1.118	0.835	2.133	4.777	2.534	1.940	1.407	1.707	1.359	-1.926	-2.166	-0.693	0.061	-0.417	-0.951	0.556	-0.448	0.453	3.083	3.581	4.400	3.699	2.542	527.344
-4.917	-3.120	-4.021	-2.535	-0.527	1.208	0.662	1.720	4.517	2.142	1.611	1.039	1.751	1.462	-1.757	-1.971	-0.461	0.180	-0.103	-0.735	0.716	-0.373	0.459	3.035	3.690	4.394	3.518	2.348	531.250
-4.724	-2.808	-3.932	-2.351	-0.464	1.278	0.465	1.276	4.157	1.705	1.218	0.591	1.744	1.542	-1.609	-1.761	-0.251	0.296	0.162	-0.515	0.859	-0.278	0.511	2.964	3.818	4.388	3.330	2.081	535.156
-4.606	-2.444	-3.908	-2.135	-0.398	1.332	0.260	0.851	3.725	1.263	0.793	0.094	1.677	1.582	-1.498	-1.557	-0.083	0.399	0.349	-0.317	0.964	-0.179	0.608	2.881	3.951	4.369	3.158	1.763	539.062
-4.569	-2.054	-3.934	-1.897	-0.333	1.373	0.062	0.487	3.262	0.853	0.373	-0.411	1.542	1.569	-1.432	-1.371	0.035	0.479	0.453	-0.159	1.018	-0.089	0.738	2.793	4.071	4.323	3.018	1.418	542.969
-4.591	-1.667	-3.977	-1.652	-0.278	1.400	-0.119	0.212	2.813	0.507	-0.007	-0.884	1.342	1.495	-1.405	-1.207	0.108	0.534	0.492	-0.051	1.012	-0.018	0.878	2.699	4.150	4.238	2.909	1.068	546.875
-4.622	-1.311	-3.988	-1.420	-0.244	1.410	-0.280	0.034	2.415	0.240	-0.323	-1.300	1.083	1.359	-1.398	-1.063	0.146	0.564	0.490	0.005	0.949	0.021	1.008	2.592	4.163	4.106	2.816	0.733	550.781
-4.599	-1.010	-3.921	-1.223	-0.243	1.402	-0.426	-0.060	2.091	0.052	-0.562	-1.645	0.776	1.169	-1.388	-0.932	0.161	0.573	0.466	0.015	0.837	0.020	1.115	2.461	4.093	3.926	2.715	0.423	554.688
-4.459	-0.781	-3.740	-1.084	-0.285	1.374	-0.565	-0.097	1.849	-0.069	-0.726	-1.918	0.437	0.936	-1.356	-0.810	0.156	0.563	0.429	-0.012	0.689	-0.030	1.195	2.294	3.938	3.710	2.577	0.149	558.594
-4.163	-0.634	-3.432	-1.020	-0.375	1.323	-0.707	-0.109	1.679	-0.145	-0.829	-2.125	0.084	0.682	-1.286	-0.693	0.133	0.541	0.381	-0.066	0.521	-0.127	1.254	2.088	3.714	3.480	2.382	-0.076	562.500
-3.711	-0.568	-3.023	-1.037	-0.511	1.254	-0.855	-0.125	1.559	-0.198	-0.888	-2.269	-0.259	0.430	-1.177	-0.587	0.092	0.515	0.322	-0.138	0.352	-0.263	1.302	1.852	3.450	3.265	2.129	-0.239	566.406
-3.146	-0.572	-2.571	-1.128	-0.681	1.172	-1.008	-0.160	1.463	-0.243	-0.921	-2.352	-0.567	0.208	-1.036	-0.497	0.043	0.493	0.264	-0.217	0.199	-0.416	1.349	1.607	3.187	3.091	1.835	-0.323	570.312
-2.544	-0.627	-2.156	-1.271	-0.867	1.087	-1.154	-0.216	1.366	-0.282	-0.943	-2.368	-0.809	0.043	-0.877	-0.434	0.003	0.488	0.229	-0.294	0.081	-0.555	1.399	1.389	2.965	2.974	1.538	-0.319	574.219
-1.999	-0.714	-1.860	-1.438	-1.047	1.009	-1.274	-0.285	1.254	-0.308	-0.963	-2.312	-0.960	-0.043	-0.719	-0.406	-0.011	0.508	0.239	-0.362	0.010	-0.651	1.447	1.234	2.817	2.921	1.284	-0.225	578.125
-1.592	-0.817	-1.740	-1.602	-1.198	0.950	-1.349	-0.351	1.130	-0.306	-0.984	-2.174	-1.001	-0.039	-0.581	-0.422	0.012	0.553	0.306	-0.419	-0.009	-0.687	1.481	1.174	2.764	2.931	1.120	-0.051	582.031
-1.372	-0.928	-1.812	-1.745	-1.308	0.917	-1.363	-0.400	1.011	-0.259	-1.004	-1.953	-0.925	0.051	-0.482	-0.489	0.065	0.614	0.418	-0.469	0.019	-0.661	1.488	1.225	2.814	2.998	1.083	0.183	585.938
-1.352	-1.046	-2.049	-1.862	-1.371	0.911	-1.308	-0.422	0.929	-0.153	-1.017	-1.651	-0.742	0.211	-0.434	-0.610	0.126	0.676	0.543	-0.522	0.078	-0.592	1.452	1.380	2.958	3.119	1.187	0.450	589.844
-1.502	-1.175	-2.389	-1.957	-1.391	0.927	-1.188	-0.415	0.917	0.011	-1.015	-1.280	-0.473	0.413	-0.445	-0.786	0.162	0.715	0.632	-0.592	0.146	-0.509	1.363	1.614	3.173	3.288	1.424	0.724	593.750
-1.771	-1.315	-2.761	-2.037	-1.380	0.958	-1.018	-0.383	1.003	0.220	-0.988	-0.864	-0.156	0.624	-0.515	-1.006	0.145	0.715	0.644	-0.685	0.202	-0.444	1.219	1.885	3.429	3.500	1.764	0.979	597.656
-2.095	-1.463	-3.093	-2.106	-1.351	0.994	-0.820	-0.331	1.197	0.449	-0.931	-0.434	0.171	0.816	-0.631	-1.250	0.061	0.665	0.561	-0.801	0.233	-0.420	1.028	2.150	3.689	3.740	2.158	1.196	601.562
-2.414	-1.606	-3.338	-2.167	-1.316	1.030	-0.625	-0.267	1.486	0.662	-0.847	-0.031	0.465	0.967	-0.774	-1.486	-0.078	0.573	0.393	-0.927	0.237	-0.445	0.808	2.367	3.917	3.981	2.549	1.359	605.469
-2.680	-1.727	-3.470	-2.210	-1.283	1.064	-0.459	-0.194	1.831	0.822	-0.749	0.304	0.693	1.068	-0.917	-1.676	-0.239	0.457	0.186	-1.037	0.223	-0.508	0.591	2.512	4.079	4.183	2.878	1.455	609.375
-2.857	-1.806	-3.492	-2.227	-1.253	1.098	-0.349	-0.113	2.175	0.896	-0.660	0.526	0.827	1.120	-1.030	-1.780	-0.380	0.346	-0.004	-1.105	0.208	-0.587	0.415	2.571	4.149	4.299	3.091	1.476	613.281
-2.922	-1.826	-3.421	-2.202	-1.222	1.140	-0.314	-0.025	2.450	0.860	-0.613	0.602	0.851	1.129	-1.089	-1.771	-0.455	0.268	-0.120	-1.103	0.212	-0.655	0.315	2.543	4.111	4.284	3.147	1.412	617.188
-2.865	-1.776	-3.284	-2.123	-1.179	1.195	-0.364	0.069	2.595	0.701	-0.642	0.517	0.758	1.106	-1.077	-1.632	-0.438	0.243	-0.124	-1.016	0.250	-0.687	0.316	2.433	3.957	4.105	3.023	1.263	621.094
-2.684	-1.649	-3.104	-1.979	-1.115	1.273	-0.499	0.164	2.567	0.424	-0.772	0.275	0.552	1.058	-0.987	-1.367	-0.319	0.278	-0.006	-0.840	0.327	-0.668	0.424	2.252	3.694	3.754	2.714	1.032	625.000
-2.389	-1.449	-2.901	-1.767	-1.019	1.379	-0.710	0.252	2.353	0.044	-1.014	-0.095	0.245	0.990	-0.826	-0.998	-0.110	0.367	0.220	-0.588	0.442	-0.595	0.620	2.012	3.343	3.247	2.238	0.732	628.906
-2.000	-1.184	-2.682	-1.491	-0.889	1.518	-0.979	0.319	1.969	-0.408	-1.360	-0.548	-0.143	0.904	-0.611	-0.557	0.161	0.493	0.520	-0.284	0.581	-0.476	0.873	1.726	2.937	2.627	1.637	0.380	632.812
-1.548	-0.866	-2.452	-1.168	-0.729	1.690	-1.283	0.352	1.460	-0.897	-1.784	-1.032	-0.586	0.801	-0.365	-0.088	0.459	0.636	0.854	0.040	0.727	-0.323	1.144	1.411	2.516	1.953	0.967	-0.001	636.719
-1.074	-0.508	-2.210	-0.821	-0.550	1.890	-1.593	0.336	0.885	-1.386	-2.249	-1.499	-1.056	0.680	-0.113	0.367	0.751	0.776	1.185	0.351	0.860	-0.149	1.398	1.089	2.120	1.290	0.298	-0.390	640.625
-0.622	-0.122	-1.954	-0.475	-0.369	2.108	-1.886	0.263	0.304	-1.840	-2.713	-1.915	-1.523	0.544	0.121	0.775	1.015	0.901	1.488	0.622	0.961	0.035	1.612	0.786	1.784	0.701	-0.301	-0.771	644.531
-0.234	0.275	-1.687	-0.155	-0.202	2.332	-2.138	0.134	-0.236	-2.230	-3.140	-2.262	-1.956	0.399	0.321	1.111	1.239	1.004	1.755	0.836	1.020	0.221	1.775	0.527	1.531	0.233	-0.776	-1.130	648.438
0.061	0.667	-1.418	0.117	-0.066	2.551	-2.332	-0.046	-0.703	-2.540	-3.501	-2.542	-2.330	0.254	0.476	1.363	1.422	1.087	1.985	0.986	1.031	0.405	1.883	0.328	1.376	-0.078	-1.090	-1.456	652.344
0.250	1.030	-1.159	0.327	0.030	2.750	-2.460	-0.263	-1.082	-2.759	-3.777	-2.765	-2.624	0.116	0.585	1.528	1.567	1.153	2.185	1.074	0.997	0.577	1.942	0.196	1.320	-0.219	-1.241	-1.738	656.250
0.337	1.334	-0.922	0.462	0.078	2.916	-2.520	-0.501	-1.370	-2.883	-3.961	-2.944	-2.826	-0.006	0.647	1.607	1.676	1.204	2.356	1.105	0.923	0.726	1.961	0.126	1.355	-0.191	-1.248	-1.962	660.156
0.335	1.546	-0.721	0.514	0.076	3.035	-2.520	-0.740	-1.563	-2.916	-4.051	-3.084	-2.932	-0.105	0.665	1.603	1.745	1.239	2.493	1.085	0.818	0.838	1.949	0.101	1.464	-0.017	-1.153	-2.110	664.062
0.264	1.635	-0.567	0.477	0.022	3.093	-2.469	-0.962	-1.654	-2.859	-4.048	-3.181	-2.942	-0.177	0.641	1.519	1.765	1.257	2.582	1.016	0.690	0.897	1.919	0.104	1.623	0.265	-1.004	-2.167	667.969
0.147	1.576	-0.466	0.346	-0.084	3.077	-2.382	-1.145	-1.636	-2.717	-3.954	-3.220	-2.864	-0.223	0.574	1.355	1.723	1.249	2.600	0.895	0.546	0.895	1.881	0.121	1.805	0.606	-0.842	-2.116	671.875
-0.001	1.357	-0.425	0.116	-0.240	2.980	-2.269	-1.272	-1.500	-2.497	-3.773	-3.182	-2.706	-0.244	0.463	1.110	1.604	1.211	2.526	0.717	0.389	0.831	1.842	0.147	1.985	0.952	-0.691	-1.949	675.781
-0.168	0.982	-0.451	-0.206	-0.442	2.803	-2.140	-1.326	-1.246	-2.205	-3.511	-3.049	-2.479	-0.242	0.311	0.788	1.399	1.135	2.341	0.479	0.223	0.709	1.807	0.185	2.144	1.260	-0.557	-1.666	679.688
-0.353	0.474	-0.555	-0.606	-0.683	2.555	-2.001	-1.298	-0.884	-1.856	-3.174	-2.808	-2.193	-0.220	0.121	0.399	1.111	1.023	2.041	0.183	0.051	0.545	1.776	0.249	2.275	1.502	-0.425	-1.277	683.594
-0.562	-0.128	-0.746	-1.057	-0.948	2.261	-1.854	-1.185	-0.437	-1.466	-2.772	-2.459	-1.858	-0.177	-0.099	-0.038	0.756	0.878	1.640	-0.160	-0.120	0.357	1.745	0.354	2.377	1.674	-0.272	-0.804	687.500
-0.807	-0.766	-1.029	-1.519	-1.215	1.951	-1.697	-0.993	0.062	-1.058	-2.320	-2.015	-1.485	-0.112	-0.339	-0.493	0.365	0.714	1.175	-0.527	-0.281	0.171	1.706	0.513	2.460	1.789	-0.074	-0.280	691.406
-1.093	-1.380	-1.396	-1.948	-1.460	1.658	-1.530	-0.737	0.575	-0.654	-1.839	-1.502	-1.087	-0.022	-0.580	-0.934	-0.021	0.548	0.697	-0.889	-0.415	0.009	1.653	0.731	2.536	1.876	0.183	0.255	695.312
-1.414	-1.910	-1.816	-2.309	-1.664	1.414	-1.356	-0.438	1.065	-0.280	-1.356	-0.958	-0.684	0.096	-0.804	-1.326	-0.359	0.398	0.265	-1.212	-0.511	-0.111	1.582	1.000	2.613	1.966	0.496	0.758	699.219
-1.744	-2.311	-2.244	-2.578	-1.815	1.238	-1.185	-0.124	1.504	0.041	-0.904	-0.424	-0.300	0.234	-0.991	-1.641	-0.612	0.281	-0.066	-1.471	-0.560	-0.178	1.497	1.299	2.698	2.082	0.843	1.190	703.125
-2.043	-2.559	-2.627	-2.750	-1.912	1.135	-1.032	0.179	1.871	0.286	-0.522	0.055	0.032	0.384	-1.123	-1.862	-0.759	0.211	-0.259	-1.646	-0.560	-0.191	1.408	1.597	2.790	2.234	1.187	1.519	707.031
-2.268	-2.655	-2.915	-2.833	-1.965	1.097	-0.920	0.445	2.154	0.431	-0.246	0.439	0.280	0.526	-1.190	-1.982	-0.794	0.192	-0.299	-1.733	-0.517	-0.155	1.330	1.863	2.883	2.412	1.489	1.724	710.938
-2.389	-2.615	-3.080	-2.843	-1.984	1.107	-0.870	0.658	2.343	0.456	-0.107	0.697	0.413	0.642	-1.190	-2.005	-0.725	0.222	-0.188	-1.734	-0.444	-0.080	1.278	2.071	2.968	2.590	1.709	1.796	714.844
-2.393	-2.470	-3.113	-2.795	-1.984	1.149	-0.899	0.811	2.433	0.346	-0.127	0.814	0.410	0.713	-1.131	-1.938	-0.571	0.293	0.053	-1.664	-0.356	0.024	1.262	2.204	3.034	2.738	1.824	1.738	718.750
-2.281	-2.253	-3.026	-2.699	-1.971	1.211	-1.017	0.901	2.418	0.092	-0.310	0.786	0.264	0.724	-1.025	-1.797	-0.359	0.391	0.386	-1.539	-0.267	0.146	1.288	2.255	3.075	2.825	1.820	1.561	722.656
-2.064	-1.997	-2.839	-2.564	-1.952	1.289	-1.226	0.931	2.293	-0.305	-0.644	0.627	-0.016	0.670	-0.890	-1.600	-0.122	0.499	0.762	-1.382	-0.191	0.271	1.352	2.222	3.087	2.834	1.699	1.282	726.562
-1.744	-1.730	-2.568	-2.394	-1.926	1.385	-1.519	0.902	2.061	-0.832	-1.102	0.360	-0.408	0.550	-0.740	-1.366	0.102	0.598	1.123	-1.216	-0.139	0.382	1.444	2.106	3.072	2.764	1.472	0.924	730.469
-1.318	-1.472	-2.223	-2.196	-1.893	1.504	-1.877	0.814	1.731	-1.467	-1.643	0.019	-0.878	0.372	-0.583	-1.115	0.277	0.673	1.414	-1.062	-0.120	0.459	1.553	1.907	3.036	2.627	1.153	0.512	734.375
-0.777	-1.232	-1.807	-1.975	-1.846	1.650	-2.276	0.668	1.321	-2.169	-2.224	-0.361	-1.388	0.153	-0.423	-0.864	0.377	0.714	1.590	-0.933	-0.134	0.486	1.670	1.625	2.984	2.443	0.761	0.073	738.281
-0.123	-1.007	-1.323	-1.737	-1.781	1.826	-2.681	0.471	0.860	-2.887	-2.799	-0.743	-1.893	-0.085	-0.256	-0.624	0.395	0.721	1.635	-0.832	-0.177	0.456	1.786	1.267	2.918	2.229	0.317	-0.370	742.188
0.618	-0.788	-0.785	-1.486	-1.688	2.031	-3.049	0.238	0.382	-3.556	-3.327	-1.098	-2.355	-0.315	-0.080	-0.399	0.345	0.704	1.561	-0.751	-0.232	0.378	1.903	0.849	2.830	1.991	-0.155	-0.795	746.094
1.389	-0.559	-0.222	-1.226	-1.560	2.265	-3.336	-0.000	-0.081	-4.109	-3.771	-1.399	-2.738	-0.507	0.104	-0.188	0.258	0.679	1.409	-0.675	-0.278	0.271	2.020	0.400	2.705	1.723	-0.631	-1.186	750.000
2.107	-0.309	0.322	-0.959	-1.392	2.521	-3.500	-0.209	-0.495	-4.481	-4.104	-1.626	-3.018	-0.635	0.292	0.012	0.176	0.664	1.234	-0.584	-0.295	0.164	2.138	-0.044	2.526	1.408	-1.083	-1.532	753.906
2.677	-0.030	0.789	-0.690	-1.186	2.789	-3.512	-0.353	-0.835	-4.625	-4.305	-1.768	-3.177	-0.683	0.467	0.202	0.137	0.670	1.090	-0.466	-0.263	0.087	2.254	-0.443	2.280	1.036	-1.482	-1.822	757.812
3.015	0.268	1.121	-0.429	-0.954	3.053	-3.364	-0.407	-1.077	-4.523	-4.366	-1.821	-3.211	-0.644	0.614	0.381	0.166	0.703	1.018	-0.316	-0.176	0.058	2.356	-0.764	1.969	0.604	-1.805	-2.049	761.719
3.076	0.565	1.275	-0.190	-0.719	3.290	-3.073	-0.371	-1.205	-4.189	-4.288	-1.786	-3.126	-0.523	0.718	0.541	0.272	0.760	1.038	-0.139	-0.038	0.084	2.425	-0.984	1.610	0.134	-2.032	-2.204	765.625
2.870	0.825	1.233	0.006	-0.515	3.468	-2.682	-0.273	-1.211	-3.674	-4.085	-1.673	-2.933	-0.332	0.775	0.676	0.449	0.833	1.154	0.049	0.136	0.162	2.440	-1.098	1.240	-0.330	-2.147	-2.276	769.531
2.462	1.004	1.012	0.130	-0.381	3.554	-2.252	-0.166	-1.095	-3.054	-3.781	-1.495	-2.646	-0.089	0.794	0.777	0.678	0.914	1.353	0.228	0.326	0.277	2.378	-1.111	0.906	-0.730	-2.140	-2.257	773.438
1.963	1.053	0.660	0.146	-0.354	3.519	-1.851	-0.115	-0.869	-2.416	-3.404	-1.265	-2.279	0.187	0.797	0.841	0.939	0.994	1.620	0.380	0.509	0.410	2.223	-1.035	0.654	-1.007	-2.008	-2.140	777.344
1.498	0.938	0.244	0.025	-0.466	3.343	-1.537	-0.180	-0.552	-1.841	-2.984	-0.996	-1.845	0.484	0.813	0.868	1.212	1.068	1.937	0.488	0.668	0.546	1.964	-0.889	0.522	-1.115	-1.753	-1.922	781.250
1.173	0.641	-0.170	-0.252	-0.727	3.024	-1.348	-0.400	-0.167	-1.381	-2.545	-0.697	-1.356	0.791	0.867	0.863	1.482	1.134	2.291	0.548	0.793	0.671	1.600	-0.690	0.529	-1.033	-1.384	-1.610	785.156
1.047	0.174	-0.533	-0.680	-1.128	2.575	-1.293	-0.782	0.262	-1.058	-2.103	-0.377	-0.822	1.103	0.975	0.834	1.743	1.193	2.670	0.562	0.882	0.779	1.143	-0.456	0.671	-0.770	-0.919	-1.218	789.062
1.120	-0.425	-0.829	-1.226	-1.638	2.030	-1.349	-1.297	0.714	-0.855	-1.667	-0.042	-0.259	1.416	1.137	0.791	1.993	1.247	3.064	0.541	0.943	0.870	0.616	-0.204	0.917	-0.369	-0.389	-0.770	792.969
1.330	-1.094	-1.068	-1.835	-2.203	1.438	-1.471	-1.895	1.170	-0.728	-1.241	0.297	0.316	1.728	1.336	0.743	2.232	1.298	3.457	0.501	0.986	0.947	0.053	0.047	1.220	0.107	0.169	-0.296	796.875
