FP1	F3	F7	FC3	C3	C5	P3	P7	PO7	PO3	O1	Oz	Pz	CPz	FP2	Fz	F4	F8	FC4	FCz	Cz	C4	C6	P4	P8	PO8	PO4	O2	time
-0.121	-0.452	0.889	-0.032	-0.249	0.201	-0.480	1.101	1.451	1.508	1.134	0.684	-0.169	-0.572	0.128	-1.025	-0.868	0.028	-1.552	-0.736	-0.541	-1.908	-0.767	-0.859	-0.822	0.465	-0.146	0.847	-199.219
-0.117	-0.631	0.671	-0.274	-0.374	0.067	-0.622	0.895	1.208	1.236	1.003	0.637	-0.273	-0.639	0.107	-1.051	-0.649	0.224	-1.108	-0.703	-0.622	-1.264	-0.252	-0.570	-0.719	0.229	-0.141	0.672	-195.312
-0.105	-0.775	0.496	-0.477	-0.479	-0.027	-0.763	0.672	0.951	0.945	0.844	0.563	-0.397	-0.708	0.100	-1.056	-0.426	0.417	-0.671	-0.664	-0.693	-0.642	0.239	-0.309	-0.616	0.008	-0.150	0.491	-191.406
-0.075	-0.855	0.397	-0.609	-0.546	-0.055	-0.894	0.423	0.676	0.627	0.642	0.450	-0.550	-0.777	0.114	-1.026	-0.203	0.595	-0.256	-0.613	-0.745	-0.069	0.676	-0.098	-0.515	-0.184	-0.180	0.304	-187.500
-0.022	-0.851	0.391	-0.646	-0.561	-0.006	-1.010	0.150	0.383	0.280	0.392	0.292	-0.734	-0.843	0.152	-0.945	0.014	0.745	0.124	-0.541	-0.764	0.429	1.029	0.046	-0.420	-0.333	-0.233	0.114	-183.594
0.057	-0.756	0.471	-0.578	-0.516	0.110	-1.104	-0.134	0.081	-0.089	0.099	0.092	-0.943	-0.894	0.212	-0.807	0.218	0.852	0.456	-0.433	-0.734	0.827	1.274	0.112	-0.339	-0.433	-0.312	-0.072	-179.688
0.158	-0.577	0.615	-0.412	-0.411	0.264	-1.170	-0.408	-0.216	-0.467	-0.221	-0.131	-1.160	-0.921	0.286	-0.608	0.400	0.904	0.726	-0.278	-0.642	1.105	1.395	0.101	-0.277	-0.478	-0.411	-0.244	-175.781
0.274	-0.336	0.787	-0.173	-0.258	0.417	-1.203	-0.645	-0.488	-0.827	-0.540	-0.353	-1.362	-0.915	0.365	-0.360	0.549	0.892	0.923	-0.074	-0.484	1.251	1.382	0.025	-0.239	-0.468	-0.516	-0.387	-171.875
0.393	-0.064	0.944	0.102	-0.083	0.526	-1.197	-0.817	-0.710	-1.139	-0.825	-0.540	-1.521	-0.875	0.436	-0.083	0.654	0.816	1.040	0.170	-0.273	1.260	1.244	-0.097	-0.222	-0.405	-0.610	-0.482	-167.969
0.498	0.199	1.053	0.368	0.083	0.552	-1.149	-0.901	-0.857	-1.366	-1.039	-0.658	-1.612	-0.806	0.487	0.193	0.706	0.683	1.069	0.430	-0.037	1.138	0.998	-0.236	-0.219	-0.291	-0.670	-0.510	-164.062
0.574	0.414	1.089	0.576	0.201	0.476	-1.058	-0.883	-0.907	-1.473	-1.151	-0.677	-1.615	-0.721	0.508	0.430	0.700	0.506	1.009	0.669	0.184	0.902	0.675	-0.364	-0.215	-0.131	-0.670	-0.455	-160.156
0.605	0.545	1.042	0.687	0.239	0.293	-0.926	-0.761	-0.849	-1.435	-1.141	-0.580	-1.521	-0.641	0.492	0.595	0.636	0.306	0.866	0.845	0.343	0.576	0.310	-0.455	-0.193	0.070	-0.592	-0.309	-156.250
0.584	0.569	0.920	0.675	0.173	0.018	-0.757	-0.546	-0.681	-1.245	-1.003	-0.369	-1.336	-0.585	0.440	0.663	0.520	0.108	0.655	0.926	0.404	0.195	-0.056	-0.492	-0.140	0.301	-0.427	-0.079	-152.344
0.507	0.480	0.740	0.536	-0.002	-0.315	-0.561	-0.263	-0.420	-0.917	-0.751	-0.065	-1.080	-0.569	0.357	0.627	0.368	-0.066	0.398	0.892	0.344	-0.204	-0.387	-0.470	-0.048	0.547	-0.181	0.217	-148.438
0.384	0.293	0.531	0.288	-0.272	-0.664	-0.350	0.057	-0.095	-0.487	-0.418	0.293	-0.786	-0.602	0.258	0.500	0.202	-0.193	0.125	0.749	0.166	-0.582	-0.655	-0.398	0.077	0.788	0.124	0.545	-144.531
0.232	0.042	0.326	-0.030	-0.602	-0.982	-0.140	0.378	0.253	-0.010	-0.048	0.656	-0.493	-0.680	0.160	0.311	0.045	-0.261	-0.134	0.520	-0.101	-0.909	-0.843	-0.298	0.220	1.000	0.450	0.860	-140.625
0.074	-0.228	0.155	-0.364	-0.943	-1.222	0.054	0.663	0.579	0.452	0.308	0.972	-0.238	-0.792	0.078	0.099	-0.082	-0.266	-0.351	0.244	-0.413	-1.158	-0.946	-0.195	0.358	1.159	0.755	1.118	-136.719
-0.063	-0.464	0.047	-0.656	-1.239	-1.349	0.217	0.885	0.840	0.838	0.606	1.198	-0.051	-0.916	0.025	-0.095	-0.167	-0.218	-0.508	-0.033	-0.716	-1.318	-0.975	-0.118	0.461	1.244	0.996	1.281	-132.812
-0.159	-0.623	0.015	-0.853	-1.438	-1.339	0.337	1.021	1.007	1.104	0.812	1.307	0.053	-1.026	0.005	-0.236	-0.205	-0.137	-0.598	-0.268	-0.959	-1.385	-0.947	-0.084	0.507	1.245	1.143	1.325	-128.906
-0.200	-0.673	0.061	-0.920	-1.502	-1.189	0.409	1.062	1.061	1.227	0.906	1.292	0.078	-1.092	0.015	-0.302	-0.202	-0.047	-0.622	-0.431	-1.101	-1.365	-0.884	-0.101	0.482	1.160	1.181	1.248	-125.000
-0.184	-0.607	0.172	-0.842	-1.413	-0.912	0.431	1.006	1.003	1.204	0.888	1.163	0.040	-1.089	0.043	-0.287	-0.166	0.027	-0.589	-0.504	-1.119	-1.269	-0.806	-0.160	0.385	1.002	1.117	1.063	-121.094
-0.121	-0.437	0.322	-0.629	-1.180	-0.542	0.412	0.860	0.844	1.056	0.767	0.944	-0.030	-1.002	0.075	-0.196	-0.112	0.066	-0.513	-0.485	-1.011	-1.109	-0.729	-0.241	0.233	0.791	0.971	0.802	-117.188
-0.027	-0.192	0.477	-0.314	-0.834	-0.124	0.360	0.640	0.606	0.815	0.564	0.664	-0.101	-0.824	0.095	-0.047	-0.048	0.064	-0.405	-0.382	-0.792	-0.899	-0.657	-0.319	0.049	0.554	0.772	0.500	-113.281
0.074	0.086	0.606	0.056	-0.422	0.290	0.287	0.367	0.321	0.524	0.305	0.354	-0.144	-0.566	0.095	0.137	0.015	0.022	-0.276	-0.214	-0.490	-0.650	-0.585	-0.367	-0.135	0.315	0.553	0.194	-109.375
0.164	0.356	0.685	0.428	-0.002	0.652	0.205	0.074	0.023	0.223	0.019	0.042	-0.142	-0.253	0.068	0.331	0.074	-0.044	-0.136	-0.006	-0.144	-0.377	-0.506	-0.369	-0.292	0.092	0.337	-0.088	-105.469
0.230	0.582	0.703	0.752	0.373	0.924	0.122	-0.203	-0.252	-0.048	-0.269	-0.252	-0.094	0.079	0.020	0.513	0.128	-0.116	0.007	0.217	0.203	-0.096	-0.412	-0.324	-0.406	-0.104	0.136	-0.331	-101.562
0.268	0.742	0.665	0.990	0.663	1.088	0.046	-0.423	-0.471	-0.256	-0.532	-0.515	-0.015	0.385	-0.040	0.663	0.176	-0.173	0.145	0.428	0.507	0.171	-0.300	-0.248	-0.472	-0.276	-0.052	-0.530	-97.656
0.282	0.827	0.590	1.123	0.846	1.144	-0.017	-0.548	-0.604	-0.381	-0.749	-0.738	0.072	0.621	-0.098	0.770	0.222	-0.201	0.268	0.603	0.735	0.399	-0.176	-0.169	-0.501	-0.435	-0.239	-0.693	-93.750
0.283	0.844	0.503	1.152	0.924	1.114	-0.057	-0.548	-0.634	-0.408	-0.902	-0.919	0.137	0.755	-0.139	0.831	0.266	-0.192	0.369	0.726	0.863	0.564	-0.055	-0.121	-0.516	-0.598	-0.443	-0.837	-89.844
0.284	0.812	0.427	1.096	0.920	1.034	-0.063	-0.411	-0.554	-0.334	-0.981	-1.059	0.161	0.773	-0.151	0.849	0.311	-0.147	0.440	0.791	0.884	0.645	0.043	-0.134	-0.543	-0.779	-0.678	-0.975	-85.938
0.293	0.751	0.377	0.985	0.872	0.946	-0.017	-0.142	-0.369	-0.169	-0.979	-1.161	0.132	0.682	-0.131	0.835	0.355	-0.077	0.478	0.800	0.809	0.629	0.095	-0.225	-0.603	-0.990	-0.951	-1.120	-82.031
0.308	0.680	0.351	0.852	0.822	0.885	0.094	0.229	-0.101	0.071	-0.898	-1.226	0.057	0.510	-0.082	0.799	0.394	-0.000	0.478	0.760	0.661	0.518	0.087	-0.390	-0.705	-1.225	-1.251	-1.271	-78.125
0.322	0.610	0.333	0.722	0.804	0.872	0.280	0.659	0.223	0.363	-0.745	-1.252	-0.041	0.301	-0.019	0.747	0.420	0.063	0.440	0.683	0.474	0.326	0.013	-0.604	-0.842	-1.466	-1.551	-1.417	-74.219
0.316	0.539	0.290	0.609	0.833	0.907	0.540	1.089	0.565	0.679	-0.529	-1.231	-0.133	0.104	0.041	0.682	0.423	0.095	0.364	0.582	0.285	0.082	-0.117	-0.821	-0.988	-1.680	-1.808	-1.533	-70.312
0.271	0.457	0.190	0.506	0.907	0.971	0.862	1.462	0.887	0.991	-0.266	-1.154	-0.183	-0.039	0.076	0.599	0.389	0.081	0.252	0.461	0.122	-0.180	-0.282	-0.988	-1.104	-1.824	-1.973	-1.588	-66.406
0.171	0.347	0.006	0.400	1.000	1.028	1.216	1.728	1.155	1.273	0.029	-1.010	-0.163	-0.099	0.070	0.487	0.307	0.015	0.109	0.322	0.004	-0.422	-0.450	-1.056	-1.149	-1.858	-2.000	-1.553	-62.500
0.010	0.197	-0.272	0.268	1.077	1.040	1.563	1.853	1.338	1.502	0.335	-0.793	-0.056	-0.064	0.012	0.338	0.171	-0.099	-0.061	0.164	-0.065	-0.611	-0.590	-0.988	-1.089	-1.751	-1.857	-1.407	-58.594
-0.202	0.002	-0.629	0.097	1.101	0.977	1.857	1.819	1.414	1.658	0.632	-0.508	0.137	0.059	-0.098	0.147	-0.015	-0.250	-0.245	-0.015	-0.091	-0.722	-0.673	-0.775	-0.905	-1.494	-1.537	-1.146	-54.688
-0.442	-0.226	-1.028	-0.116	1.046	0.824	2.050	1.628	1.373	1.721	0.893	-0.174	0.402	0.247	-0.246	-0.079	-0.237	-0.418	-0.428	-0.214	-0.086	-0.741	-0.683	-0.432	-0.603	-1.104	-1.062	-0.790	-50.781
-0.675	-0.458	-1.418	-0.355	0.905	0.585	2.103	1.298	1.211	1.675	1.093	0.176	0.709	0.473	-0.409	-0.321	-0.469	-0.580	-0.590	-0.422	-0.065	-0.667	-0.614	-0.002	-0.210	-0.623	-0.479	-0.375	-46.875
-0.865	-0.658	-1.740	-0.591	0.689	0.283	1.992	0.853	0.935	1.507	1.208	0.501	1.020	0.707	-0.560	-0.549	-0.679	-0.709	-0.709	-0.620	-0.034	-0.508	-0.473	0.461	0.231	-0.109	0.142	0.048	-42.969
-0.979	-0.786	-1.949	-0.787	0.429	-0.050	1.714	0.327	0.562	1.207	1.217	0.757	1.298	0.925	-0.670	-0.729	-0.834	-0.784	-0.762	-0.783	0.006	-0.277	-0.274	0.897	0.667	0.372	0.726	0.427	-39.062
-0.997	-0.810	-2.014	-0.908	0.163	-0.377	1.291	-0.246	0.115	0.776	1.111	0.907	1.510	1.111	-0.717	-0.832	-0.908	-0.791	-0.736	-0.888	0.064	0.005	-0.039	1.255	1.051	0.765	1.207	0.719	-35.156
-0.919	-0.718	-1.934	-0.934	-0.074	-0.670	0.767	-0.825	-0.376	0.226	0.894	0.932	1.635	1.259	-0.691	-0.837	-0.888	-0.727	-0.627	-0.915	0.148	0.316	0.214	1.505	1.347	1.031	1.537	0.897	-31.250
-0.762	-0.519	-1.733	-0.860	-0.254	-0.910	0.202	-1.370	-0.871	-0.411	0.586	0.832	1.665	1.366	-0.596	-0.745	-0.777	-0.598	-0.446	-0.859	0.261	0.631	0.462	1.638	1.539	1.157	1.697	0.958	-27.344
-0.557	-0.245	-1.457	-0.705	-0.367	-1.091	-0.336	-1.837	-1.329	-1.090	0.220	0.628	1.609	1.435	-0.448	-0.571	-0.597	-0.421	-0.218	-0.733	0.400	0.927	0.690	1.666	1.627	1.157	1.700	0.920	-23.438
-0.345	0.055	-1.162	-0.503	-0.417	-1.214	-0.782	-2.191	-1.708	-1.748	-0.159	0.359	1.491	1.469	-0.275	-0.348	-0.382	-0.220	0.022	-0.561	0.549	1.175	0.880	1.616	1.630	1.064	1.583	0.819	-19.531
-0.166	0.329	-0.904	-0.295	-0.421	-1.290	-1.085	-2.401	-1.972	-2.322	-0.502	0.072	1.345	1.473	-0.107	-0.117	-0.171	-0.025	0.238	-0.378	0.687	1.353	1.018	1.524	1.574	0.921	1.399	0.697	-15.625
-0.049	0.529	-0.729	-0.121	-0.400	-1.327	-1.211	-2.454	-2.099	-2.749	-0.765	-0.187	1.211	1.454	0.027	0.083	-0.000	0.139	0.394	-0.220	0.790	1.440	1.089	1.419	1.486	0.771	1.205	0.592	-11.719
-0.011	0.624	-0.662	-0.008	-0.375	-1.333	-1.157	-2.352	-2.081	-2.988	-0.919	-0.381	1.123	1.419	0.109	0.225	0.105	0.250	0.467	-0.110	0.839	1.424	1.083	1.323	1.389	0.647	1.045	0.530	-7.812
-0.046	0.608	-0.706	0.033	-0.359	-1.310	-0.940	-2.116	-1.928	-3.022	-0.951	-0.494	1.106	1.374	0.133	0.298	0.136	0.297	0.449	-0.061	0.825	1.300	0.991	1.241	1.293	0.562	0.944	0.522	-3.906
-0.136	0.497	-0.841	0.011	-0.355	-1.257	-0.601	-1.779	-1.666	-2.864	-0.867	-0.525	1.165	1.325	0.108	0.307	0.101	0.283	0.351	-0.064	0.753	1.076	0.812	1.164	1.200	0.513	0.901	0.554	0.000
-0.247	0.328	-1.030	-0.052	-0.357	-1.170	-0.193	-1.380	-1.328	-2.556	-0.692	-0.491	1.287	1.272	0.053	0.277	0.024	0.221	0.196	-0.100	0.638	0.771	0.553	1.070	1.098	0.479	0.892	0.602	3.906
-0.342	0.148	-1.227	-0.124	-0.353	-1.048	0.226	-0.961	-0.955	-2.160	-0.462	-0.423	1.439	1.213	-0.003	0.238	-0.064	0.135	0.017	-0.143	0.501	0.413	0.234	0.936	0.973	0.432	0.875	0.632	7.812
-0.386	0.004	-1.385	-0.170	-0.329	-0.890	0.604	-0.557	-0.582	-1.745	-0.219	-0.353	1.580	1.139	-0.033	0.222	-0.131	0.051	-0.152	-0.168	0.361	0.034	-0.116	0.741	0.812	0.343	0.808	0.613	11.719
-0.359	-0.064	-1.466	-0.166	-0.277	-0.703	0.899	-0.194	-0.238	-1.374	-0.001	-0.309	1.665	1.042	-0.019	0.249	-0.156	-0.004	-0.285	-0.161	0.232	-0.330	-0.464	0.479	0.607	0.190	0.658	0.521	15.625
-0.250	-0.035	-1.445	-0.096	-0.194	-0.493	1.086	0.117	0.059	-1.090	0.164	-0.309	1.666	0.915	0.047	0.324	-0.130	-0.015	-0.371	-0.123	0.116	-0.649	-0.773	0.158	0.359	-0.035	0.411	0.353	19.531
-0.070	0.089	-1.317	0.041	-0.085	-0.271	1.161	0.375	0.301	-0.911	0.264	-0.355	1.567	0.757	0.157	0.437	-0.060	0.024	-0.410	-0.068	0.008	-0.899	-1.012	-0.198	0.081	-0.324	0.074	0.118	23.438
0.159	0.293	-1.094	0.232	0.038	-0.048	1.134	0.586	0.493	-0.823	0.304	-0.437	1.380	0.574	0.294	0.564	0.033	0.106	-0.415	-0.019	-0.103	-1.069	-1.163	-0.556	-0.213	-0.659	-0.321	-0.160	27.344
0.406	0.542	-0.806	0.455	0.161	0.162	1.029	0.764	0.643	-0.797	0.303	-0.537	1.133	0.383	0.436	0.678	0.128	0.217	-0.403	0.001	-0.223	-1.157	-1.220	-0.878	-0.505	-1.017	-0.734	-0.452	31.250
0.637	0.798	-0.496	0.682	0.270	0.349	0.876	0.915	0.761	-0.789	0.287	-0.633	0.871	0.205	0.561	0.756	0.205	0.340	-0.390	-0.020	-0.351	-1.172	-1.190	-1.135	-0.781	-1.378	-1.117	-0.728	35.156
0.821	1.023	-0.210	0.884	0.351	0.499	0.705	1.045	0.854	-0.762	0.283	-0.706	0.642	0.066	0.654	0.785	0.255	0.460	-0.383	-0.082	-0.475	-1.123	-1.092	-1.304	-1.031	-1.722	-1.433	-0.962	39.062
0.934	1.184	0.007	1.035	0.396	0.599	0.540	1.148	0.919	-0.691	0.309	-0.748	0.489	-0.011	0.710	0.767	0.280	0.569	-0.375	-0.169	-0.574	-1.022	-0.946	-1.377	-1.248	-2.036	-1.654	-1.141	42.969
0.963	1.259	0.123	1.114	0.398	0.637	0.400	1.214	0.950	-0.570	0.372	-0.758	0.438	-0.009	0.731	0.711	0.295	0.665	-0.355	-0.258	-0.620	-0.876	-0.776	-1.357	-1.426	-2.311	-1.769	-1.258	46.875
0.905	1.238	0.121	1.111	0.356	0.601	0.295	1.230	0.941	-0.411	0.463	-0.745	0.498	0.079	0.725	0.635	0.314	0.752	-0.306	-0.324	-0.595	-0.692	-0.598	-1.255	-1.557	-2.533	-1.780	-1.315	50.781
0.768	1.123	0.003	1.022	0.270	0.487	0.225	1.188	0.886	-0.242	0.566	-0.724	0.654	0.249	0.698	0.553	0.351	0.832	-0.216	-0.351	-0.489	-0.470	-0.422	-1.088	-1.628	-2.684	-1.697	-1.315	54.688
0.570	0.926	-0.211	0.855	0.141	0.295	0.182	1.083	0.786	-0.096	0.657	-0.708	0.873	0.480	0.654	0.473	0.408	0.907	-0.082	-0.336	-0.309	-0.216	-0.248	-0.870	-1.621	-2.737	-1.532	-1.258	58.594
0.333	0.665	-0.492	0.624	-0.027	0.032	0.150	0.921	0.655	-0.008	0.716	-0.704	1.113	0.741	0.593	0.395	0.472	0.970	0.083	-0.290	-0.082	0.064	-0.075	-0.614	-1.516	-2.658	-1.294	-1.138	62.500
0.083	0.366	-0.803	0.349	-0.231	-0.288	0.111	0.716	0.511	-0.001	0.729	-0.709	1.328	0.995	0.505	0.309	0.518	1.006	0.253	-0.238	0.155	0.352	0.099	-0.330	-1.294	-2.408	-0.983	-0.940	66.406
-0.156	0.053	-1.113	0.053	-0.466	-0.646	0.045	0.493	0.381	-0.079	0.697	-0.709	1.478	1.200	0.382	0.199	0.516	0.998	0.391	-0.208	0.356	0.623	0.271	-0.025	-0.942	-1.953	-0.594	-0.639	70.312
-0.367	-0.254	-1.396	-0.243	-0.723	-1.021	-0.059	0.277	0.292	-0.227	0.633	-0.679	1.534	1.319	0.213	0.047	0.431	0.924	0.456	-0.229	0.476	0.844	0.429	0.293	-0.461	-1.272	-0.116	-0.208	74.219
-0.537	-0.538	-1.641	-0.522	-0.995	-1.390	-0.206	0.102	0.270	-0.411	0.569	-0.584	1.483	1.323	-0.005	-0.162	0.240	0.768	0.413	-0.329	0.478	0.976	0.553	0.614	0.135	-0.363	0.454	0.376	78.125
-0.661	-0.792	-1.847	-0.775	-1.273	-1.733	-0.383	-0.001	0.335	-0.578	0.541	-0.389	1.328	1.192	-0.266	-0.440	-0.069	0.519	0.236	-0.524	0.337	0.982	0.613	0.923	0.815	0.751	1.115	1.123	82.031
-0.743	-1.016	-2.022	-1.000	-1.548	-2.032	-0.568	-0.005	0.503	-0.669	0.596	-0.064	1.086	0.920	-0.558	-0.791	-0.490	0.180	-0.086	-0.825	0.038	0.832	0.578	1.200	1.538	2.024	1.852	2.029	85.938
-0.793	-1.220	-2.177	-1.204	-1.812	-2.272	-0.726	0.113	0.783	-0.629	0.774	0.414	0.784	0.512	-0.858	-1.213	-1.003	-0.237	-0.548	-1.239	-0.419	0.506	0.422	1.426	2.252	3.386	2.634	3.066	89.844
-0.824	-1.418	-2.325	-1.400	-2.061	-2.443	-0.819	0.368	1.176	-0.416	1.104	1.048	0.456	-0.014	-1.144	-1.698	-1.576	-0.709	-1.130	-1.761	-1.022	0.007	0.130	1.583	2.907	4.753	3.424	4.184	93.750
-0.846	-1.623	-2.470	-1.601	-2.290	-2.542	-0.815	0.762	1.676	-0.013	1.600	1.821	0.134	-0.627	-1.396	-2.233	-2.172	-1.210	-1.801	-2.381	-1.749	-0.648	-0.291	1.656	3.459	6.033	4.173	5.315	97.656
-0.867	-1.843	-2.611	-1.814	-2.495	-2.566	-0.694	1.281	2.267	0.568	2.248	2.692	-0.150	-1.289	-1.597	-2.794	-2.752	-1.706	-2.518	-3.073	-2.561	-1.418	-0.819	1.640	3.871	7.133	4.832	6.377	101.562
-0.887	-2.072	-2.736	-2.037	-2.665	-2.518	-0.451	1.890	2.918	1.291	3.010	3.594	-0.371	-1.953	-1.738	-3.348	-3.279	-2.167	-3.233	-3.794	-3.404	-2.246	-1.408	1.534	4.116	7.964	5.350	7.281	105.469
-0.900	-2.292	-2.831	-2.250	-2.787	-2.398	-0.105	2.537	3.583	2.093	3.820	4.445	-0.511	-2.563	-1.817	-3.849	-3.715	-2.560	-3.890	-4.480	-4.207	-3.061	-2.004	1.344	4.172	8.445	5.680	7.937	109.375
-0.893	-2.471	-2.877	-2.424	-2.841	-2.210	0.314	3.153	4.206	2.898	4.597	5.157	-0.557	-3.060	-1.832	-4.244	-4.027	-2.856	-4.431	-5.053	-4.888	-3.786	-2.545	1.084	4.028	8.508	5.786	8.270	113.281
-0.853	-2.571	-2.861	-2.520	-2.803	-1.957	0.765	3.660	4.721	3.628	5.255	5.646	-0.502	-3.388	-1.789	-4.476	-4.188	-3.030	-4.800	-5.431	-5.365	-4.349	-2.974	0.774	3.674	8.108	5.646	8.228	117.188
-0.768	-2.554	-2.774	-2.500	-2.651	-1.646	1.209	3.984	5.066	4.211	5.719	5.854	-0.345	-3.500	-1.690	-4.497	-4.175	-3.068	-4.952	-5.542	-5.566	-4.690	-3.249	0.442	3.112	7.228	5.260	7.794	121.094
-0.634	-2.390	-2.613	-2.336	-2.373	-1.290	1.613	4.064	5.192	4.597	5.935	5.753	-0.090	-3.368	-1.542	-4.273	-3.979	-2.962	-4.855	-5.334	-5.441	-4.767	-3.345	0.117	2.351	5.885	4.652	6.987	125.000
-0.452	-2.067	-2.388	-2.015	-1.972	-0.911	1.952	3.861	5.066	4.756	5.883	5.353	0.254	-2.986	-1.350	-3.798	-3.600	-2.717	-4.500	-4.795	-4.976	-4.565	-3.256	-0.164	1.414	4.138	3.870	5.866	128.906
-0.234	-1.596	-2.113	-1.548	-1.466	-0.536	2.211	3.367	4.681	4.685	5.574	4.698	0.675	-2.375	-1.122	-3.091	-3.056	-2.347	-3.896	-3.947	-4.195	-4.093	-2.995	-0.369	0.339	2.082	2.985	4.524	132.812
0.001	-1.007	-1.813	-0.966	-0.894	-0.197	2.376	2.603	4.055	4.404	5.049	3.861	1.156	-1.580	-0.866	-2.198	-2.373	-1.876	-3.077	-2.852	-3.155	-3.382	-2.590	-0.469	-0.821	-0.156	2.081	3.070	136.719
0.231	-0.347	-1.517	-0.317	-0.304	0.075	2.436	1.620	3.230	3.953	4.370	2.929	1.673	-0.666	-0.592	-1.185	-1.593	-1.333	-2.094	-1.596	-1.941	-2.484	-2.079	-0.448	-2.000	-2.432	1.241	1.621	140.625
0.434	0.326	-1.254	0.343	0.250	0.253	2.376	0.494	2.267	3.383	3.613	1.992	2.199	0.290	-0.312	-0.131	-0.762	-0.752	-1.013	-0.280	-0.650	-1.468	-1.504	-0.304	-3.130	-4.600	0.536	0.285	144.531
0.595	0.955	-1.052	0.956	0.720	0.320	2.187	-0.683	1.242	2.751	2.852	1.132	2.702	1.211	-0.036	0.888	0.068	-0.169	0.093	0.997	0.620	-0.407	-0.910	-0.054	-4.145	-6.528	0.015	-0.854	148.438
0.703	1.494	-0.931	1.476	1.070	0.269	1.863	-1.815	0.238	2.115	2.160	0.414	3.148	2.029	0.226	1.806	0.846	0.380	1.149	2.154	1.781	0.618	-0.343	0.269	-4.992	-8.113	-0.303	-1.736	152.344
0.761	1.910	-0.903	1.871	1.280	0.107	1.412	-2.810	-0.663	1.523	1.593	-0.121	3.505	2.692	0.465	2.575	1.531	0.861	2.087	3.130	2.766	1.535	0.156	0.618	-5.637	-9.289	-0.424	-2.335	156.250
0.776	2.189	-0.969	2.125	1.351	-0.149	0.857	-3.596	-1.390	1.018	1.194	-0.452	3.749	3.168	0.674	3.169	2.085	1.243	2.850	3.891	3.528	2.280	0.550	0.946	-6.065	-10.026	-0.378	-2.645	160.156
0.759	2.333	-1.119	2.239	1.295	-0.473	0.238	-4.121	-1.889	0.629	0.985	-0.579	3.867	3.446	0.846	3.579	2.486	1.501	3.397	4.427	4.046	2.804	0.811	1.208	-6.283	-10.333	-0.201	-2.684	164.062
0.724	2.357	-1.334	2.226	1.135	-0.836	-0.391	-4.366	-2.128	0.375	0.973	-0.518	3.861	3.534	0.972	3.809	2.718	1.620	3.704	4.742	4.316	3.083	0.921	1.375	-6.308	-10.240	0.072	-2.478	167.969
0.677	2.279	-1.590	2.106	0.898	-1.209	-0.970	-4.336	-2.102	0.266	1.144	-0.295	3.746	3.454	1.044	3.870	2.778	1.593	3.767	4.852	4.350	3.111	0.874	1.438	-6.166	-9.796	0.415	-2.060	171.875
0.619	2.119	-1.861	1.900	0.610	-1.565	-1.439	-4.059	-1.826	0.303	1.473	0.055	3.550	3.238	1.051	3.777	2.669	1.422	3.600	4.773	4.172	2.908	0.680	1.407	-5.884	-9.054	0.818	-1.463	175.781
0.542	1.891	-2.125	1.625	0.294	-1.883	-1.748	-3.576	-1.335	0.481	1.925	0.498	3.307	2.922	0.982	3.540	2.401	1.122	3.232	4.521	3.811	2.512	0.363	1.311	-5.484	-8.065	1.286	-0.719	179.688
0.432	1.603	-2.371	1.294	-0.029	-2.147	-1.864	-2.937	-0.675	0.794	2.462	0.998	3.050	2.540	0.828	3.168	1.988	0.711	2.701	4.110	3.303	1.973	-0.044	1.193	-4.979	-6.874	1.831	0.142	183.594
0.268	1.258	-2.595	0.913	-0.346	-2.349	-1.773	-2.185	0.109	1.231	3.048	1.527	2.809	2.121	0.583	2.665	1.447	0.212	2.049	3.551	2.678	1.350	-0.499	1.097	-4.378	-5.519	2.467	1.091	187.500
0.034	0.854	-2.803	0.486	-0.646	-2.486	-1.484	-1.359	0.974	1.784	3.653	2.064	2.604	1.684	0.244	2.038	0.795	-0.353	1.317	2.854	1.969	0.697	-0.958	1.066	-3.683	-4.035	3.204	2.101	191.406
-0.284	0.391	-3.007	0.013	-0.924	-2.558	-1.023	-0.484	1.886	2.441	4.256	2.593	2.445	1.243	-0.187	1.293	0.051	-0.965	0.539	2.033	1.199	0.065	-1.381	1.131	-2.895	-2.451	4.037	3.144	195.312
-0.687	-0.127	-3.219	-0.503	-1.178	-2.572	-0.433	0.423	2.822	3.187	4.848	3.108	2.329	0.801	-0.700	0.447	-0.765	-1.611	-0.258	1.106	0.390	-0.512	-1.737	1.304	-2.020	-0.804	4.947	4.193	199.219
-1.164	-0.688	-3.448	-1.055	-1.408	-2.539	0.238	1.352	3.763	4.003	5.423	3.608	2.243	0.357	-1.276	-0.479	-1.633	-2.279	-1.052	0.095	-0.444	-1.010	-2.005	1.581	-1.070	0.868	5.898	5.220	203.125
-1.691	-1.276	-3.694	-1.629	-1.616	-2.469	0.939	2.295	4.692	4.860	5.982	4.092	2.167	-0.096	-1.893	-1.454	-2.527	-2.957	-1.828	-0.970	-1.287	-1.422	-2.177	1.939	-0.070	2.518	6.842	6.196	207.031
-2.231	-1.866	-3.948	-2.207	-1.808	-2.374	1.619	3.237	5.593	5.725	6.525	4.557	2.082	-0.562	-2.519	-2.441	-3.418	-3.629	-2.570	-2.054	-2.127	-1.750	-2.259	2.341	0.946	4.092	7.724	7.091	210.938
-2.744	-2.434	-4.191	-2.767	-1.987	-2.264	2.239	4.160	6.446	6.562	7.048	5.000	1.969	-1.041	-3.120	-3.400	-4.275	-4.275	-3.265	-3.118	-2.945	-2.004	-2.267	2.742	1.935	5.535	8.490	7.877	214.844
-3.188	-2.954	-4.402	-3.284	-2.156	-2.148	2.763	5.033	7.225	7.332	7.541	5.410	1.819	-1.524	-3.667	-4.290	-5.064	-4.874	-3.895	-4.122	-3.718	-2.198	-2.220	3.103	2.848	6.798	9.098	8.534	218.750
-3.530	-3.405	-4.561	-3.735	-2.318	-2.033	3.166	5.819	7.900	8.002	7.991	5.778	1.636	-1.993	-4.134	-5.078	-5.758	-5.403	-4.443	-5.023	-4.414	-2.343	-2.145	3.393	3.642	7.840	9.526	9.048	222.656
-3.754	-3.775	-4.656	-4.104	-2.471	-1.926	3.435	6.478	8.446	8.547	8.381	6.095	1.440	-2.423	-4.510	-5.737	-6.334	-5.846	-4.895	-5.784	-5.001	-2.446	-2.062	3.600	4.283	8.643	9.778	9.421	226.562
-3.863	-4.062	-4.690	-4.385	-2.613	-1.834	3.567	6.971	8.838	8.954	8.696	6.354	1.264	-2.779	-4.795	-6.251	-6.783	-6.194	-5.241	-6.374	-5.446	-2.511	-1.987	3.735	4.753	9.209	9.885	9.671	230.469
-3.881	-4.278	-4.681	-4.581	-2.737	-1.770	3.575	7.267	9.064	9.223	8.925	6.559	1.149	-3.024	-5.003	-6.620	-7.107	-6.450	-5.475	-6.775	-5.723	-2.533	-1.929	3.828	5.055	9.563	9.901	9.827	234.375
-3.848	-4.442	-4.661	-4.706	-2.838	-1.747	3.485	7.351	9.121	9.372	9.067	6.718	1.142	-3.124	-5.156	-6.855	-7.320	-6.624	-5.600	-6.985	-5.819	-2.506	-1.889	3.920	5.211	9.751	9.895	9.929	238.281
-3.814	-4.579	-4.672	-4.783	-2.907	-1.775	3.337	7.222	9.016	9.428	9.123	6.843	1.283	-3.054	-5.282	-6.976	-7.443	-6.737	-5.627	-7.019	-5.737	-2.422	-1.859	4.059	5.259	9.827	9.933	10.018	242.188
-3.829	-4.713	-4.749	-4.833	-2.935	-1.862	3.176	6.898	8.765	9.423	9.102	6.947	1.601	-2.799	-5.408	-7.008	-7.499	-6.810	-5.569	-6.903	-5.490	-2.272	-1.830	4.286	5.244	9.846	10.071	10.128	246.094
-3.931	-4.860	-4.917	-4.873	-2.915	-2.005	3.048	6.414	8.391	9.391	9.014	7.036	2.107	-2.360	-5.555	-6.973	-7.512	-6.867	-5.442	-6.672	-5.104	-2.054	-1.793	4.626	5.210	9.851	10.341	10.276	250.000
-4.142	-5.025	-5.184	-4.909	-2.833	-2.187	2.993	5.820	7.919	9.358	8.868	7.109	2.794	-1.751	-5.739	-6.890	-7.500	-6.928	-5.263	-6.359	-4.607	-1.768	-1.742	5.084	5.190	9.868	10.743	10.462	253.906
-4.465	-5.200	-5.534	-4.933	-2.678	-2.381	3.044	5.173	7.380	9.345	8.673	7.158	3.631	-1.000	-5.963	-6.768	-7.475	-7.007	-5.048	-5.993	-4.028	-1.423	-1.679	5.638	5.198	9.899	11.248	10.666	257.812
-4.881	-5.364	-5.936	-4.928	-2.437	-2.551	3.218	4.534	6.805	9.360	8.435	7.165	4.574	-0.143	-6.224	-6.613	-7.442	-7.114	-4.810	-5.591	-3.391	-1.036	-1.609	6.248	5.229	9.923	11.804	10.856	261.719
-5.358	-5.495	-6.348	-4.872	-2.101	-2.656	3.520	3.957	6.228	9.402	8.165	7.114	5.566	0.775	-6.511	-6.425	-7.402	-7.246	-4.562	-5.167	-2.717	-0.629	-1.546	6.862	5.261	9.908	12.347	10.993	265.625
-5.855	-5.569	-6.724	-4.744	-1.670	-2.664	3.941	3.488	5.685	9.471	7.877	6.994	6.546	1.707	-6.805	-6.207	-7.352	-7.398	-4.315	-4.727	-2.029	-0.227	-1.501	7.425	5.263	9.822	12.814	11.043	269.531
-6.332	-5.572	-7.029	-4.535	-1.155	-2.551	4.459	3.157	5.205	9.560	7.590	6.802	7.457	2.603	-7.087	-5.965	-7.291	-7.553	-4.080	-4.284	-1.351	0.142	-1.487	7.889	5.206	9.637	13.155	10.984	273.438
-6.755	-5.503	-7.242	-4.249	-0.580	-2.314	5.044	2.977	4.817	9.667	7.325	6.550	8.249	3.420	-7.336	-5.714	-7.215	-7.692	-3.868	-3.855	-0.713	0.454	-1.507	8.223	5.066	9.343	13.342	10.812	277.344
-7.098	-5.370	-7.359	-3.908	0.020	-1.970	5.658	2.946	4.536	9.789	7.103	6.259	8.892	4.120	-7.535	-5.471	-7.124	-7.795	-3.684	-3.465	-0.148	0.695	-1.557	8.418	4.837	8.951	13.368	10.539	281.250
-7.351	-5.192	-7.393	-3.548	0.601	-1.554	6.263	3.044	4.368	9.925	6.938	5.956	9.370	4.680	-7.669	-5.255	-7.014	-7.843	-3.529	-3.137	0.314	0.860	-1.622	8.482	4.528	8.483	13.248	10.190	285.156
-7.514	-4.995	-7.368	-3.208	1.121	-1.113	6.823	3.239	4.300	10.070	6.836	5.665	9.688	5.093	-7.730	-5.079	-6.882	-7.820	-3.398	-2.891	0.654	0.959	-1.682	8.442	4.158	7.974	13.009	9.797	289.062
-7.598	-4.799	-7.315	-2.927	1.545	-0.701	7.311	3.489	4.305	10.217	6.787	5.405	9.866	5.370	-7.715	-4.947	-6.721	-7.719	-3.274	-2.732	0.869	1.017	-1.714	8.332	3.756	7.457	12.688	9.389	292.969
-7.620	-4.621	-7.263	-2.731	1.856	-0.366	7.707	3.745	4.345	10.352	6.773	5.185	9.939	5.537	-7.628	-4.849	-6.523	-7.543	-3.137	-2.647	0.976	1.065	-1.696	8.189	3.351	6.962	12.320	8.988	296.875
-7.602	-4.472	-7.236	-2.634	2.051	-0.142	8.003	3.960	4.379	10.459	6.767	4.999	9.946	5.631	-7.478	-4.768	-6.283	-7.301	-2.963	-2.608	1.010	1.140	-1.613	8.045	2.970	6.507	11.936	8.606	300.781
-7.568	-4.353	-7.251	-2.629	2.147	-0.046	8.203	4.090	4.364	10.520	6.740	4.838	9.927	5.694	-7.281	-4.678	-5.993	-7.006	-2.731	-2.576	1.016	1.276	-1.458	7.927	2.633	6.102	11.559	8.248	304.688
-7.536	-4.260	-7.311	-2.700	2.169	-0.073	8.317	4.101	4.268	10.520	6.669	4.684	9.916	5.762	-7.052	-4.556	-5.654	-6.678	-2.427	-2.515	1.041	1.493	-1.236	7.852	2.353	5.748	11.209	7.909	308.594
-7.522	-4.188	-7.417	-2.817	2.151	-0.199	8.362	3.976	4.073	10.448	6.540	4.524	9.940	5.865	-6.811	-4.387	-5.271	-6.336	-2.051	-2.394	1.121	1.801	-0.954	7.830	2.139	5.441	10.898	7.587	312.500
-7.535	-4.131	-7.559	-2.953	2.123	-0.389	8.359	3.710	3.773	10.301	6.346	4.347	10.012	6.017	-6.579	-4.164	-4.857	-5.997	-1.613	-2.201	1.276	2.195	-0.626	7.868	1.993	5.177	10.636	7.278	316.406
-7.577	-4.085	-7.726	-3.080	2.108	-0.605	8.326	3.315	3.379	10.083	6.092	4.147	10.136	6.221	-6.374	-3.892	-4.431	-5.678	-1.134	-1.941	1.509	2.656	-0.263	7.969	1.918	4.950	10.431	6.983	320.312
-7.647	-4.046	-7.905	-3.178	2.120	-0.814	8.279	2.812	2.907	9.801	5.788	3.928	10.306	6.470	-6.209	-3.587	-4.011	-5.389	-0.641	-1.629	1.804	3.159	0.122	8.132	1.912	4.757	10.287	6.706	324.219
-7.735	-4.014	-8.088	-3.236	2.164	-0.993	8.224	2.232	2.382	9.468	5.447	3.693	10.510	6.754	-6.093	-3.264	-3.616	-5.135	-0.159	-1.290	2.140	3.678	0.522	8.354	1.971	4.592	10.204	6.453	328.125
-7.831	-3.988	-8.270	-3.254	2.235	-1.138	8.158	1.604	1.828	9.099	5.082	3.452	10.731	7.059	-6.025	-2.939	-3.255	-4.917	0.294	-0.941	2.493	4.186	0.930	8.628	2.085	4.451	10.173	6.227	332.031
-7.927	-3.970	-8.453	-3.237	2.323	-1.256	8.073	0.961	1.270	8.708	4.706	3.213	10.951	7.378	-5.995	-2.621	-2.931	-4.732	0.706	-0.594	2.846	4.666	1.339	8.939	2.243	4.325	10.180	6.029	335.938
-8.013	-3.960	-8.642	-3.196	2.415	-1.365	7.956	0.332	0.729	8.311	4.329	2.984	11.152	7.701	-5.988	-2.315	-2.641	-4.573	1.078	-0.250	3.193	5.105	1.742	9.269	2.424	4.202	10.203	5.854	339.844
-8.085	-3.959	-8.844	-3.146	2.501	-1.488	7.799	-0.255	0.223	7.925	3.961	2.772	11.319	8.024	-5.984	-2.019	-2.376	-4.432	1.417	0.095	3.534	5.498	2.128	9.590	2.608	4.071	10.215	5.697	343.750
-8.141	-3.967	-9.068	-3.097	2.570	-1.641	7.599	-0.775	-0.228	7.568	3.613	2.582	11.439	8.336	-5.964	-1.731	-2.128	-4.303	1.729	0.448	3.870	5.843	2.488	9.877	2.773	3.921	10.188	5.550	347.656
-8.183	-3.985	-9.318	-3.061	2.618	-1.836	7.367	-1.201	-0.605	7.259	3.297	2.420	11.504	8.624	-5.915	-1.453	-1.894	-4.179	2.018	0.809	4.201	6.139	2.808	10.103	2.901	3.748	10.101	5.407	351.562
-8.213	-4.016	-9.599	-3.047	2.638	-2.069	7.123	-1.510	-0.889	7.018	3.028	2.288	11.510	8.871	-5.831	-1.192	-1.676	-4.061	2.282	1.166	4.516	6.385	3.077	10.247	2.981	3.557	9.942	5.266	355.469
-8.240	-4.067	-9.908	-3.060	2.627	-2.331	6.897	-1.682	-1.059	6.863	2.824	2.190	11.458	9.054	-5.716	-0.962	-1.485	-3.948	2.510	1.499	4.800	6.577	3.289	10.297	3.011	3.359	9.712	5.128	359.375
-8.272	-4.143	-10.238	-3.107	2.585	-2.603	6.720	-1.702	-1.098	6.813	2.698	2.125	11.353	9.158	-5.581	-0.783	-1.334	-3.844	2.687	1.781	5.029	6.709	3.440	10.251	3.000	3.174	9.428	5.000	363.281
-8.317	-4.251	-10.575	-3.189	2.509	-2.863	6.620	-1.562	-0.998	6.882	2.664	2.089	11.206	9.168	-5.441	-0.674	-1.236	-3.755	2.800	1.982	5.181	6.775	3.532	10.116	2.959	3.024	9.114	4.888	367.188
-8.383	-4.395	-10.901	-3.306	2.399	-3.092	6.616	-1.270	-0.759	7.075	2.723	2.075	11.029	9.084	-5.314	-0.648	-1.201	-3.685	2.837	2.082	5.243	6.773	3.568	9.909	2.904	2.927	8.802	4.798	371.094
-8.471	-4.574	-11.193	-3.455	2.260	-3.275	6.711	-0.844	-0.398	7.388	2.871	2.073	10.835	8.916	-5.214	-0.709	-1.226	-3.636	2.799	2.073	5.211	6.705	3.555	9.650	2.850	2.892	8.519	4.736	375.000
-8.577	-4.779	-11.428	-3.625	2.094	-3.404	6.896	-0.318	0.056	7.800	3.091	2.076	10.638	8.682	-5.148	-0.848	-1.301	-3.609	2.693	1.962	5.093	6.577	3.500	9.360	2.802	2.917	8.282	4.702	378.906
-8.689	-4.993	-11.583	-3.803	1.908	-3.476	7.147	0.261	0.563	8.279	3.358	2.079	10.445	8.409	-5.112	-1.041	-1.407	-3.604	2.538	1.772	4.911	6.401	3.410	9.058	2.762	2.987	8.095	4.693	382.812
-8.787	-5.196	-11.643	-3.970	1.712	-3.494	7.427	0.835	1.069	8.777	3.641	2.081	10.257	8.125	-5.095	-1.258	-1.519	-3.614	2.356	1.538	4.692	6.190	3.290	8.759	2.723	3.076	7.947	4.700	386.719
-8.847	-5.363	-11.601	-4.106	1.515	-3.463	7.693	1.344	1.517	9.234	3.902	2.081	10.072	7.854	-5.077	-1.460	-1.610	-3.631	2.176	1.302	4.466	5.964	3.150	8.473	2.675	3.152	7.813	4.711	390.625
-8.842	-5.472	-11.460	-4.193	1.327	-3.389	7.898	1.725	1.847	9.587	4.102	2.079	9.880	7.615	-5.036	-1.614	-1.658	-3.642	2.023	1.104	4.263	5.741	3.002	8.205	2.609	3.186	7.662	4.710	394.531
-8.752	-5.505	-11.234	-4.216	1.157	-3.281	8.001	1.927	2.009	9.777	4.207	2.073	9.670	7.417	-4.950	-1.690	-1.643	-3.627	1.920	0.981	4.104	5.543	2.864	7.954	2.521	3.155	7.465	4.679	398.438
-8.565	-5.458	-10.944	-4.168	1.008	-3.150	7.968	1.913	1.967	9.754	4.188	2.055	9.433	7.262	-4.803	-1.673	-1.557	-3.568	1.884	0.957	4.007	5.389	2.755	7.718	2.415	3.050	7.200	4.605	402.344
-8.283	-5.332	-10.619	-4.051	0.886	-3.009	7.780	1.672	1.710	9.495	4.028	2.013	9.165	7.146	-4.589	-1.561	-1.400	-3.446	1.924	1.042	3.977	5.295	2.696	7.495	2.299	2.879	6.859	4.477	406.250
-7.918	-5.140	-10.286	-3.874	0.791	-2.867	7.436	1.220	1.253	9.002	3.727	1.929	8.873	7.063	-4.313	-1.364	-1.180	-3.249	2.040	1.231	4.016	5.268	2.701	7.279	2.185	2.657	6.449	4.287	410.156
-7.496	-4.897	-9.966	-3.647	0.729	-2.735	6.959	0.601	0.635	8.311	3.296	1.781	8.571	7.010	-3.990	-1.098	-0.909	-2.977	2.227	1.511	4.120	5.311	2.777	7.067	2.079	2.401	5.983	4.027	414.062
-7.049	-4.616	-9.673	-3.378	0.712	-2.612	6.387	-0.119	-0.085	7.482	2.760	1.542	8.285	6.991	-3.640	-0.781	-0.603	-2.637	2.474	1.865	4.288	5.417	2.916	6.857	1.977	2.122	5.479	3.687	417.969
-6.609	-4.303	-9.409	-3.072	0.754	-2.493	5.775	-0.864	-0.840	6.595	2.151	1.184	8.042	7.015	-3.288	-0.420	-0.272	-2.248	2.771	2.282	4.521	5.574	3.098	6.644	1.863	1.813	4.949	3.253	421.875
-6.206	-3.957	-9.167	-2.724	0.876	-2.365	5.181	-1.554	-1.564	5.736	1.502	0.688	7.869	7.097	-2.954	-0.019	0.078	-1.835	3.109	2.754	4.826	5.764	3.293	6.425	1.705	1.452	4.394	2.709	425.781
-5.862	-3.575	-8.934	-2.329	1.095	-2.212	4.659	-2.120	-2.199	4.982	0.853	0.051	7.787	7.248	-2.652	0.430	0.444	-1.427	3.476	3.280	5.207	5.970	3.464	6.195	1.466	1.001	3.806	2.041	429.688
-5.590	-3.151	-8.696	-1.880	1.420	-2.018	4.253	-2.515	-2.704	4.395	0.238	-0.708	7.801	7.474	-2.386	0.934	0.827	-1.052	3.863	3.859	5.667	6.172	3.577	5.950	1.112	0.424	3.174	1.249	433.594
-5.389	-2.687	-8.445	-1.380	1.849	-1.776	3.984	-2.712	-3.054	4.009	-0.309	-1.548	7.904	7.769	-2.156	1.492	1.224	-0.733	4.257	4.485	6.197	6.355	3.608	5.686	0.620	-0.304	2.488	0.349	437.500
-5.253	-2.194	-8.182	-0.839	2.362	-1.487	3.852	-2.713	-3.247	3.830	-0.762	-2.407	8.072	8.114	-1.956	2.093	1.627	-0.482	4.643	5.141	6.773	6.507	3.548	5.405	-0.008	-1.184	1.747	-0.619	441.406
-5.165	-1.696	-7.915	-0.282	2.927	-1.165	3.835	-2.544	-3.298	3.835	-1.104	-3.214	8.273	8.478	-1.777	2.708	2.025	-0.302	5.007	5.797	7.359	6.621	3.407	5.110	-0.742	-2.186	0.966	-1.601	445.312
-5.108	-1.223	-7.661	0.257	3.499	-0.830	3.896	-2.246	-3.233	3.978	-1.334	-3.906	8.468	8.822	-1.614	3.294	2.400	-0.181	5.334	6.412	7.909	6.698	3.212	4.810	-1.527	-3.246	0.176	-2.531	449.219
-5.063	-0.810	-7.437	0.740	4.028	-0.508	3.991	-1.869	-3.090	4.197	-1.463	-4.435	8.619	9.105	-1.463	3.803	2.730	-0.102	5.610	6.939	8.372	6.742	3.003	4.513	-2.289	-4.279	-0.584	-3.344	453.125
-5.015	-0.487	-7.259	1.133	4.469	-0.219	4.077	-1.465	-2.905	4.428	-1.515	-4.782	8.698	9.292	-1.323	4.187	2.998	-0.038	5.827	7.336	8.705	6.759	2.820	4.229	-2.952	-5.196	-1.270	-3.990	457.031
-4.955	-0.275	-7.133	1.411	4.790	0.023	4.127	-1.076	-2.711	4.614	-1.520	-4.958	8.682	9.357	-1.196	4.409	3.189	0.029	5.977	7.569	8.877	6.754	2.699	3.963	-3.451	-5.915	-1.843	-4.441	460.938
-4.879	-0.176	-7.052	1.569	4.976	0.215	4.127	-0.730	-2.529	4.715	-1.507	-4.994	8.567	9.290	-1.085	4.455	3.295	0.112	6.057	7.625	8.877	6.729	2.655	3.719	-3.748	-6.385	-2.280	-4.696	464.844
-4.786	-0.177	-7.000	1.615	5.034	0.365	4.083	-0.444	-2.371	4.711	-1.501	-4.936	8.356	9.095	-0.995	4.334	3.314	0.210	6.066	7.511	8.716	6.682	2.686	3.492	-3.834	-6.589	-2.575	-4.777	468.750
-4.678	-0.249	-6.952	1.578	4.991	0.486	4.012	-0.220	-2.239	4.605	-1.515	-4.832	8.061	8.791	-0.927	4.078	3.255	0.311	6.009	7.259	8.423	6.611	2.771	3.277	-3.733	-6.547	-2.741	-4.723	472.656
-4.559	-0.356	-6.882	1.489	4.884	0.594	3.937	-0.049	-2.127	4.416	-1.555	-4.720	7.700	8.403	-0.881	3.735	3.132	0.397	5.891	6.910	8.037	6.511	2.879	3.065	-3.493	-6.308	-2.805	-4.579	476.562
-4.436	-0.465	-6.771	1.382	4.754	0.700	3.878	0.079	-2.026	4.175	-1.614	-4.621	7.293	7.962	-0.855	3.360	2.965	0.450	5.726	6.516	7.604	6.381	2.974	2.853	-3.172	-5.937	-2.800	-4.385	480.469
-4.315	-0.550	-6.610	1.281	4.638	0.807	3.848	0.179	-1.929	3.916	-1.681	-4.538	6.856	7.500	-0.845	3.005	2.776	0.456	5.528	6.123	7.161	6.226	3.026	2.636	-2.827	-5.500	-2.757	-4.169	484.375
-4.202	-0.603	-6.403	1.197	4.557	0.910	3.846	0.262	-1.831	3.674	-1.742	-4.461	6.409	7.042	-0.845	2.705	2.586	0.414	5.314	5.767	6.738	6.054	3.019	2.421	-2.506	-5.051	-2.699	-3.942	488.281
-4.104	-0.629	-6.168	1.128	4.517	0.997	3.863	0.332	-1.730	3.478	-1.780	-4.367	5.967	6.608	-0.850	2.480	2.412	0.332	5.104	5.465	6.355	5.875	2.952	2.217	-2.236	-4.628	-2.638	-3.704	492.188
-4.028	-0.648	-5.929	1.063	4.509	1.054	3.879	0.391	-1.632	3.348	-1.785	-4.239	5.550	6.215	-0.859	2.329	2.268	0.231	4.914	5.224	6.022	5.705	2.838	2.035	-2.031	-4.250	-2.572	-3.447	496.094
-3.977	-0.680	-5.711	0.989	4.515	1.069	3.875	0.434	-1.549	3.295	-1.753	-4.063	5.177	5.877	-0.869	2.239	2.160	0.132	4.761	5.037	5.746	5.557	2.702	1.890	-1.886	-3.922	-2.492	-3.165	500.000
-3.951	-0.747	-5.535	0.895	4.514	1.035	3.834	0.451	-1.491	3.316	-1.687	-3.845	4.868	5.604	-0.880	2.189	2.090	0.061	4.657	4.896	5.535	5.444	2.575	1.791	-1.791	-3.642	-2.392	-2.856	503.906
-3.946	-0.855	-5.413	0.779	4.491	0.952	3.748	0.432	-1.470	3.394	-1.598	-3.605	4.640	5.407	-0.893	2.157	2.056	0.035	4.610	4.794	5.396	5.375	2.483	1.739	-1.733	-3.408	-2.266	-2.534	507.812
-3.954	-1.002	-5.344	0.650	4.441	0.830	3.616	0.368	-1.494	3.501	-1.498	-3.375	4.501	5.294	-0.908	2.130	2.054	0.062	4.623	4.729	5.342	5.356	2.446	1.729	-1.700	-3.219	-2.125	-2.223	511.719
-3.961	-1.167	-5.318	0.525	4.365	0.684	3.445	0.256	-1.559	3.598	-1.408	-3.196	4.449	5.267	-0.919	2.103	2.079	0.143	4.692	4.705	5.378	5.387	2.469	1.745	-1.687	-3.083	-1.988	-1.957	515.625
-3.950	-1.323	-5.314	0.426	4.274	0.535	3.247	0.100	-1.656	3.643	-1.343	-3.105	4.466	5.318	-0.921	2.081	2.128	0.268	4.809	4.728	5.504	5.461	2.548	1.764	-1.696	-3.010	-1.887	-1.771	519.531
-3.905	-1.437	-5.307	0.374	4.182	0.404	3.037	-0.084	-1.767	3.599	-1.323	-3.131	4.523	5.429	-0.905	2.075	2.198	0.426	4.962	4.805	5.710	5.567	2.665	1.759	-1.729	-3.008	-1.860	-1.697	523.438
-3.812	-1.484	-5.277	0.386	4.098	0.307	2.823	-0.274	-1.872	3.440	-1.362	-3.287	4.577	5.567	-0.858	2.099	2.292	0.602	5.133	4.936	5.969	5.689	2.798	1.706	-1.791	-3.080	-1.937	-1.753	527.344
-3.666	-1.448	-5.211	0.467	4.028	0.259	2.614	-0.441	-1.950	3.153	-1.467	-3.570	4.585	5.693	-0.774	2.164	2.410	0.788	5.308	5.112	6.245	5.808	2.926	1.586	-1.882	-3.219	-2.136	-1.941	531.250
-3.468	-1.331	-5.105	0.609	3.966	0.261	2.411	-0.554	-1.984	2.748	-1.639	-3.956	4.508	5.759	-0.646	2.272	2.552	0.979	5.469	5.313	6.493	5.906	3.030	1.395	-1.998	-3.406	-2.455	-2.241	535.156
-3.230	-1.149	-4.969	0.790	3.902	0.309	2.215	-0.588	-1.961	2.251	-1.867	-4.407	4.319	5.724	-0.477	2.413	2.716	1.174	5.603	5.510	6.667	5.963	3.099	1.139	-2.126	-3.611	-2.867	-2.614	539.062
-2.971	-0.931	-4.817	0.980	3.818	0.388	2.026	-0.527	-1.877	1.705	-2.128	-4.870	4.009	5.554	-0.275	2.568	2.892	1.373	5.696	5.668	6.727	5.964	3.131	0.838	-2.253	-3.800	-3.324	-3.008	542.969
-2.713	-0.712	-4.668	1.145	3.698	0.481	1.847	-0.367	-1.735	1.158	-2.390	-5.288	3.590	5.233	-0.056	2.707	3.066	1.572	5.738	5.750	6.643	5.902	3.127	0.522	-2.361	-3.938	-3.764	-3.361	546.875
-2.476	-0.523	-4.538	1.257	3.535	0.569	1.687	-0.122	-1.546	0.662	-2.614	-5.604	3.092	4.767	0.161	2.800	3.217	1.762	5.720	5.729	6.406	5.773	3.096	0.224	-2.436	-3.996	-4.123	-3.618	550.781
-2.276	-0.387	-4.437	1.299	3.330	0.638	1.558	0.178	-1.329	0.264	-2.763	-5.769	2.560	4.183	0.351	2.820	3.320	1.926	5.640	5.590	6.027	5.582	3.043	-0.021	-2.470	-3.956	-4.341	-3.731	554.688
-2.125	-0.315	-4.369	1.268	3.096	0.678	1.475	0.491	-1.107	-0.002	-2.808	-5.752	2.045	3.531	0.492	2.753	3.354	2.041	5.497	5.340	5.538	5.344	2.974	-0.186	-2.457	-3.812	-4.378	-3.674	558.594
-2.026	-0.303	-4.335	1.178	2.856	0.685	1.449	0.767	-0.910	-0.118	-2.734	-5.543	1.597	2.870	0.565	2.601	3.304	2.084	5.300	5.004	4.990	5.081	2.894	-0.248	-2.398	-3.574	-4.216	-3.447	562.500
-1.980	-0.339	-4.330	1.051	2.638	0.659	1.483	0.954	-0.764	-0.086	-2.545	-5.159	1.257	2.267	0.562	2.383	3.168	2.042	5.066	4.625	4.446	4.823	2.808	-0.196	-2.295	-3.259	-3.863	-3.071	566.406
-1.981	-0.402	-4.350	0.913	2.468	0.603	1.569	1.010	-0.699	0.073	-2.266	-4.639	1.050	1.781	0.483	2.130	2.959	1.910	4.822	4.257	3.971	4.605	2.724	-0.031	-2.152	-2.895	-3.354	-2.591	570.312
-2.024	-0.472	-4.393	0.793	2.364	0.517	1.690	0.904	-0.734	0.318	-1.941	-4.047	0.981	1.458	0.341	1.883	2.707	1.706	4.601	3.954	3.624	4.460	2.655	0.235	-1.972	-2.511	-2.742	-2.067	574.219
-2.101	-0.532	-4.458	0.708	2.333	0.406	1.816	0.629	-0.880	0.597	-1.626	-3.457	1.038	1.323	0.158	1.682	2.453	1.460	4.439	3.762	3.445	4.418	2.618	0.578	-1.761	-2.137	-2.093	-1.561	578.125
-2.203	-0.572	-4.542	0.668	2.369	0.271	1.921	0.199	-1.138	0.852	-1.379	-2.946	1.189	1.375	-0.036	1.562	2.240	1.219	4.366	3.707	3.451	4.496	2.630	0.964	-1.524	-1.800	-1.476	-1.133	582.031
-2.318	-0.586	-4.642	0.673	2.459	0.121	1.977	-0.346	-1.492	1.030	-1.252	-2.578	1.393	1.590	-0.208	1.542	2.110	1.028	4.401	3.794	3.629	4.692	2.706	1.350	-1.271	-1.523	-0.957	-0.833	585.938
-2.431	-0.571	-4.744	0.717	2.580	-0.030	1.969	-0.951	-1.915	1.089	-1.280	-2.402	1.604	1.920	-0.328	1.628	2.088	0.931	4.546	4.001	3.942	4.985	2.850	1.692	-1.015	-1.321	-0.593	-0.692	589.844
-2.524	-0.526	-4.830	0.790	2.713	-0.164	1.891	-1.549	-2.372	1.004	-1.476	-2.440	1.777	2.306	-0.373	1.809	2.185	0.951	4.785	4.294	4.336	5.338	3.056	1.945	-0.774	-1.209	-0.426	-0.724	593.750
-2.577	-0.448	-4.875	0.886	2.840	-0.256	1.749	-2.076	-2.820	0.771	-1.831	-2.688	1.872	2.685	-0.332	2.066	2.390	1.096	5.088	4.627	4.749	5.698	3.303	2.076	-0.568	-1.193	-0.477	-0.928	597.656
-2.569	-0.331	-4.853	1.003	2.954	-0.283	1.556	-2.478	-3.220	0.405	-2.317	-3.118	1.864	3.001	-0.204	2.375	2.678	1.348	5.414	4.961	5.124	6.012	3.562	2.061	-0.420	-1.276	-0.749	-1.288	601.562
-2.483	-0.169	-4.740	1.142	3.055	-0.228	1.329	-2.721	-3.538	-0.062	-2.891	-3.682	1.739	3.211	-0.001	2.715	3.016	1.674	5.725	5.267	5.422	6.235	3.798	1.893	-0.347	-1.456	-1.225	-1.774	605.469
-2.310	0.046	-4.522	1.307	3.146	-0.085	1.086	-2.791	-3.752	-0.588	-3.500	-4.323	1.498	3.293	0.257	3.067	3.367	2.031	5.987	5.530	5.619	6.337	3.977	1.580	-0.364	-1.723	-1.868	-2.353	609.375
-2.053	0.315	-4.199	1.501	3.233	0.137	0.845	-2.700	-3.852	-1.123	-4.095	-4.977	1.154	3.243	0.546	3.419	3.699	2.375	6.180	5.751	5.713	6.308	4.074	1.147	-0.475	-2.062	-2.624	-2.984	613.281
-1.723	0.630	-3.788	1.723	3.315	0.413	0.618	-2.477	-3.843	-1.620	-4.627	-5.586	0.730	3.073	0.842	3.765	3.992	2.671	6.299	5.939	5.719	6.158	4.078	0.628	-0.674	-2.452	-3.432	-3.623	617.188
-1.342	0.977	-3.323	1.960	3.385	0.710	0.418	-2.165	-3.738	-2.038	-5.058	-6.099	0.258	2.805	1.125	4.099	4.236	2.898	6.353	6.104	5.657	5.918	3.994	0.066	-0.947	-2.869	-4.225	-4.229	621.094
-0.939	1.334	-2.845	2.197	3.428	0.985	0.250	-1.811	-3.560	-2.343	-5.361	-6.479	-0.230	2.469	1.385	4.419	4.434	3.054	6.360	6.256	5.549	5.625	3.840	-0.496	-1.272	-3.292	-4.945	-4.763	625.000
-0.543	1.677	-2.403	2.413	3.427	1.201	0.113	-1.466	-3.337	-2.518	-5.521	-6.705	-0.702	2.090	1.616	4.718	4.597	3.151	6.344	6.397	5.415	5.322	3.647	-1.017	-1.626	-3.699	-5.544	-5.194	628.906
-0.182	1.981	-2.039	2.584	3.366	1.325	-0.001	-1.175	-3.100	-2.558	-5.535	-6.772	-1.128	1.692	1.822	4.990	4.740	3.216	6.328	6.521	5.267	5.048	3.448	-1.467	-1.984	-4.078	-5.990	-5.503	632.812
0.124	2.227	-1.783	2.692	3.235	1.338	-0.104	-0.973	-2.876	-2.471	-5.414	-6.689	-1.489	1.293	2.010	5.224	4.874	3.276	6.332	6.618	5.110	4.833	3.279	-1.822	-2.322	-4.419	-6.273	-5.681	636.719
0.362	2.400	-1.649	2.726	3.031	1.239	-0.216	-0.882	-2.688	-2.281	-5.177	-6.477	-1.773	0.905	2.190	5.412	5.009	3.357	6.364	6.671	4.941	4.692	3.168	-2.071	-2.621	-4.720	-6.399	-5.733	640.625
0.531	2.491	-1.632	2.683	2.761	1.039	-0.358	-0.913	-2.556	-2.021	-4.853	-6.165	-1.982	0.533	2.369	5.542	5.145	3.477	6.426	6.670	4.757	4.632	3.133	-2.217	-2.866	-4.975	-6.390	-5.672	644.531
0.637	2.501	-1.713	2.566	2.440	0.762	-0.548	-1.061	-2.490	-1.732	-4.475	-5.785	-2.126	0.181	2.552	5.611	5.279	3.644	6.513	6.607	4.554	4.643	3.179	-2.267	-3.047	-5.183	-6.278	-5.520	648.438
0.694	2.433	-1.860	2.389	2.087	0.438	-0.798	-1.311	-2.495	-1.459	-4.082	-5.372	-2.220	-0.148	2.739	5.619	5.403	3.852	6.613	6.488	4.335	4.707	3.299	-2.242	-3.155	-5.335	-6.101	-5.302	652.344
0.720	2.301	-2.037	2.169	1.724	0.098	-1.108	-1.637	-2.569	-1.242	-3.708	-4.955	-2.285	-0.451	2.925	5.576	5.510	4.085	6.713	6.328	4.109	4.802	3.471	-2.164	-3.190	-5.426	-5.893	-5.045	656.250
0.732	2.121	-2.212	1.927	1.373	-0.228	-1.467	-2.004	-2.700	-1.114	-3.384	-4.564	-2.337	-0.724	3.102	5.499	5.590	4.319	6.798	6.154	3.891	4.899	3.666	-2.058	-3.155	-5.449	-5.687	-4.774	660.156
0.744	1.913	-2.359	1.682	1.053	-0.520	-1.846	-2.375	-2.873	-1.092	-3.132	-4.218	-2.385	-0.958	3.257	5.407	5.640	4.528	6.857	5.994	3.701	4.974	3.848	-1.949	-3.056	-5.399	-5.503	-4.512	664.062
0.762	1.698	-2.463	1.453	0.782	-0.763	-2.210	-2.708	-3.060	-1.180	-2.962	-3.931	-2.431	-1.144	3.377	5.318	5.654	4.685	6.877	5.873	3.553	5.004	3.985	-1.854	-2.907	-5.279	-5.355	-4.276	667.969
0.787	1.494	-2.518	1.255	0.573	-0.949	-2.517	-2.965	-3.234	-1.364	-2.872	-3.711	-2.466	-1.275	3.449	5.238	5.628	4.769	6.846	5.800	3.455	4.976	4.051	-1.783	-2.720	-5.094	-5.243	-4.079	671.875
0.811	1.313	-2.527	1.093	0.430	-1.077	-2.725	-3.113	-3.363	-1.618	-2.848	-3.558	-2.480	-1.348	3.463	5.163	5.558	4.770	6.755	5.765	3.402	4.881	4.032	-1.739	-2.510	-4.857	-5.163	-3.925	675.781
0.823	1.158	-2.499	0.969	0.351	-1.146	-2.807	-3.127	-3.421	-1.910	-2.872	-3.466	-2.462	-1.367	3.415	5.078	5.440	4.687	6.596	5.740	3.372	4.724	3.932	-1.716	-2.288	-4.583	-5.103	-3.816	679.688
0.813	1.028	-2.443	0.876	0.326	-1.161	-2.747	-2.996	-3.389	-2.207	-2.922	-3.424	-2.404	-1.343	3.306	4.956	5.267	4.530	6.367	5.681	3.335	4.515	3.766	-1.706	-2.063	-4.286	-5.054	-3.746	683.594
0.777	0.912	-2.367	0.804	0.335	-1.125	-2.552	-2.722	-3.263	-2.476	-2.975	-3.420	-2.311	-1.294	3.146	4.772	5.038	4.321	6.074	5.544	3.258	4.271	3.559	-1.699	-1.846	-3.986	-5.006	-3.707	687.500
0.718	0.801	-2.278	0.741	0.356	-1.047	-2.245	-2.324	-3.048	-2.692	-3.015	-3.436	-2.192	-1.239	2.949	4.509	4.756	4.085	5.728	5.293	3.113	4.011	3.343	-1.690	-1.645	-3.704	-4.958	-3.691	691.406
0.645	0.683	-2.179	0.676	0.368	-0.934	-1.863	-1.832	-2.763	-2.835	-3.026	-3.460	-2.067	-1.199	2.736	4.162	4.432	3.851	5.351	4.914	2.887	3.756	3.144	-1.676	-1.473	-3.461	-4.915	-3.691	695.312
0.572	0.553	-2.074	0.600	0.351	-0.800	-1.452	-1.288	-2.433	-2.894	-2.998	-3.477	-1.958	-1.188	2.529	3.745	4.085	3.645	4.970	4.420	2.587	3.523	2.983	-1.659	-1.341	-3.281	-4.886	-3.704	699.219
0.513	0.408	-1.967	0.509	0.294	-0.664	-1.059	-0.738	-2.088	-2.869	-2.923	-3.477	-1.884	-1.215	2.350	3.287	3.742	3.490	4.614	3.852	2.239	3.325	2.869	-1.644	-1.263	-3.182	-4.880	-3.724	703.125
0.477	0.252	-1.864	0.401	0.191	-0.546	-0.727	-0.228	-1.756	-2.765	-2.797	-3.450	-1.857	-1.278	2.216	2.830	3.431	3.398	4.309	3.274	1.884	3.166	2.800	-1.637	-1.246	-3.172	-4.901	-3.748	707.031
0.467	0.090	-1.776	0.281	0.047	-0.468	-0.487	0.200	-1.460	-2.598	-2.618	-3.390	-1.879	-1.366	2.135	2.415	3.179	3.371	4.075	2.756	1.569	3.047	2.766	-1.640	-1.291	-3.249	-4.944	-3.765	710.938
0.479	-0.071	-1.714	0.153	-0.126	-0.447	-0.357	0.516	-1.215	-2.391	-2.390	-3.292	-1.940	-1.462	2.107	2.080	3.002	3.396	3.918	2.359	1.335	2.959	2.750	-1.653	-1.391	-3.394	-4.999	-3.765	714.844
0.506	-0.222	-1.683	0.028	-0.313	-0.494	-0.338	0.701	-1.031	-2.171	-2.121	-3.157	-2.022	-1.548	2.123	1.848	2.907	3.456	3.835	2.125	1.212	2.895	2.735	-1.673	-1.530	-3.577	-5.043	-3.734	718.750
0.535	-0.356	-1.684	-0.084	-0.490	-0.606	-0.412	0.750	-0.913	-1.968	-1.827	-2.987	-2.102	-1.608	2.167	1.726	2.885	3.523	3.812	2.066	1.206	2.841	2.706	-1.695	-1.684	-3.761	-5.058	-3.660	722.656
0.562	-0.464	-1.707	-0.172	-0.636	-0.765	-0.547	0.673	-0.863	-1.808	-1.531	-2.792	-2.159	-1.633	2.219	1.703	2.917	3.572	3.826	2.163	1.304	2.788	2.654	-1.713	-1.830	-3.913	-5.025	-3.541	726.562
0.585	-0.535	-1.734	-0.227	-0.733	-0.946	-0.703	0.492	-0.878	-1.715	-1.260	-2.586	-2.177	-1.620	2.260	1.758	2.979	3.582	3.854	2.370	1.473	2.731	2.575	-1.722	-1.947	-4.005	-4.937	-3.382	730.469
0.609	-0.559	-1.744	-0.241	-0.767	-1.112	-0.836	0.237	-0.953	-1.703	-1.038	-2.386	-2.149	-1.575	2.274	1.863	3.045	3.541	3.876	2.627	1.669	2.665	2.473	-1.717	-2.022	-4.028	-4.801	-3.200	734.375
0.645	-0.525	-1.718	-0.211	-0.732	-1.231	-0.909	-0.056	-1.078	-1.777	-0.888	-2.215	-2.080	-1.512	2.254	1.989	3.092	3.448	3.877	2.875	1.851	2.595	2.356	-1.699	-2.052	-3.988	-4.633	-3.019	738.281
0.708	-0.427	-1.643	-0.138	-0.632	-1.274	-0.896	-0.351	-1.241	-1.933	-0.824	-2.092	-1.982	-1.445	2.199	2.116	3.112	3.315	3.852	3.066	1.985	2.524	2.233	-1.673	-2.047	-3.909	-4.461	-2.871	742.188
0.806	-0.260	-1.515	-0.022	-0.481	-1.226	-0.789	-0.617	-1.430	-2.157	-0.852	-2.038	-1.875	-1.387	2.122	2.233	3.105	3.163	3.806	3.178	2.055	2.459	2.114	-1.647	-2.024	-3.824	-4.317	-2.786	746.094
0.946	-0.025	-1.345	0.127	-0.297	-1.087	-0.599	-0.832	-1.630	-2.427	-0.965	-2.065	-1.782	-1.349	2.040	2.341	3.084	3.019	3.755	3.213	2.065	2.409	2.006	-1.632	-2.005	-3.770	-4.232	-2.788	750.000
1.125	0.270	-1.151	0.301	-0.107	-0.874	-0.350	-0.985	-1.829	-2.715	-1.152	-2.179	-1.720	-1.333	1.975	2.449	3.069	2.911	3.716	3.198	2.035	2.379	1.915	-1.639	-2.014	-3.778	-4.224	-2.890	753.906
1.331	0.605	-0.958	0.484	0.063	-0.615	-0.078	-1.075	-2.018	-2.990	-1.390	-2.372	-1.701	-1.337	1.948	2.569	3.081	2.858	3.710	3.166	1.992	2.373	1.843	-1.673	-2.065	-3.867	-4.301	-3.087	757.812
1.544	0.955	-0.794	0.658	0.185	-0.349	0.177	-1.110	-2.184	-3.219	-1.649	-2.624	-1.722	-1.352	1.970	2.707	3.133	2.869	3.748	3.153	1.961	2.389	1.788	-1.736	-2.163	-4.034	-4.448	-3.358	761.719
1.743	1.284	-0.683	0.801	0.236	-0.111	0.386	-1.101	-2.318	-3.372	-1.893	-2.900	-1.771	-1.369	2.044	2.861	3.227	2.937	3.827	3.179	1.961	2.417	1.746	-1.820	-2.302	-4.258	-4.637	-3.664	765.625
1.905	1.556	-0.640	0.893	0.202	0.067	0.528	-1.061	-2.408	-3.424	-2.087	-3.156	-1.823	-1.378	2.155	3.019	3.352	3.043	3.931	3.245	1.991	2.441	1.704	-1.911	-2.462	-4.501	-4.825	-3.955	769.531
2.014	1.732	-0.673	0.914	0.074	0.167	0.603	-1.000	-2.444	-3.362	-2.195	-3.343	-1.848	-1.371	2.280	3.155	3.484	3.155	4.029	3.329	2.036	2.439	1.648	-1.994	-2.620	-4.713	-4.965	-4.176	773.438
2.064	1.786	-0.777	0.851	-0.143	0.186	0.623	-0.923	-2.416	-3.181	-2.190	-3.419	-1.822	-1.348	2.388	3.240	3.591	3.238	4.084	3.399	2.072	2.385	1.560	-2.053	-2.750	-4.846	-5.014	-4.277	777.344
2.057	1.702	-0.944	0.699	-0.439	0.133	0.610	-0.833	-2.320	-2.889	-2.057	-3.352	-1.726	-1.310	2.452	3.250	3.643	3.261	4.061	3.416	2.069	2.260	1.425	-2.073	-2.831	-4.862	-4.940	-4.224	781.250
2.002	1.482	-1.158	0.462	-0.797	0.028	0.590	-0.731	-2.156	-2.505	-1.797	-3.134	-1.552	-1.262	2.450	3.168	3.619	3.207	3.937	3.353	2.006	2.050	1.234	-2.050	-2.851	-4.743	-4.732	-4.005	785.156
1.914	1.145	-1.403	0.156	-1.199	-0.108	0.581	-0.619	-1.936	-2.053	-1.425	-2.777	-1.307	-1.210	2.376	2.995	3.513	3.071	3.707	3.197	1.873	1.759	0.988	-1.985	-2.812	-4.493	-4.401	-3.635	789.062
1.807	0.725	-1.663	-0.200	-1.624	-0.257	0.596	-0.497	-1.675	-1.560	-0.976	-2.316	-1.007	-1.158	2.240	2.750	3.340	2.868	3.389	2.960	1.679	1.403	0.697	-1.887	-2.724	-4.140	-3.975	-3.150	792.969
1.697	0.269	-1.924	-0.577	-2.056	-0.402	0.633	-0.372	-1.396	-1.054	-0.489	-1.802	-0.678	-1.107	2.068	2.463	3.125	2.625	3.020	2.671	1.445	1.011	0.379	-1.771	-2.609	-3.731	-3.499	-2.607	796.875
