FP1	F3	F7	FC3	C3	C5	P3	P7	PO7	PO3	O1	Oz	Pz	CPz	FP2	Fz	F4	F8	FC4	FCz	Cz	C4	C6	P4	P8	PO8	PO4	O2	time
0.849	0.081	0.766	-0.362	-1.138	0.492	-0.182	0.155	-1.076	-0.945	-1.171	-1.752	-1.222	-1.368	0.853	0.635	1.577	1.521	1.796	0.556	-0.801	1.276	1.409	-0.979	-0.288	-0.808	-1.417	-1.141	-199.219
1.033	0.833	0.915	0.465	-0.610	0.772	-0.641	-0.314	-1.457	-1.386	-1.575	-2.086	-1.337	-1.367	1.059	1.260	1.847	1.591	1.905	1.199	-0.312	1.224	1.200	-1.098	-0.640	-1.150	-1.634	-1.482	-195.312
1.197	1.512	1.034	1.214	-0.108	1.016	-1.043	-0.722	-1.781	-1.765	-1.920	-2.357	-1.437	-1.358	1.227	1.820	2.069	1.626	1.978	1.767	0.123	1.152	0.991	-1.200	-0.949	-1.439	-1.808	-1.763	-191.406
1.319	2.049	1.093	1.812	0.333	1.190	-1.346	-1.015	-1.997	-2.029	-2.159	-2.514	-1.503	-1.332	1.323	2.256	2.202	1.599	1.986	2.198	0.467	1.047	0.786	-1.267	-1.179	-1.627	-1.902	-1.934	-187.500
1.383	2.391	1.070	2.201	0.688	1.271	-1.522	-1.158	-2.071	-2.141	-2.256	-2.523	-1.523	-1.274	1.324	2.527	2.218	1.492	1.913	2.451	0.699	0.907	0.586	-1.288	-1.301	-1.682	-1.891	-1.962	-183.594
1.376	2.507	0.956	2.350	0.934	1.247	-1.565	-1.137	-1.988	-2.085	-2.199	-2.374	-1.484	-1.168	1.221	2.612	2.104	1.295	1.755	2.514	0.820	0.738	0.394	-1.254	-1.305	-1.591	-1.766	-1.836	-179.688
1.292	2.393	0.755	2.257	1.060	1.120	-1.487	-0.964	-1.755	-1.865	-1.997	-2.080	-1.382	-1.003	1.018	2.510	1.866	1.015	1.520	2.397	0.849	0.556	0.213	-1.165	-1.190	-1.362	-1.532	-1.567	-175.781
1.134	2.068	0.484	1.945	1.057	0.902	-1.317	-0.670	-1.403	-1.510	-1.675	-1.675	-1.218	-0.775	0.734	2.244	1.526	0.671	1.230	2.134	0.815	0.382	0.050	-1.023	-0.973	-1.021	-1.213	-1.187	-171.875
0.916	1.579	0.169	1.461	0.928	0.613	-1.098	-0.306	-0.977	-1.065	-1.276	-1.206	-1.002	-0.488	0.400	1.850	1.118	0.293	0.915	1.770	0.752	0.242	-0.083	-0.837	-0.680	-0.609	-0.840	-0.741	-167.969
0.663	0.988	-0.159	0.869	0.684	0.276	-0.879	0.069	-0.530	-0.584	-0.844	-0.722	-0.751	-0.162	0.053	1.377	0.685	-0.080	0.606	1.354	0.688	0.156	-0.175	-0.619	-0.344	-0.172	-0.453	-0.283	-164.062
0.406	0.372	-0.463	0.245	0.349	-0.080	-0.707	0.399	-0.116	-0.126	-0.427	-0.274	-0.488	0.171	-0.264	0.877	0.272	-0.407	0.332	0.930	0.639	0.136	-0.217	-0.383	-0.003	0.242	-0.095	0.136	-160.156
0.178	-0.195	-0.710	-0.339	-0.042	-0.425	-0.619	0.634	0.220	0.261	-0.061	0.100	-0.238	0.475	-0.519	0.398	-0.083	-0.653	0.114	0.532	0.604	0.182	-0.203	-0.145	0.310	0.589	0.199	0.476	-156.250
0.009	-0.647	-0.871	-0.816	-0.442	-0.728	-0.637	0.742	0.449	0.541	0.227	0.375	-0.025	0.713	-0.685	-0.019	-0.353	-0.797	-0.038	0.181	0.573	0.280	-0.135	0.078	0.568	0.843	0.406	0.711	-152.344
-0.084	-0.938	-0.928	-1.138	-0.799	-0.962	-0.759	0.711	0.560	0.701	0.425	0.542	0.136	0.856	-0.753	-0.348	-0.526	-0.831	-0.127	-0.112	0.526	0.407	-0.027	0.271	0.752	0.990	0.514	0.833	-148.438
-0.097	-1.047	-0.872	-1.278	-1.062	-1.104	-0.958	0.551	0.557	0.746	0.536	0.607	0.240	0.891	-0.729	-0.576	-0.605	-0.770	-0.165	-0.347	0.445	0.532	0.101	0.423	0.857	1.036	0.532	0.851	-144.531
-0.043	-0.982	-0.712	-1.234	-1.189	-1.139	-1.192	0.290	0.463	0.699	0.571	0.591	0.293	0.824	-0.634	-0.705	-0.609	-0.641	-0.174	-0.527	0.319	0.623	0.223	0.526	0.886	0.998	0.481	0.788	-140.625
0.055	-0.774	-0.469	-1.027	-1.156	-1.062	-1.406	-0.030	0.309	0.595	0.550	0.522	0.314	0.677	-0.497	-0.746	-0.560	-0.482	-0.177	-0.658	0.149	0.654	0.312	0.577	0.850	0.905	0.390	0.676	-136.719
0.163	-0.471	-0.177	-0.700	-0.964	-0.882	-1.543	-0.359	0.130	0.469	0.492	0.428	0.326	0.486	-0.350	-0.716	-0.487	-0.330	-0.193	-0.744	-0.051	0.608	0.346	0.576	0.765	0.786	0.293	0.545	-132.812
0.249	-0.130	0.124	-0.306	-0.635	-0.619	-1.562	-0.648	-0.041	0.355	0.418	0.337	0.351	0.291	-0.222	-0.638	-0.412	-0.219	-0.235	-0.787	-0.258	0.483	0.309	0.531	0.650	0.668	0.219	0.427	-128.906
0.286	0.194	0.394	0.096	-0.216	-0.303	-1.442	-0.854	-0.175	0.274	0.342	0.269	0.408	0.127	-0.134	-0.530	-0.351	-0.166	-0.308	-0.787	-0.444	0.288	0.200	0.452	0.519	0.572	0.188	0.342	-125.000
0.260	0.455	0.597	0.449	0.234	0.028	-1.186	-0.945	-0.252	0.237	0.274	0.237	0.501	0.019	-0.097	-0.412	-0.314	-0.179	-0.408	-0.746	-0.584	0.044	0.025	0.353	0.386	0.509	0.212	0.304	-121.094
0.168	0.618	0.708	0.709	0.649	0.335	-0.822	-0.906	-0.262	0.244	0.220	0.243	0.622	-0.023	-0.109	-0.300	-0.302	-0.246	-0.523	-0.668	-0.664	-0.220	-0.194	0.250	0.260	0.483	0.288	0.318	-117.188
0.020	0.669	0.717	0.845	0.970	0.583	-0.399	-0.735	-0.200	0.285	0.184	0.285	0.751	-0.009	-0.162	-0.207	-0.310	-0.347	-0.636	-0.561	-0.679	-0.473	-0.430	0.158	0.147	0.490	0.405	0.380	-113.281
-0.162	0.605	0.627	0.846	1.156	0.745	0.031	-0.448	-0.074	0.343	0.167	0.354	0.858	0.038	-0.239	-0.143	-0.332	-0.455	-0.732	-0.435	-0.641	-0.686	-0.651	0.087	0.052	0.523	0.543	0.479	-109.375
-0.353	0.440	0.458	0.719	1.185	0.806	0.416	-0.074	0.107	0.402	0.172	0.437	0.911	0.083	-0.320	-0.113	-0.359	-0.543	-0.794	-0.309	-0.569	-0.838	-0.825	0.043	-0.021	0.569	0.678	0.602	-105.469
-0.524	0.201	0.239	0.486	1.062	0.767	0.720	0.347	0.326	0.447	0.201	0.523	0.882	0.090	-0.387	-0.119	-0.383	-0.587	-0.814	-0.200	-0.494	-0.917	-0.930	0.024	-0.071	0.618	0.788	0.730	-101.562
-0.651	-0.081	0.007	0.182	0.815	0.638	0.922	0.772	0.567	0.472	0.256	0.603	0.751	0.029	-0.427	-0.164	-0.402	-0.578	-0.792	-0.132	-0.444	-0.927	-0.953	0.019	-0.094	0.661	0.853	0.849	-97.656
-0.714	-0.369	-0.200	-0.152	0.489	0.445	1.021	1.156	0.811	0.475	0.338	0.670	0.516	-0.118	-0.432	-0.244	-0.414	-0.515	-0.735	-0.123	-0.444	-0.880	-0.895	0.013	-0.092	0.689	0.861	0.945	-93.750
-0.706	-0.631	-0.349	-0.476	0.136	0.217	1.032	1.463	1.040	0.462	0.443	0.722	0.188	-0.350	-0.399	-0.357	-0.423	-0.408	-0.660	-0.187	-0.508	-0.800	-0.771	-0.009	-0.065	0.699	0.810	1.008	-89.844
-0.628	-0.839	-0.418	-0.753	-0.187	-0.013	0.977	1.664	1.235	0.442	0.567	0.758	-0.202	-0.644	-0.334	-0.495	-0.431	-0.274	-0.582	-0.327	-0.635	-0.712	-0.604	-0.062	-0.020	0.687	0.702	1.032	-85.938
-0.497	-0.976	-0.402	-0.957	-0.438	-0.215	0.882	1.745	1.380	0.426	0.699	0.777	-0.614	-0.963	-0.243	-0.647	-0.442	-0.131	-0.519	-0.535	-0.808	-0.639	-0.420	-0.148	0.040	0.653	0.551	1.016	-82.031
-0.335	-1.038	-0.311	-1.076	-0.587	-0.369	0.776	1.705	1.460	0.418	0.825	0.780	-0.998	-1.253	-0.139	-0.801	-0.456	0.001	-0.481	-0.784	-0.993	-0.595	-0.244	-0.264	0.106	0.599	0.371	0.958	-78.125
-0.175	-1.032	-0.170	-1.109	-0.625	-0.464	0.681	1.556	1.467	0.423	0.933	0.765	-1.305	-1.460	-0.032	-0.939	-0.470	0.107	-0.470	-1.041	-1.151	-0.584	-0.094	-0.391	0.173	0.526	0.183	0.862	-74.219
-0.047	-0.976	-0.013	-1.066	-0.562	-0.499	0.615	1.316	1.394	0.438	1.007	0.729	-1.491	-1.532	0.066	-1.047	-0.480	0.178	-0.480	-1.264	-1.235	-0.596	0.019	-0.503	0.234	0.436	0.007	0.731	-70.312
0.020	-0.894	0.123	-0.968	-0.423	-0.483	0.591	1.011	1.245	0.461	1.040	0.674	-1.522	-1.436	0.144	-1.111	-0.481	0.211	-0.501	-1.417	-1.212	-0.615	0.095	-0.571	0.285	0.331	-0.141	0.570	-66.406
0.008	-0.812	0.206	-0.841	-0.243	-0.431	0.620	0.669	1.030	0.489	1.024	0.600	-1.384	-1.162	0.194	-1.126	-0.467	0.207	-0.515	-1.472	-1.060	-0.621	0.138	-0.569	0.320	0.213	-0.246	0.388	-62.500
-0.088	-0.753	0.215	-0.712	-0.058	-0.362	0.703	0.319	0.769	0.521	0.961	0.513	-1.079	-0.726	0.211	-1.094	-0.437	0.176	-0.511	-1.418	-0.783	-0.596	0.154	-0.482	0.337	0.085	-0.297	0.198	-58.594
-0.258	-0.735	0.145	-0.605	0.101	-0.294	0.841	-0.011	0.488	0.557	0.859	0.424	-0.631	-0.169	0.189	-1.026	-0.396	0.127	-0.479	-1.264	-0.407	-0.528	0.152	-0.304	0.333	-0.049	-0.291	0.015	-54.688
-0.479	-0.761	0.003	-0.537	0.209	-0.239	1.024	-0.296	0.219	0.600	0.730	0.342	-0.083	0.447	0.130	-0.939	-0.352	0.068	-0.419	-1.038	0.020	-0.417	0.141	-0.047	0.308	-0.180	-0.226	-0.147	-50.781
-0.718	-0.826	-0.188	-0.513	0.253	-0.206	1.234	-0.518	-0.009	0.650	0.591	0.282	0.508	1.053	0.037	-0.851	-0.318	0.007	-0.339	-0.779	0.442	-0.270	0.126	0.266	0.268	-0.301	-0.109	-0.272	-46.875
-0.940	-0.909	-0.393	-0.525	0.232	-0.196	1.445	-0.664	-0.171	0.702	0.458	0.252	1.080	1.577	-0.080	-0.777	-0.307	-0.052	-0.254	-0.530	0.800	-0.104	0.112	0.601	0.216	-0.402	0.050	-0.352	-42.969
-1.109	-0.982	-0.577	-0.557	0.154	-0.208	1.625	-0.732	-0.257	0.745	0.342	0.256	1.567	1.960	-0.207	-0.723	-0.327	-0.108	-0.180	-0.326	1.047	0.058	0.101	0.921	0.161	-0.474	0.236	-0.383	-39.062
-1.197	-1.014	-0.708	-0.584	0.035	-0.235	1.737	-0.729	-0.267	0.761	0.251	0.294	1.915	2.159	-0.324	-0.686	-0.379	-0.160	-0.134	-0.188	1.155	0.193	0.094	1.188	0.108	-0.513	0.428	-0.370	-35.156
-1.187	-0.980	-0.767	-0.584	-0.107	-0.272	1.755	-0.670	-0.216	0.732	0.191	0.359	2.088	2.158	-0.412	-0.651	-0.452	-0.205	-0.124	-0.118	1.123	0.279	0.088	1.368	0.064	-0.514	0.603	-0.322	-31.250
-1.078	-0.864	-0.750	-0.539	-0.248	-0.313	1.663	-0.575	-0.126	0.640	0.161	0.442	2.074	1.965	-0.452	-0.600	-0.532	-0.243	-0.151	-0.101	0.972	0.301	0.080	1.440	0.029	-0.482	0.740	-0.255	-27.344
-0.881	-0.669	-0.670	-0.443	-0.367	-0.355	1.467	-0.470	-0.024	0.474	0.161	0.534	1.888	1.616	-0.431	-0.516	-0.599	-0.272	-0.211	-0.111	0.739	0.252	0.065	1.397	0.004	-0.423	0.820	-0.184	-23.438
-0.623	-0.412	-0.550	-0.301	-0.446	-0.392	1.193	-0.378	0.068	0.235	0.191	0.627	1.572	1.164	-0.348	-0.386	-0.638	-0.292	-0.293	-0.116	0.472	0.134	0.037	1.245	-0.016	-0.346	0.830	-0.122	-19.531
-0.333	-0.122	-0.419	-0.128	-0.470	-0.419	0.883	-0.321	0.129	-0.063	0.245	0.713	1.186	0.677	-0.210	-0.213	-0.637	-0.302	-0.384	-0.095	0.216	-0.041	-0.008	1.004	-0.034	-0.264	0.768	-0.080	-15.625
-0.045	0.166	-0.302	0.054	-0.431	-0.429	0.587	-0.312	0.148	-0.397	0.318	0.788	0.798	0.221	-0.034	-0.010	-0.593	-0.303	-0.470	-0.035	0.007	-0.255	-0.073	0.703	-0.055	-0.188	0.641	-0.063	-11.719
0.214	0.421	-0.212	0.226	-0.329	-0.414	0.351	-0.356	0.124	-0.733	0.399	0.844	0.471	-0.148	0.158	0.203	-0.512	-0.293	-0.538	0.059	-0.134	-0.482	-0.158	0.376	-0.086	-0.128	0.462	-0.074	-7.812
0.425	0.618	-0.152	0.368	-0.171	-0.363	0.204	-0.446	0.059	-1.038	0.473	0.875	0.254	-0.388	0.341	0.398	-0.404	-0.272	-0.579	0.171	-0.199	-0.697	-0.258	0.057	-0.129	-0.093	0.247	-0.111	-3.906
0.579	0.750	-0.111	0.472	0.031	-0.270	0.156	-0.570	-0.037	-1.283	0.522	0.871	0.172	-0.481	0.494	0.553	-0.282	-0.239	-0.584	0.282	-0.193	-0.875	-0.366	-0.225	-0.186	-0.089	0.017	-0.174	0.000
0.676	0.821	-0.073	0.540	0.260	-0.135	0.191	-0.710	-0.153	-1.449	0.527	0.825	0.229	-0.430	0.604	0.657	-0.158	-0.193	-0.548	0.372	-0.127	-0.994	-0.469	-0.447	-0.257	-0.118	-0.212	-0.259	3.906
0.723	0.848	-0.018	0.579	0.497	0.036	0.277	-0.846	-0.278	-1.534	0.474	0.728	0.403	-0.256	0.666	0.709	-0.040	-0.135	-0.470	0.433	-0.013	-1.042	-0.556	-0.596	-0.339	-0.181	-0.426	-0.366	7.812
0.732	0.852	0.064	0.602	0.725	0.226	0.370	-0.968	-0.404	-1.549	0.354	0.579	0.660	0.008	0.686	0.721	0.071	-0.066	-0.348	0.465	0.138	-1.014	-0.616	-0.669	-0.427	-0.274	-0.615	-0.491	11.719
0.715	0.858	0.175	0.623	0.926	0.412	0.426	-1.069	-0.527	-1.524	0.167	0.381	0.956	0.323	0.675	0.716	0.180	0.013	-0.188	0.483	0.321	-0.916	-0.641	-0.671	-0.513	-0.387	-0.770	-0.632	15.625
0.682	0.880	0.306	0.648	1.085	0.565	0.410	-1.150	-0.646	-1.494	-0.077	0.146	1.248	0.651	0.647	0.715	0.291	0.101	0.001	0.504	0.530	-0.765	-0.627	-0.613	-0.589	-0.510	-0.885	-0.780	19.531
0.643	0.926	0.438	0.679	1.192	0.661	0.302	-1.213	-0.759	-1.495	-0.357	-0.108	1.500	0.958	0.618	0.736	0.410	0.195	0.203	0.544	0.759	-0.581	-0.576	-0.511	-0.645	-0.626	-0.953	-0.926	23.438
0.604	0.992	0.551	0.713	1.240	0.681	0.102	-1.261	-0.863	-1.551	-0.644	-0.358	1.685	1.221	0.596	0.785	0.535	0.292	0.401	0.608	0.998	-0.389	-0.494	-0.381	-0.676	-0.726	-0.968	-1.058	27.344
0.569	1.067	0.626	0.741	1.232	0.620	-0.172	-1.293	-0.953	-1.672	-0.906	-0.581	1.793	1.426	0.585	0.855	0.660	0.390	0.574	0.691	1.231	-0.216	-0.390	-0.239	-0.682	-0.799	-0.928	-1.167	31.250
0.540	1.136	0.652	0.756	1.178	0.487	-0.488	-1.301	-1.016	-1.847	-1.108	-0.761	1.824	1.565	0.582	0.930	0.775	0.485	0.705	0.775	1.438	-0.081	-0.278	-0.101	-0.666	-0.847	-0.835	-1.246	35.156
0.515	1.182	0.627	0.756	1.097	0.304	-0.805	-1.276	-1.039	-2.048	-1.224	-0.886	1.791	1.644	0.580	0.986	0.867	0.574	0.783	0.835	1.601	0.005	-0.170	0.025	-0.638	-0.873	-0.696	-1.294	39.062
0.487	1.191	0.552	0.738	1.014	0.104	-1.083	-1.208	-1.013	-2.234	-1.237	-0.955	1.717	1.671	0.568	1.000	0.925	0.653	0.808	0.847	1.701	0.040	-0.076	0.133	-0.608	-0.885	-0.521	-1.311	42.969
0.447	1.151	0.436	0.707	0.954	-0.083	-1.285	-1.097	-0.932	-2.362	-1.145	-0.973	1.626	1.661	0.536	0.958	0.944	0.717	0.785	0.797	1.731	0.035	-0.001	0.223	-0.586	-0.888	-0.316	-1.300	46.875
0.382	1.057	0.284	0.665	0.933	-0.233	-1.390	-0.951	-0.800	-2.396	-0.960	-0.950	1.545	1.631	0.474	0.855	0.923	0.759	0.729	0.682	1.692	0.007	0.053	0.303	-0.571	-0.875	-0.087	-1.256	50.781
0.278	0.907	0.100	0.615	0.957	-0.332	-1.388	-0.789	-0.628	-2.312	-0.705	-0.896	1.493	1.596	0.376	0.695	0.866	0.772	0.658	0.512	1.594	-0.020	0.090	0.385	-0.553	-0.830	0.170	-1.169	54.688
0.123	0.703	-0.118	0.554	1.018	-0.385	-1.286	-0.635	-0.430	-2.103	-0.408	-0.818	1.484	1.564	0.239	0.493	0.779	0.748	0.587	0.307	1.452	-0.028	0.114	0.483	-0.513	-0.721	0.463	-1.019	58.594
-0.087	0.449	-0.370	0.472	1.094	-0.411	-1.101	-0.511	-0.218	-1.775	-0.096	-0.719	1.515	1.536	0.065	0.267	0.671	0.681	0.524	0.088	1.280	-0.007	0.132	0.609	-0.426	-0.511	0.802	-0.782	62.500
-0.351	0.151	-0.658	0.357	1.153	-0.437	-0.860	-0.428	0.005	-1.345	0.214	-0.593	1.575	1.502	-0.139	0.032	0.545	0.568	0.469	-0.130	1.082	0.042	0.147	0.768	-0.266	-0.161	1.197	-0.432	66.406
-0.656	-0.185	-0.980	0.194	1.161	-0.494	-0.590	-0.378	0.247	-0.833	0.520	-0.430	1.640	1.441	-0.362	-0.206	0.405	0.412	0.413	-0.346	0.853	0.102	0.155	0.958	-0.012	0.357	1.647	0.048	70.312
-0.984	-0.553	-1.329	-0.027	1.089	-0.607	-0.320	-0.334	0.526	-0.260	0.831	-0.214	1.684	1.327	-0.593	-0.451	0.245	0.216	0.337	-0.571	0.579	0.149	0.153	1.167	0.345	1.055	2.147	0.667	74.219
-1.313	-0.945	-1.694	-0.312	0.920	-0.788	-0.073	-0.258	0.868	0.356	1.169	0.072	1.683	1.137	-0.821	-0.713	0.056	-0.012	0.218	-0.827	0.241	0.149	0.128	1.374	0.799	1.922	2.680	1.415	78.125
-1.622	-1.351	-2.058	-0.656	0.653	-1.036	0.136	-0.107	1.288	1.000	1.556	0.440	1.624	0.854	-1.037	-1.011	-0.172	-0.268	0.033	-1.136	-0.175	0.073	0.070	1.561	1.331	2.923	3.225	2.266	82.031
-1.895	-1.759	-2.407	-1.043	0.308	-1.333	0.297	0.148	1.791	1.659	2.006	0.899	1.510	0.483	-1.235	-1.355	-0.447	-0.549	-0.230	-1.513	-0.666	-0.095	-0.031	1.711	1.908	4.000	3.756	3.175	85.938
-2.123	-2.152	-2.729	-1.447	-0.082	-1.652	0.410	0.516	2.359	2.317	2.520	1.444	1.362	0.048	-1.414	-1.745	-0.773	-0.851	-0.572	-1.950	-1.208	-0.358	-0.178	1.815	2.488	5.077	4.252	4.086	89.844
-2.307	-2.514	-3.019	-1.837	-0.471	-1.962	0.481	0.977	2.953	2.953	3.081	2.057	1.216	-0.408	-1.576	-2.165	-1.138	-1.171	-0.976	-2.416	-1.754	-0.697	-0.367	1.876	3.024	6.068	4.695	4.933	93.750
-2.453	-2.826	-3.277	-2.180	-0.812	-2.232	0.519	1.486	3.517	3.539	3.652	2.706	1.116	-0.823	-1.721	-2.582	-1.521	-1.498	-1.409	-2.863	-2.240	-1.076	-0.581	1.905	3.471	6.887	5.072	5.650	97.656
-2.573	-3.071	-3.504	-2.445	-1.061	-2.439	0.538	1.979	3.989	4.042	4.189	3.346	1.104	-1.136	-1.847	-2.952	-1.887	-1.816	-1.825	-3.229	-2.601	-1.447	-0.797	1.920	3.787	7.450	5.372	6.178	101.562
-2.672	-3.233	-3.703	-2.607	-1.188	-2.568	0.549	2.382	4.310	4.429	4.640	3.925	1.214	-1.291	-1.949	-3.226	-2.191	-2.094	-2.169	-3.455	-2.780	-1.759	-0.983	1.938	3.935	7.686	5.584	6.464	105.469
-2.754	-3.295	-3.872	-2.647	-1.178	-2.617	0.559	2.629	4.434	4.670	4.958	4.385	1.462	-1.250	-2.011	-3.356	-2.385	-2.294	-2.385	-3.493	-2.739	-1.963	-1.107	1.971	3.886	7.539	5.694	6.473	109.375
-2.810	-3.245	-4.001	-2.557	-1.033	-2.590	0.574	2.665	4.337	4.746	5.111	4.674	1.845	-1.000	-2.017	-3.306	-2.425	-2.374	-2.429	-3.315	-2.468	-2.023	-1.145	2.021	3.622	6.971	5.685	6.185	113.281
-2.828	-3.074	-4.079	-2.333	-0.769	-2.500	0.592	2.460	4.020	4.654	5.085	4.757	2.342	-0.553	-1.949	-3.055	-2.279	-2.295	-2.270	-2.916	-1.981	-1.918	-1.078	2.083	3.133	5.974	5.538	5.602	117.188
-2.789	-2.779	-4.092	-1.983	-0.410	-2.364	0.611	2.007	3.508	4.411	4.890	4.617	2.917	0.059	-1.791	-2.605	-1.933	-2.035	-1.898	-2.311	-1.312	-1.646	-0.907	2.144	2.420	4.565	5.239	4.745	121.094
-2.678	-2.364	-4.031	-1.522	0.013	-2.201	0.625	1.327	2.846	4.047	4.556	4.267	3.532	0.792	-1.542	-1.973	-1.399	-1.596	-1.330	-1.531	-0.506	-1.223	-0.646	2.190	1.501	2.796	4.783	3.662	125.000
-2.483	-1.844	-3.892	-0.976	0.467	-2.030	0.626	0.461	2.092	3.606	4.133	3.745	4.144	1.593	-1.207	-1.196	-0.710	-1.002	-0.602	-0.619	0.388	-0.680	-0.322	2.206	0.408	0.749	4.181	2.416	128.906
-2.206	-1.243	-3.686	-0.378	0.923	-1.870	0.607	-0.535	1.311	3.136	3.674	3.108	4.717	2.414	-0.807	-0.321	0.082	-0.304	0.230	0.377	1.322	-0.056	0.031	2.186	-0.812	-1.463	3.459	1.090	132.812
-1.859	-0.596	-3.431	0.234	1.355	-1.734	0.561	-1.598	0.561	2.679	3.236	2.428	5.221	3.212	-0.370	0.596	0.912	0.432	1.102	1.409	2.254	0.604	0.377	2.131	-2.097	-3.710	2.662	-0.224	136.719
-1.467	0.058	-3.154	0.819	1.738	-1.637	0.484	-2.663	-0.110	2.266	2.864	1.780	5.638	3.949	0.072	1.500	1.716	1.132	1.948	2.426	3.143	1.259	0.685	2.049	-3.375	-5.850	1.844	-1.434	140.625
-1.061	0.674	-2.887	1.339	2.055	-1.587	0.373	-3.668	-0.669	1.915	2.589	1.230	5.952	4.595	0.485	2.336	2.433	1.731	2.709	3.375	3.951	1.870	0.935	1.953	-4.568	-7.746	1.068	-2.457	144.531
-0.673	1.212	-2.655	1.764	2.292	-1.590	0.229	-4.562	-1.097	1.626	2.426	0.831	6.156	5.124	0.844	3.058	3.016	2.177	3.338	4.209	4.640	2.406	1.114	1.856	-5.604	-9.280	0.392	-3.224	148.438
-0.330	1.641	-2.477	2.074	2.440	-1.648	0.052	-5.305	-1.390	1.386	2.369	0.609	6.239	5.512	1.132	3.632	3.436	2.442	3.807	4.887	5.177	2.843	1.222	1.767	-6.421	-10.363	-0.135	-3.691	152.344
-0.054	1.940	-2.358	2.261	2.496	-1.756	-0.157	-5.868	-1.556	1.177	2.400	0.570	6.195	5.740	1.342	4.037	3.683	2.522	4.105	5.378	5.535	3.166	1.262	1.688	-6.973	-10.942	-0.481	-3.841	156.250
0.146	2.104	-2.294	2.331	2.466	-1.904	-0.395	-6.237	-1.607	0.981	2.487	0.692	6.018	5.793	1.477	4.270	3.768	2.438	4.240	5.672	5.702	3.365	1.243	1.613	-7.239	-11.006	-0.632	-3.684	160.156
0.269	2.143	-2.270	2.299	2.360	-2.078	-0.661	-6.410	-1.561	0.786	2.597	0.935	5.702	5.669	1.544	4.343	3.713	2.224	4.229	5.776	5.680	3.437	1.173	1.532	-7.219	-10.580	-0.592	-3.253	164.062
0.322	2.077	-2.269	2.188	2.197	-2.257	-0.950	-6.392	-1.432	0.590	2.700	1.251	5.253	5.373	1.553	4.281	3.546	1.918	4.100	5.716	5.492	3.386	1.056	1.434	-6.936	-9.723	-0.382	-2.602	167.969
0.316	1.931	-2.273	2.022	1.999	-2.418	-1.249	-6.198	-1.232	0.406	2.779	1.589	4.685	4.929	1.511	4.111	3.297	1.554	3.876	5.528	5.170	3.219	0.894	1.315	-6.431	-8.516	-0.031	-1.789	171.875
0.263	1.734	-2.268	1.825	1.791	-2.536	-1.542	-5.841	-0.964	0.256	2.828	1.908	4.028	4.370	1.417	3.860	2.984	1.155	3.579	5.248	4.754	2.948	0.687	1.177	-5.756	-7.056	0.425	-0.877	175.781
0.173	1.510	-2.247	1.617	1.596	-2.590	-1.802	-5.338	-0.623	0.170	2.857	2.182	3.323	3.742	1.268	3.547	2.618	0.728	3.219	4.906	4.282	2.590	0.433	1.030	-4.974	-5.447	0.950	0.075	179.688
0.051	1.277	-2.209	1.411	1.435	-2.565	-1.999	-4.706	-0.203	0.179	2.889	2.401	2.624	3.097	1.054	3.179	2.201	0.270	2.803	4.519	3.787	2.168	0.134	0.896	-4.145	-3.786	1.513	1.017	183.594
-0.102	1.043	-2.161	1.215	1.321	-2.456	-2.099	-3.961	0.302	0.307	2.950	2.572	1.987	2.485	0.768	2.755	1.728	-0.226	2.331	4.090	3.289	1.706	-0.202	0.798	-3.323	-2.165	2.087	1.912	187.500
-0.288	0.808	-2.113	1.030	1.261	-2.269	-2.075	-3.127	0.891	0.568	3.066	2.713	1.468	1.952	0.403	2.270	1.192	-0.769	1.803	3.615	2.804	1.229	-0.564	0.762	-2.549	-0.653	2.653	2.732	191.406
-0.514	0.563	-2.079	0.852	1.252	-2.022	-1.905	-2.231	1.547	0.962	3.255	2.848	1.110	1.534	-0.041	1.719	0.592	-1.362	1.222	3.089	2.344	0.762	-0.932	0.810	-1.852	0.699	3.203	3.462	195.312
-0.786	0.298	-2.077	0.675	1.285	-1.742	-1.583	-1.311	2.243	1.475	3.524	3.001	0.943	1.254	-0.555	1.107	-0.065	-1.997	0.601	2.517	1.922	0.326	-1.286	0.955	-1.242	1.862	3.734	4.094	199.219
-1.107	0.002	-2.119	0.491	1.346	-1.459	-1.117	-0.411	2.937	2.083	3.863	3.188	0.975	1.120	-1.124	0.447	-0.762	-2.657	-0.039	1.916	1.555	-0.057	-1.603	1.200	-0.719	2.828	4.248	4.630	203.125
-1.477	-0.331	-2.220	0.295	1.419	-1.203	-0.533	0.418	3.585	2.755	4.251	3.417	1.194	1.127	-1.724	-0.232	-1.469	-3.317	-0.668	1.319	1.262	-0.371	-1.864	1.537	-0.273	3.606	4.750	5.075	207.031
-1.888	-0.699	-2.385	0.085	1.490	-0.999	0.133	1.132	4.141	3.457	4.659	3.682	1.574	1.261	-2.327	-0.897	-2.153	-3.945	-1.248	0.765	1.062	-0.601	-2.054	1.950	0.110	4.213	5.242	5.438	210.938
-2.329	-1.094	-2.617	-0.134	1.551	-0.862	0.840	1.691	4.570	4.155	5.053	3.969	2.073	1.498	-2.907	-1.510	-2.776	-4.514	-1.745	0.296	0.965	-0.734	-2.162	2.416	0.443	4.674	5.725	5.733	214.844
-2.787	-1.502	-2.910	-0.357	1.601	-0.796	1.547	2.074	4.852	4.821	5.403	4.256	2.645	1.810	-3.441	-2.044	-3.308	-4.999	-2.126	-0.059	0.976	-0.764	-2.186	2.911	0.738	5.011	6.197	5.970	218.750
-3.247	-1.907	-3.255	-0.576	1.643	-0.794	2.221	2.281	4.986	5.432	5.687	4.519	3.244	2.169	-3.914	-2.479	-3.729	-5.385	-2.371	-0.288	1.083	-0.686	-2.127	3.413	1.001	5.250	6.652	6.163	222.656
-3.697	-2.296	-3.636	-0.785	1.683	-0.845	2.838	2.331	4.987	5.969	5.890	4.737	3.832	2.547	-4.318	-2.815	-4.031	-5.666	-2.477	-0.398	1.263	-0.503	-1.990	3.907	1.240	5.413	7.085	6.320	226.562
-4.130	-2.658	-4.035	-0.980	1.727	-0.933	3.386	2.259	4.883	6.422	6.011	4.895	4.379	2.921	-4.656	-3.061	-4.223	-5.849	-2.454	-0.419	1.483	-0.223	-1.783	4.383	1.459	5.520	7.493	6.452	230.469
-4.545	-2.990	-4.433	-1.161	1.776	-1.043	3.857	2.107	4.712	6.786	6.055	4.988	4.865	3.272	-4.934	-3.243	-4.323	-5.946	-2.326	-0.390	1.710	0.138	-1.516	4.838	1.666	5.594	7.879	6.566	234.375
-4.944	-3.292	-4.816	-1.331	1.826	-1.167	4.256	1.920	4.508	7.059	6.037	5.019	5.285	3.589	-5.166	-3.386	-4.357	-5.977	-2.127	-0.357	1.910	0.557	-1.202	5.277	1.870	5.656	8.249	6.671	238.281
-5.331	-3.573	-5.175	-1.499	1.870	-1.302	4.587	1.733	4.301	7.249	5.974	5.001	5.641	3.870	-5.364	-3.517	-4.356	-5.964	-1.895	-0.356	2.062	1.008	-0.852	5.705	2.079	5.724	8.614	6.772	242.188
-5.712	-3.840	-5.503	-1.670	1.898	-1.450	4.861	1.573	4.113	7.367	5.886	4.951	5.944	4.118	-5.543	-3.658	-4.346	-5.932	-1.666	-0.409	2.159	1.465	-0.484	6.127	2.301	5.813	8.982	6.874	246.094
-6.089	-4.099	-5.800	-1.849	1.905	-1.615	5.092	1.452	3.953	7.433	5.791	4.886	6.209	4.342	-5.717	-3.818	-4.352	-5.906	-1.468	-0.520	2.206	1.902	-0.116	6.548	2.540	5.930	9.361	6.982	250.000
-6.461	-4.354	-6.066	-2.035	1.889	-1.799	5.295	1.371	3.822	7.468	5.707	4.827	6.455	4.557	-5.895	-3.999	-4.388	-5.906	-1.321	-0.674	2.221	2.297	0.227	6.966	2.790	6.075	9.751	7.098	253.906
-6.819	-4.603	-6.300	-2.225	1.856	-1.999	5.483	1.327	3.714	7.502	5.650	4.790	6.699	4.773	-6.085	-4.193	-4.460	-5.947	-1.232	-0.847	2.225	2.634	0.524	7.374	3.039	6.237	10.147	7.220	257.812
-7.156	-4.841	-6.500	-2.407	1.818	-2.206	5.670	1.310	3.621	7.561	5.630	4.789	6.958	4.999	-6.292	-4.389	-4.567	-6.037	-1.201	-1.010	2.238	2.902	0.752	7.761	3.270	6.403	10.538	7.347	261.719
-7.460	-5.058	-6.663	-2.567	1.790	-2.406	5.865	1.309	3.535	7.675	5.654	4.832	7.245	5.241	-6.514	-4.572	-4.701	-6.175	-1.218	-1.141	2.273	3.100	0.893	8.116	3.462	6.554	10.912	7.477	265.625
-7.723	-5.243	-6.784	-2.693	1.789	-2.585	6.077	1.316	3.453	7.864	5.724	4.923	7.572	5.498	-6.746	-4.731	-4.849	-6.351	-1.268	-1.226	2.334	3.231	0.938	8.424	3.593	6.669	11.255	7.605	269.531
-7.939	-5.385	-6.862	-2.770	1.828	-2.727	6.310	1.323	3.373	8.139	5.836	5.059	7.944	5.770	-6.978	-4.857	-4.995	-6.550	-1.334	-1.261	2.420	3.303	0.888	8.676	3.646	6.733	11.554	7.726	273.438
-8.109	-5.476	-6.899	-2.789	1.917	-2.825	6.566	1.325	3.294	8.497	5.978	5.229	8.362	6.051	-7.198	-4.941	-5.122	-6.752	-1.398	-1.252	2.525	3.331	0.757	8.866	3.612	6.732	11.798	7.832	277.344
-8.238	-5.510	-6.905	-2.748	2.062	-2.877	6.844	1.316	3.215	8.920	6.134	5.414	8.821	6.339	-7.391	-4.979	-5.215	-6.936	-1.441	-1.204	2.646	3.332	0.568	8.995	3.493	6.660	11.980	7.913	281.250
-8.333	-5.486	-6.892	-2.648	2.259	-2.886	7.142	1.289	3.129	9.373	6.278	5.588	9.309	6.633	-7.548	-4.970	-5.259	-7.080	-1.449	-1.123	2.779	3.327	0.355	9.069	3.301	6.518	12.095	7.960	285.156
-8.407	-5.411	-6.880	-2.500	2.502	-2.866	7.450	1.237	3.027	9.811	6.384	5.727	9.810	6.931	-7.661	-4.910	-5.245	-7.171	-1.409	-1.010	2.929	3.335	0.153	9.101	3.060	6.319	12.147	7.963	289.062
-8.470	-5.294	-6.883	-2.318	2.774	-2.827	7.754	1.152	2.900	10.187	6.428	5.804	10.302	7.235	-7.728	-4.801	-5.168	-7.199	-1.317	-0.864	3.098	3.373	-0.004	9.108	2.803	6.080	12.142	7.918	292.969
-8.530	-5.147	-6.914	-2.116	3.059	-2.785	8.035	1.028	2.737	10.460	6.389	5.800	10.763	7.544	-7.752	-4.645	-5.028	-7.161	-1.170	-0.680	3.292	3.452	-0.087	9.107	2.562	5.828	12.093	7.827	296.875
-8.594	-4.979	-6.973	-1.909	3.335	-2.748	8.271	0.856	2.530	10.598	6.255	5.703	11.170	7.854	-7.736	-4.443	-4.831	-7.063	-0.974	-0.453	3.513	3.577	-0.083	9.116	2.369	5.586	12.014	7.692	300.781
-8.660	-4.796	-7.051	-1.704	3.586	-2.722	8.438	0.632	2.274	10.589	6.021	5.508	11.505	8.162	-7.686	-4.197	-4.583	-6.912	-0.734	-0.181	3.763	3.749	0.012	9.146	2.239	5.373	11.913	7.515	304.688
-8.724	-4.599	-7.129	-1.502	3.796	-2.705	8.520	0.354	1.965	10.440	5.691	5.213	11.755	8.466	-7.605	-3.906	-4.291	-6.715	-0.456	0.141	4.043	3.964	0.191	9.201	2.178	5.193	11.792	7.295	308.594
-8.775	-4.384	-7.181	-1.297	3.962	-2.691	8.511	0.024	1.606	10.171	5.272	4.824	11.915	8.762	-7.492	-3.567	-3.962	-6.479	-0.141	0.514	4.353	4.216	0.436	9.275	2.171	5.037	11.644	7.027	312.500
-8.804	-4.143	-7.186	-1.082	4.086	-2.672	8.419	-0.348	1.197	9.815	4.778	4.350	11.987	9.051	-7.349	-3.177	-3.598	-6.210	0.211	0.940	4.694	4.501	0.726	9.357	2.192	4.882	11.454	6.700	316.406
-8.801	-3.873	-7.128	-0.846	4.180	-2.640	8.265	-0.748	0.745	9.408	4.222	3.803	11.981	9.333	-7.174	-2.733	-3.202	-5.909	0.603	1.417	5.066	4.817	1.040	9.429	2.209	4.698	11.205	6.307	320.312
-8.765	-3.574	-7.006	-0.585	4.259	-2.592	8.082	-1.153	0.264	8.985	3.623	3.201	11.910	9.607	-6.970	-2.239	-2.776	-5.578	1.039	1.938	5.468	5.159	1.360	9.474	2.190	4.457	10.883	5.845	324.219
-8.699	-3.256	-6.833	-0.304	4.336	-2.530	7.904	-1.540	-0.230	8.574	3.008	2.570	11.790	9.870	-6.741	-1.706	-2.322	-5.219	1.514	2.489	5.892	5.522	1.672	9.479	2.117	4.145	10.489	5.322	328.125
-8.616	-2.939	-6.636	-0.018	4.420	-2.464	7.762	-1.882	-0.709	8.198	2.405	1.943	11.635	10.113	-6.493	-1.152	-1.847	-4.837	2.023	3.048	6.321	5.897	1.970	9.438	1.984	3.765	10.041	4.764	332.031
-8.534	-2.651	-6.451	0.249	4.511	-2.412	7.674	-2.160	-1.144	7.872	1.849	1.355	11.455	10.321	-6.237	-0.604	-1.360	-4.439	2.548	3.590	6.735	6.273	2.251	9.357	1.807	3.338	9.570	4.207	335.938
-8.477	-2.421	-6.318	0.465	4.602	-2.391	7.642	-2.363	-1.508	7.604	1.375	0.845	11.262	10.480	-5.983	-0.090	-0.873	-4.035	3.069	4.085	7.109	6.635	2.519	9.251	1.613	2.905	9.120	3.696	339.844
-8.462	-2.276	-6.273	0.604	4.679	-2.419	7.655	-2.490	-1.779	7.399	1.012	0.446	11.063	10.574	-5.742	0.362	-0.402	-3.640	3.563	4.508	7.418	6.968	2.777	9.139	1.436	2.511	8.738	3.274	343.750
-8.506	-2.231	-6.338	0.647	4.729	-2.505	7.687	-2.547	-1.948	7.259	0.776	0.179	10.868	10.595	-5.522	0.732	0.037	-3.268	4.007	4.842	7.645	7.260	3.029	9.043	1.311	2.199	8.461	2.974	347.656
-8.614	-2.288	-6.523	0.590	4.744	-2.650	7.712	-2.547	-2.020	7.179	0.673	0.053	10.688	10.546	-5.331	1.011	0.428	-2.936	4.380	5.081	7.781	7.501	3.271	8.982	1.261	2.000	8.309	2.811	351.562
-8.784	-2.433	-6.815	0.445	4.721	-2.845	7.708	-2.503	-2.009	7.156	0.690	0.058	10.537	10.439	-5.171	1.199	0.757	-2.660	4.668	5.230	7.830	7.685	3.496	8.967	1.292	1.922	8.285	2.781	355.469
-9.004	-2.639	-7.192	0.239	4.668	-3.075	7.667	-2.427	-1.936	7.184	0.806	0.168	10.429	10.302	-5.045	1.305	1.012	-2.454	4.865	5.302	7.807	7.812	3.693	8.999	1.397	1.958	8.370	2.859	359.375
-9.259	-2.873	-7.617	0.003	4.597	-3.320	7.592	-2.323	-1.822	7.255	0.992	0.349	10.380	10.166	-4.953	1.345	1.185	-2.326	4.969	5.316	7.737	7.886	3.849	9.073	1.556	2.080	8.535	3.011	363.281
-9.533	-3.104	-8.054	-0.231	4.524	-3.563	7.502	-2.192	-1.684	7.362	1.219	0.559	10.401	10.066	-4.900	1.335	1.272	-2.281	4.989	5.293	7.648	7.918	3.956	9.179	1.744	2.258	8.745	3.196	367.188
-9.810	-3.308	-8.471	-0.438	4.463	-3.790	7.419	-2.034	-1.528	7.495	1.459	0.760	10.498	10.031	-4.887	1.289	1.277	-2.315	4.941	5.252	7.567	7.922	4.009	9.306	1.938	2.460	8.969	3.381	371.094
-10.077	-3.477	-8.845	-0.608	4.422	-3.997	7.362	-1.845	-1.358	7.643	1.691	0.922	10.664	10.075	-4.919	1.220	1.210	-2.417	4.844	5.210	7.516	7.914	4.014	9.445	2.123	2.662	9.185	3.542	375.000
-10.323	-3.610	-9.165	-0.743	4.398	-4.187	7.335	-1.627	-1.171	7.792	1.901	1.031	10.881	10.197	-4.995	1.139	1.088	-2.570	4.722	5.176	7.506	7.909	3.983	9.586	2.294	2.851	9.380	3.670	378.906
-10.537	-3.719	-9.429	-0.855	4.383	-4.365	7.327	-1.385	-0.969	7.926	2.080	1.085	11.120	10.380	-5.107	1.055	0.934	-2.751	4.596	5.158	7.539	7.918	3.933	9.721	2.452	3.024	9.548	3.768	382.812
-10.707	-3.817	-9.641	-0.960	4.360	-4.539	7.311	-1.133	-0.757	8.025	2.223	1.098	11.341	10.590	-5.241	0.976	0.776	-2.931	4.488	5.159	7.606	7.945	3.878	9.841	2.607	3.184	9.683	3.845	386.719
-10.819	-3.913	-9.807	-1.073	4.314	-4.711	7.249	-0.887	-0.550	8.066	2.323	1.088	11.501	10.788	-5.371	0.914	0.642	-3.084	4.413	5.178	7.692	7.986	3.834	9.930	2.765	3.335	9.777	3.909	390.625
-10.856	-4.009	-9.929	-1.198	4.233	-4.878	7.105	-0.671	-0.372	8.024	2.367	1.072	11.558	10.934	-5.469	0.880	0.559	-3.181	4.382	5.218	7.778	8.033	3.808	9.970	2.931	3.476	9.813	3.960	394.531
-10.802	-4.097	-10.001	-1.330	4.113	-5.029	6.848	-0.505	-0.250	7.877	2.343	1.058	11.479	10.991	-5.502	0.888	0.550	-3.201	4.402	5.277	7.846	8.074	3.804	9.935	3.099	3.603	9.768	3.990	398.438
-10.643	-4.158	-10.014	-1.455	3.962	-5.149	6.468	-0.406	-0.211	7.609	2.233	1.042	11.243	10.938	-5.443	0.946	0.628	-3.127	4.473	5.355	7.879	8.093	3.817	9.801	3.260	3.705	9.614	3.983	402.344
-10.374	-4.172	-9.955	-1.549	3.795	-5.217	5.972	-0.380	-0.272	7.215	2.027	1.010	10.846	10.765	-5.276	1.055	0.792	-2.957	4.587	5.446	7.869	8.078	3.843	9.547	3.398	3.770	9.327	3.917	406.250
-9.997	-4.121	-9.812	-1.591	3.633	-5.215	5.388	-0.418	-0.430	6.705	1.723	0.942	10.304	10.480	-4.998	1.209	1.028	-2.700	4.728	5.542	7.811	8.018	3.871	9.161	3.496	3.783	8.890	3.772	410.156
-9.530	-3.990	-9.577	-1.558	3.504	-5.127	4.764	-0.495	-0.663	6.111	1.331	0.811	9.654	10.106	-4.629	1.395	1.312	-2.381	4.875	5.635	7.713	7.908	3.888	8.644	3.537	3.734	8.297	3.530	414.062
-9.000	-3.777	-9.252	-1.439	3.432	-4.944	4.160	-0.575	-0.932	5.477	0.875	0.594	8.945	9.681	-4.200	1.593	1.611	-2.031	5.008	5.715	7.589	7.748	3.884	8.010	3.504	3.607	7.561	3.181	417.969
-8.441	-3.488	-8.845	-1.229	3.440	-4.663	3.639	-0.611	-1.183	4.863	0.390	0.275	8.237	9.248	-3.753	1.785	1.890	-1.686	5.107	5.781	7.464	7.543	3.845	7.287	3.381	3.383	6.702	2.718	421.875
-7.888	-3.137	-8.372	-0.932	3.546	-4.291	3.261	-0.562	-1.365	4.327	-0.084	-0.153	7.588	8.854	-3.331	1.959	2.125	-1.377	5.163	5.837	7.365	7.303	3.760	6.508	3.150	3.041	5.753	2.141	425.781
-7.374	-2.744	-7.853	-0.564	3.755	-3.844	3.068	-0.395	-1.436	3.921	-0.506	-0.683	7.046	8.537	-2.969	2.110	2.301	-1.127	5.176	5.891	7.318	7.043	3.624	5.713	2.795	2.556	4.751	1.456	429.688
-6.922	-2.330	-7.312	-0.147	4.064	-3.344	3.081	-0.096	-1.375	3.681	-0.841	-1.288	6.640	8.320	-2.686	2.241	2.418	-0.943	5.157	5.957	7.338	6.778	3.434	4.936	2.307	1.907	3.733	0.675	433.594
-6.545	-1.919	-6.774	0.291	4.454	-2.820	3.288	0.324	-1.182	3.618	-1.063	-1.924	6.378	8.209	-2.486	2.356	2.488	-0.818	5.121	6.041	7.427	6.527	3.198	4.210	1.686	1.089	2.739	-0.174	437.500
-6.247	-1.536	-6.265	0.716	4.898	-2.305	3.651	0.835	-0.884	3.719	-1.158	-2.535	6.247	8.190	-2.358	2.463	2.530	-0.736	5.088	6.146	7.571	6.303	2.931	3.559	0.950	0.119	1.807	-1.052	441.406
-6.025	-1.204	-5.810	1.095	5.357	-1.832	4.105	1.385	-0.525	3.947	-1.129	-3.059	6.221	8.234	-2.282	2.561	2.563	-0.676	5.072	6.262	7.741	6.121	2.658	3.006	0.137	-0.956	0.977	-1.904	445.312
-5.873	-0.942	-5.433	1.397	5.790	-1.432	4.576	1.914	-0.160	4.250	-0.994	-3.438	6.262	8.306	-2.235	2.647	2.603	-0.618	5.083	6.372	7.904	5.992	2.405	2.570	-0.697	-2.064	0.288	-2.671	449.219
-5.780	-0.768	-5.152	1.599	6.160	-1.129	4.986	2.360	0.157	4.570	-0.784	-3.634	6.339	8.377	-2.198	2.712	2.658	-0.549	5.125	6.458	8.027	5.921	2.202	2.267	-1.484	-3.114	-0.226	-3.294	453.125
-5.741	-0.689	-4.981	1.690	6.434	-0.938	5.271	2.670	0.380	4.855	-0.540	-3.635	6.426	8.424	-2.160	2.748	2.727	-0.463	5.195	6.502	8.088	5.913	2.071	2.106	-2.153	-4.015	-0.540	-3.725	457.031
-5.744	-0.704	-4.922	1.669	6.594	-0.864	5.390	2.803	0.478	5.060	-0.305	-3.456	6.509	8.437	-2.119	2.747	2.804	-0.363	5.286	6.498	8.079	5.965	2.029	2.090	-2.646	-4.693	-0.649	-3.943	460.938
-5.780	-0.802	-4.966	1.553	6.635	-0.900	5.324	2.739	0.435	5.155	-0.123	-3.145	6.585	8.422	-2.076	2.711	2.878	-0.256	5.391	6.451	8.010	6.072	2.081	2.208	-2.926	-5.102	-0.565	-3.954	464.844
-5.836	-0.961	-5.093	1.366	6.564	-1.033	5.085	2.479	0.254	5.123	-0.028	-2.767	6.656	8.391	-2.034	2.648	2.941	-0.147	5.503	6.381	7.907	6.224	2.221	2.436	-2.982	-5.234	-0.321	-3.791	468.750
-5.899	-1.157	-5.277	1.140	6.398	-1.241	4.700	2.041	-0.048	4.957	-0.044	-2.393	6.724	8.357	-1.994	2.571	2.988	-0.041	5.616	6.314	7.801	6.408	2.433	2.738	-2.832	-5.111	0.032	-3.507	472.656
-5.953	-1.362	-5.485	0.909	6.158	-1.495	4.215	1.463	-0.444	4.660	-0.178	-2.087	6.789	8.333	-1.954	2.494	3.018	0.062	5.724	6.274	7.718	6.606	2.693	3.068	-2.513	-4.779	0.438	-3.162	476.562
-5.985	-1.552	-5.684	0.699	5.866	-1.768	3.676	0.793	-0.897	4.242	-0.421	-1.892	6.843	8.321	-1.907	2.425	3.031	0.166	5.822	6.275	7.673	6.799	2.974	3.382	-2.073	-4.295	0.840	-2.810	480.469
-5.988	-1.712	-5.845	0.530	5.545	-2.030	3.126	0.092	-1.364	3.722	-0.750	-1.825	6.867	8.310	-1.848	2.364	3.029	0.276	5.899	6.314	7.662	6.968	3.249	3.639	-1.563	-3.713	1.193	-2.488	484.375
-5.957	-1.835	-5.944	0.410	5.213	-2.252	2.601	-0.578	-1.800	3.123	-1.131	-1.875	6.841	8.281	-1.768	2.302	3.012	0.392	5.943	6.369	7.665	7.094	3.496	3.809	-1.028	-3.080	1.468	-2.216	488.281
-5.894	-1.921	-5.964	0.340	4.892	-2.410	2.122	-1.156	-2.160	2.478	-1.522	-2.010	6.743	8.211	-1.667	2.223	2.978	0.514	5.942	6.406	7.650	7.164	3.697	3.876	-0.505	-2.432	1.651	-1.997	492.188
-5.806	-1.975	-5.897	0.316	4.599	-2.483	1.698	-1.589	-2.410	1.823	-1.885	-2.188	6.552	8.075	-1.544	2.112	2.921	0.634	5.885	6.389	7.583	7.165	3.840	3.836	-0.021	-1.800	1.738	-1.825	496.094
-5.700	-2.003	-5.740	0.332	4.355	-2.458	1.334	-1.842	-2.527	1.197	-2.188	-2.367	6.261	7.857	-1.407	1.959	2.838	0.739	5.765	6.294	7.444	7.093	3.920	3.693	0.401	-1.213	1.731	-1.693	500.000
-5.579	-2.005	-5.497	0.386	4.180	-2.327	1.030	-1.895	-2.504	0.637	-2.409	-2.519	5.872	7.555	-1.265	1.763	2.725	0.818	5.584	6.112	7.230	6.949	3.937	3.457	0.740	-0.702	1.634	-1.601	503.906
-5.443	-1.978	-5.175	0.477	4.092	-2.089	0.787	-1.754	-2.353	0.174	-2.543	-2.629	5.397	7.179	-1.125	1.538	2.587	0.862	5.353	5.860	6.955	6.740	3.896	3.137	0.977	-0.305	1.440	-1.559	507.812
-5.286	-1.914	-4.785	0.610	4.102	-1.753	0.606	-1.445	-2.103	-0.173	-2.595	-2.706	4.859	6.752	-0.991	1.308	2.435	0.872	5.094	5.572	6.654	6.479	3.805	2.742	1.091	-0.063	1.140	-1.588	511.719
-5.096	-1.799	-4.341	0.791	4.215	-1.332	0.488	-1.011	-1.794	-0.397	-2.586	-2.769	4.287	6.305	-0.863	1.106	2.287	0.859	4.835	5.297	6.367	6.182	3.675	2.280	1.065	-0.016	0.718	-1.714	515.625
-4.861	-1.622	-3.855	1.025	4.427	-0.846	0.430	-0.512	-1.472	-0.510	-2.544	-2.847	3.710	5.871	-0.733	0.962	2.169	0.843	4.606	5.081	6.133	5.870	3.522	1.758	0.887	-0.192	0.165	-1.958	519.531
-4.572	-1.373	-3.342	1.315	4.724	-0.320	0.425	-0.009	-1.182	-0.541	-2.500	-2.968	3.153	5.480	-0.590	0.905	2.105	0.853	4.439	4.967	5.981	5.566	3.359	1.187	0.558	-0.601	-0.520	-2.331	523.438
-4.231	-1.053	-2.819	1.659	5.087	0.218	0.459	0.441	-0.958	-0.528	-2.483	-3.150	2.640	5.156	-0.421	0.950	2.118	0.913	4.355	4.978	5.927	5.289	3.202	0.582	0.090	-1.230	-1.319	-2.828	527.344
-3.849	-0.673	-2.303	2.044	5.491	0.741	0.514	0.792	-0.821	-0.515	-2.514	-3.398	2.187	4.915	-0.222	1.103	2.221	1.042	4.365	5.121	5.972	5.058	3.060	-0.033	-0.486	-2.034	-2.192	-3.422	531.250
-3.449	-0.256	-1.818	2.452	5.906	1.219	0.570	1.014	-0.777	-0.544	-2.604	-3.700	1.809	4.762	0.006	1.351	2.413	1.242	4.469	5.383	6.105	4.886	2.942	-0.626	-1.125	-2.946	-3.077	-4.066	535.156
-3.063	0.168	-1.390	2.857	6.301	1.627	0.610	1.103	-0.817	-0.646	-2.748	-4.034	1.512	4.691	0.249	1.674	2.680	1.497	4.651	5.736	6.305	4.781	2.851	-1.161	-1.774	-3.875	-3.900	-4.700	539.062
-2.727	0.562	-1.045	3.229	6.646	1.942	0.623	1.070	-0.925	-0.834	-2.934	-4.364	1.301	4.689	0.485	2.036	2.995	1.778	4.885	6.137	6.541	4.743	2.785	-1.597	-2.370	-4.725	-4.579	-5.256	542.969
-2.472	0.890	-0.805	3.533	6.908	2.152	0.606	0.947	-1.074	-1.101	-3.136	-4.654	1.176	4.735	0.684	2.399	3.319	2.044	5.137	6.536	6.780	4.765	2.742	-1.898	-2.856	-5.403	-5.040	-5.668	546.875
-2.318	1.118	-0.684	3.738	7.062	2.247	0.567	0.774	-1.238	-1.415	-3.323	-4.864	1.133	4.801	0.819	2.717	3.609	2.254	5.369	6.879	6.983	4.831	2.714	-2.041	-3.185	-5.834	-5.226	-5.885	550.781
-2.272	1.224	-0.685	3.816	7.083	2.228	0.518	0.592	-1.388	-1.729	-3.460	-4.963	1.163	4.857	0.864	2.949	3.823	2.372	5.545	7.115	7.110	4.919	2.697	-2.014	-3.325	-5.972	-5.109	-5.873	554.688
-2.326	1.198	-0.798	3.752	6.960	2.101	0.474	0.439	-1.499	-1.986	-3.511	-4.926	1.256	4.870	0.808	3.060	3.926	2.377	5.634	7.199	7.126	5.005	2.683	-1.825	-3.267	-5.804	-4.692	-5.624	558.594
-2.462	1.041	-1.001	3.540	6.688	1.874	0.447	0.333	-1.555	-2.131	-3.449	-4.740	1.402	4.819	0.652	3.028	3.899	2.267	5.617	7.106	7.007	5.066	2.669	-1.494	-3.020	-5.355	-4.006	-5.156	562.500
-2.654	0.770	-1.268	3.191	6.281	1.560	0.443	0.275	-1.552	-2.126	-3.259	-4.407	1.589	4.691	0.410	2.851	3.742	2.059	5.494	6.834	6.745	5.088	2.655	-1.053	-2.613	-4.678	-3.112	-4.510	566.406
-2.874	0.415	-1.568	2.731	5.767	1.174	0.460	0.242	-1.503	-1.958	-2.944	-3.947	1.809	4.489	0.112	2.551	3.478	1.788	5.279	6.407	6.360	5.067	2.644	-0.542	-2.089	-3.848	-2.088	-3.747	570.312
-3.098	0.013	-1.876	2.202	5.188	0.736	0.490	0.195	-1.433	-1.645	-2.532	-3.398	2.049	4.235	-0.205	2.170	3.149	1.501	5.007	5.879	5.892	5.015	2.644	0.001	-1.498	-2.952	-1.025	-2.944	574.219
-3.305	-0.389	-2.170	1.653	4.597	0.268	0.521	0.088	-1.379	-1.235	-2.069	-2.816	2.295	3.962	-0.496	1.770	2.814	1.253	4.727	5.324	5.404	4.954	2.665	0.536	-0.896	-2.081	-0.018	-2.180	578.125
-3.480	-0.745	-2.437	1.142	4.048	-0.201	0.538	-0.119	-1.380	-0.797	-1.617	-2.271	2.527	3.709	-0.720	1.423	2.539	1.091	4.494	4.829	4.967	4.912	2.716	1.024	-0.334	-1.314	0.842	-1.537	582.031
-3.607	-1.009	-2.661	0.723	3.593	-0.637	0.526	-0.448	-1.467	-0.413	-1.247	-1.836	2.718	3.511	-0.839	1.199	2.383	1.055	4.359	4.478	4.650	4.917	2.801	1.427	0.139	-0.722	1.475	-1.085	585.938
-3.672	-1.142	-2.831	0.444	3.270	-1.006	0.472	-0.895	-1.656	-0.157	-1.022	-1.579	2.839	3.393	-0.829	1.154	2.391	1.162	4.362	4.334	4.502	4.986	2.922	1.710	0.484	-0.352	1.819	-0.875	589.844
-3.659	-1.118	-2.929	0.334	3.100	-1.274	0.363	-1.423	-1.938	-0.085	-0.989	-1.550	2.857	3.360	-0.678	1.317	2.582	1.409	4.517	4.428	4.543	5.125	3.072	1.839	0.677	-0.229	1.837	-0.935	593.750
-3.558	-0.928	-2.939	0.402	3.078	-1.417	0.188	-1.971	-2.284	-0.223	-1.166	-1.766	2.747	3.396	-0.397	1.681	2.942	1.771	4.814	4.750	4.761	5.322	3.237	1.794	0.707	-0.350	1.530	-1.260	597.656
-3.363	-0.588	-2.845	0.634	3.182	-1.423	-0.061	-2.458	-2.649	-0.563	-1.536	-2.208	2.494	3.470	-0.012	2.202	3.427	2.206	5.213	5.247	5.105	5.548	3.400	1.569	0.584	-0.684	0.934	-1.811	601.562
-3.082	-0.136	-2.638	0.989	3.369	-1.297	-0.385	-2.805	-2.976	-1.062	-2.051	-2.820	2.101	3.537	0.435	2.807	3.970	2.659	5.655	5.829	5.502	5.767	3.540	1.180	0.335	-1.174	0.125	-2.516	605.469
-2.734	0.369	-2.321	1.410	3.585	-1.062	-0.773	-2.943	-3.209	-1.653	-2.633	-3.516	1.587	3.555	0.893	3.402	4.490	3.076	6.069	6.391	5.867	5.935	3.638	0.665	0.002	-1.747	-0.796	-3.280	609.375
-2.353	0.857	-1.916	1.827	3.776	-0.757	-1.202	-2.831	-3.300	-2.250	-3.190	-4.191	0.995	3.484	1.308	3.892	4.910	3.409	6.385	6.822	6.116	6.017	3.678	0.082	-0.364	-2.322	-1.708	-3.998	613.281
-1.982	1.256	-1.461	2.172	3.892	-0.428	-1.634	-2.463	-3.219	-2.770	-3.631	-4.740	0.375	3.305	1.634	4.198	5.173	3.625	6.546	7.037	6.189	5.985	3.652	-0.503	-0.713	-2.823	-2.496	-4.571	617.188
-1.662	1.504	-1.005	2.386	3.901	-0.126	-2.023	-1.869	-2.959	-3.142	-3.878	-5.075	-0.216	3.013	1.843	4.275	5.246	3.709	6.524	6.986	6.052	5.829	3.555	-1.024	-1.006	-3.197	-3.068	-4.925	621.094
-1.430	1.567	-0.601	2.434	3.787	0.109	-2.323	-1.112	-2.537	-3.323	-3.886	-5.142	-0.728	2.626	1.928	4.118	5.133	3.673	6.318	6.665	5.711	5.559	3.394	-1.429	-1.221	-3.419	-3.370	-5.023	625.000
-1.305	1.440	-0.291	2.306	3.555	0.246	-2.496	-0.280	-1.993	-3.302	-3.645	-4.930	-1.127	2.174	1.904	3.767	4.872	3.545	5.961	6.121	5.206	5.200	3.185	-1.691	-1.358	-3.498	-3.394	-4.876	628.906
-1.286	1.155	-0.105	2.024	3.229	0.273	-2.527	0.530	-1.387	-3.105	-3.189	-4.475	-1.400	1.699	1.810	3.295	4.525	3.370	5.514	5.443	4.606	4.794	2.951	-1.808	-1.434	-3.474	-3.183	-4.535	632.812
-1.348	0.770	-0.048	1.632	2.843	0.196	-2.424	1.220	-0.790	-2.786	-2.584	-3.851	-1.554	1.242	1.694	2.799	4.171	3.202	5.052	4.742	3.993	4.390	2.720	-1.805	-1.484	-3.410	-2.819	-4.087	636.719
-1.452	0.363	-0.101	1.194	2.438	0.034	-2.223	1.708	-0.274	-2.418	-1.921	-3.159	-1.617	0.842	1.611	2.377	3.888	3.091	4.655	4.136	3.455	4.041	2.523	-1.724	-1.542	-3.373	-2.405	-3.634	640.625
-1.548	0.017	-0.229	0.778	2.052	-0.180	-1.980	1.936	0.094	-2.078	-1.297	-2.505	-1.626	0.524	1.603	2.112	3.738	3.076	4.390	3.724	3.062	3.790	2.388	-1.618	-1.640	-3.425	-2.044	-3.271	644.531
-1.590	-0.202	-0.381	0.444	1.718	-0.413	-1.761	1.881	0.268	-1.838	-0.800	-1.987	-1.621	0.302	1.698	2.055	3.756	3.180	4.303	3.568	2.858	3.671	2.339	-1.531	-1.797	-3.602	-1.824	-3.072	648.438
-1.542	-0.248	-0.507	0.240	1.455	-0.629	-1.628	1.553	0.224	-1.750	-0.496	-1.673	-1.635	0.173	1.900	2.215	3.948	3.401	4.403	3.686	2.857	3.695	2.386	-1.496	-2.012	-3.913	-1.797	-3.076	652.344
-1.387	-0.108	-0.561	0.188	1.275	-0.804	-1.629	1.000	-0.033	-1.835	-0.419	-1.594	-1.688	0.126	2.190	2.564	4.283	3.717	4.670	4.044	3.038	3.852	2.527	-1.526	-2.269	-4.332	-1.975	-3.280	656.250
-1.129	0.198	-0.512	0.288	1.180	-0.917	-1.786	0.293	-0.473	-2.090	-0.569	-1.739	-1.787	0.141	2.529	3.038	4.708	4.089	5.052	4.572	3.350	4.110	2.746	-1.614	-2.536	-4.810	-2.332	-3.643	660.156
-0.794	0.626	-0.348	0.518	1.163	-0.959	-2.093	-0.478	-1.042	-2.477	-0.912	-2.067	-1.923	0.194	2.870	3.557	5.152	4.466	5.480	5.171	3.728	4.423	3.016	-1.738	-2.778	-5.284	-2.811	-4.102	664.062
-0.420	1.114	-0.075	0.840	1.216	-0.932	-2.516	-1.223	-1.674	-2.942	-1.391	-2.511	-2.079	0.264	3.163	4.038	5.545	4.797	5.876	5.738	4.103	4.737	3.298	-1.870	-2.957	-5.689	-3.337	-4.578	667.969
-0.049	1.598	0.278	1.209	1.327	-0.842	-3.000	-1.864	-2.296	-3.417	-1.938	-2.995	-2.232	0.335	3.365	4.412	5.826	5.038	6.176	6.186	4.414	4.998	3.555	-1.984	-3.048	-5.975	-3.836	-5.003	671.875
0.279	2.017	0.671	1.578	1.483	-0.705	-3.481	-2.343	-2.843	-3.838	-2.482	-3.450	-2.363	0.395	3.451	4.634	5.959	5.164	6.333	6.453	4.621	5.167	3.754	-2.063	-3.038	-6.112	-4.247	-5.320	675.781
0.535	2.330	1.056	1.906	1.665	-0.543	-3.897	-2.628	-3.264	-4.152	-2.964	-3.822	-2.457	0.442	3.414	4.689	5.934	5.167	6.331	6.518	4.708	5.221	3.872	-2.105	-2.935	-6.100	-4.534	-5.503	679.688
0.707	2.512	1.387	2.159	1.853	-0.378	-4.200	-2.720	-3.527	-4.331	-3.341	-4.082	-2.508	0.481	3.272	4.592	5.770	5.063	6.181	6.397	4.686	5.160	3.902	-2.117	-2.760	-5.964	-4.690	-5.553	683.594
0.794	2.560	1.629	2.317	2.023	-0.235	-4.361	-2.643	-3.628	-4.372	-3.593	-4.224	-2.518	0.520	3.057	4.384	5.510	4.883	5.923	6.138	4.590	5.005	3.850	-2.117	-2.550	-5.752	-4.738	-5.496	687.500
0.811	2.490	1.758	2.370	2.154	-0.134	-4.378	-2.442	-3.584	-4.297	-3.717	-4.260	-2.490	0.572	2.813	4.117	5.210	4.670	5.614	5.810	4.464	4.795	3.736	-2.122	-2.343	-5.520	-4.719	-5.374	691.406
0.777	2.328	1.771	2.322	2.228	-0.091	-4.265	-2.176	-3.432	-4.144	-3.728	-4.219	-2.429	0.650	2.584	3.844	4.926	4.467	5.316	5.487	4.357	4.575	3.588	-2.140	-2.179	-5.322	-4.680	-5.234	695.312
0.711	2.107	1.680	2.186	2.234	-0.112	-4.054	-1.906	-3.220	-3.954	-3.651	-4.130	-2.336	0.763	2.405	3.608	4.708	4.308	5.081	5.230	4.307	4.388	3.434	-2.169	-2.082	-5.198	-4.661	-5.113	699.219
0.630	1.860	1.507	1.982	2.168	-0.191	-3.782	-1.687	-2.998	-3.766	-3.514	-4.020	-2.205	0.918	2.297	3.433	4.579	4.210	4.942	5.075	4.332	4.269	3.297	-2.195	-2.062	-5.164	-4.678	-5.034	703.125
0.543	1.615	1.280	1.736	2.039	-0.319	-3.486	-1.561	-2.812	-3.606	-3.342	-3.904	-2.028	1.113	2.257	3.323	4.541	4.172	4.909	5.029	4.429	4.232	3.195	-2.191	-2.107	-5.210	-4.726	-4.995	707.031
0.454	1.391	1.030	1.479	1.864	-0.478	-3.198	-1.552	-2.693	-3.483	-3.157	-3.789	-1.798	1.342	2.267	3.262	4.572	4.175	4.962	5.074	4.578	4.274	3.133	-2.128	-2.190	-5.300	-4.773	-4.975	710.938
0.362	1.200	0.781	1.237	1.668	-0.648	-2.941	-1.665	-2.657	-3.390	-2.974	-3.671	-1.509	1.592	2.293	3.224	4.633	4.186	5.065	5.172	4.746	4.376	3.105	-1.981	-2.275	-5.388	-4.776	-4.944	714.844
0.264	1.049	0.551	1.035	1.476	-0.813	-2.729	-1.889	-2.703	-3.314	-2.803	-3.544	-1.163	1.851	2.303	3.186	4.683	4.174	5.177	5.282	4.902	4.509	3.101	-1.738	-2.327	-5.424	-4.690	-4.867	718.750
0.156	0.938	0.347	0.890	1.314	-0.962	-2.569	-2.201	-2.818	-3.239	-2.650	-3.404	-0.774	2.102	2.269	3.131	4.689	4.114	5.260	5.374	5.025	4.638	3.103	-1.403	-2.318	-5.373	-4.487	-4.724	722.656
0.037	0.865	0.172	0.811	1.198	-1.090	-2.463	-2.574	-2.984	-3.160	-2.522	-3.254	-0.360	2.334	2.182	3.061	4.639	3.997	5.292	5.436	5.108	4.740	3.100	-0.998	-2.238	-5.219	-4.161	-4.509	726.562
-0.092	0.826	0.022	0.797	1.137	-1.197	-2.409	-2.980	-3.184	-3.082	-2.427	-3.106	0.051	2.538	2.050	2.993	4.542	3.835	5.273	5.477	5.164	4.798	3.083	-0.556	-2.092	-4.973	-3.738	-4.241	730.469
-0.223	0.817	-0.110	0.840	1.127	-1.289	-2.399	-3.396	-3.402	-3.019	-2.374	-2.980	0.430	2.708	1.898	2.953	4.428	3.656	5.222	5.521	5.214	4.811	3.051	-0.122	-1.903	-4.669	-3.266	-3.954	734.375
-0.348	0.835	-0.229	0.923	1.156	-1.370	-2.422	-3.797	-3.626	-2.992	-2.369	-2.896	0.750	2.840	1.760	2.971	4.334	3.496	5.169	5.597	5.279	4.788	3.008	0.262	-1.701	-4.353	-2.810	-3.692	738.281
-0.456	0.875	-0.333	1.026	1.204	-1.443	-2.461	-4.162	-3.844	-3.015	-2.413	-2.870	0.991	2.930	1.671	3.066	4.298	3.390	5.143	5.724	5.371	4.741	2.961	0.558	-1.516	-4.074	-2.431	-3.496	742.188
-0.540	0.930	-0.420	1.128	1.250	-1.507	-2.495	-4.464	-4.039	-3.088	-2.494	-2.907	1.141	2.973	1.653	3.238	4.341	3.359	5.160	5.903	5.487	4.679	2.913	0.741	-1.376	-3.871	-2.179	-3.395	746.094
-0.595	0.994	-0.481	1.211	1.277	-1.555	-2.501	-4.675	-4.190	-3.195	-2.591	-2.998	1.201	2.965	1.712	3.465	4.462	3.405	5.218	6.107	5.605	4.606	2.865	0.805	-1.295	-3.766	-2.077	-3.397	750.000
-0.620	1.059	-0.507	1.261	1.271	-1.580	-2.460	-4.771	-4.270	-3.301	-2.672	-3.118	1.183	2.900	1.836	3.710	4.638	3.512	5.295	6.294	5.690	4.514	2.813	0.755	-1.276	-3.758	-2.117	-3.489	753.906
-0.618	1.115	-0.490	1.270	1.224	-1.574	-2.360	-4.734	-4.257	-3.368	-2.704	-3.233	1.105	2.777	1.998	3.921	4.827	3.644	5.353	6.409	5.705	4.391	2.746	0.614	-1.307	-3.825	-2.267	-3.637	757.812
-0.596	1.153	-0.427	1.234	1.136	-1.534	-2.203	-4.561	-4.134	-3.356	-2.660	-3.304	0.989	2.596	2.164	4.053	4.982	3.762	5.357	6.407	5.620	4.225	2.655	0.412	-1.370	-3.930	-2.471	-3.796	761.719
-0.562	1.162	-0.325	1.153	1.009	-1.463	-2.004	-4.268	-3.900	-3.244	-2.526	-3.298	0.855	2.361	2.300	4.070	5.060	3.828	5.276	6.260	5.422	4.011	2.533	0.181	-1.442	-4.031	-2.665	-3.916	765.625
-0.523	1.133	-0.200	1.030	0.846	-1.376	-1.788	-3.886	-3.571	-3.029	-2.300	-3.191	0.713	2.081	2.383	3.959	5.033	3.818	5.103	5.969	5.115	3.751	2.380	-0.047	-1.500	-4.085	-2.791	-3.957	769.531
-0.486	1.059	-0.073	0.868	0.650	-1.291	-1.586	-3.459	-3.171	-2.734	-2.001	-2.979	0.569	1.767	2.401	3.729	4.897	3.726	4.848	5.565	4.724	3.460	2.202	-0.248	-1.528	-4.063	-2.803	-3.892	773.438
-0.454	0.937	0.034	0.673	0.426	-1.233	-1.430	-3.033	-2.735	-2.396	-1.655	-2.672	0.416	1.431	2.358	3.408	4.663	3.562	4.539	5.096	4.285	3.160	2.009	-0.409	-1.516	-3.948	-2.676	-3.713	777.344
-0.426	0.769	0.103	0.451	0.175	-1.223	-1.342	-2.653	-2.296	-2.060	-1.294	-2.295	0.245	1.081	2.268	3.035	4.362	3.349	4.215	4.622	3.835	2.873	1.814	-0.526	-1.464	-3.741	-2.409	-3.431	781.250
-0.401	0.562	0.124	0.210	-0.100	-1.274	-1.333	-2.346	-1.878	-1.763	-0.949	-1.876	0.045	0.727	2.151	2.650	4.027	3.115	3.909	4.191	3.408	2.618	1.626	-0.604	-1.378	-3.457	-2.021	-3.070	785.156
-0.375	0.326	0.097	-0.044	-0.396	-1.386	-1.401	-2.121	-1.496	-1.530	-0.636	-1.443	-0.191	0.371	2.026	2.282	3.687	2.884	3.646	3.831	3.019	2.403	1.453	-0.654	-1.268	-3.117	-1.543	-2.659	789.062
-0.347	0.072	0.033	-0.305	-0.708	-1.549	-1.529	-1.966	-1.148	-1.359	-0.360	-1.013	-0.460	0.015	1.908	1.945	3.361	2.669	3.428	3.547	2.673	2.223	1.295	-0.690	-1.145	-2.744	-1.012	-2.223	792.969
-0.317	-0.188	-0.053	-0.568	-1.028	-1.741	-1.689	-1.853	-0.826	-1.234	-0.112	-0.595	-0.751	-0.341	1.801	1.638	3.054	2.474	3.247	3.317	2.358	2.066	1.146	-0.722	-1.018	-2.361	-0.461	-1.785	796.875
