FP1	F3	F7	FC3	C3	C5	P3	P7	PO7	PO3	O1	Oz	Pz	CPz	FP2	Fz	F4	F8	FC4	FCz	Cz	C4	C6	P4	P8	PO8	PO4	O2	time
-0.346	-0.385	-0.096	0.064	1.051	-0.131	0.305	0.203	0.742	-0.920	1.166	0.342	0.465	0.598	-0.341	-0.174	-0.683	-0.738	-0.148	0.402	0.594	0.285	-0.293	-0.182	-0.487	-0.359	0.406	-0.094	-199.219
-0.333	-0.298	-0.029	0.275	1.281	0.145	0.233	-0.024	0.661	-0.698	0.919	0.175	0.686	1.004	-0.430	-0.139	-0.680	-0.827	-0.146	0.591	0.987	0.282	-0.395	-0.106	-0.690	-0.530	0.198	-0.246	-195.312
-0.318	-0.205	0.055	0.481	1.512	0.416	0.168	-0.240	0.562	-0.513	0.660	-0.005	0.880	1.377	-0.511	-0.114	-0.669	-0.882	-0.144	0.749	1.336	0.289	-0.464	-0.036	-0.872	-0.691	-0.012	-0.399	-191.406
-0.302	-0.106	0.163	0.674	1.736	0.672	0.124	-0.426	0.439	-0.382	0.392	-0.199	1.029	1.685	-0.584	-0.112	-0.651	-0.885	-0.146	0.847	1.601	0.308	-0.477	0.023	-1.012	-0.824	-0.213	-0.544	-187.500
-0.289	-0.005	0.288	0.842	1.945	0.900	0.115	-0.565	0.296	-0.311	0.123	-0.399	1.116	1.903	-0.648	-0.143	-0.628	-0.830	-0.157	0.867	1.754	0.336	-0.425	0.067	-1.092	-0.914	-0.395	-0.669	-183.594
-0.283	0.085	0.418	0.974	2.122	1.085	0.156	-0.644	0.143	-0.290	-0.132	-0.590	1.137	2.013	-0.706	-0.209	-0.609	-0.726	-0.185	0.802	1.782	0.364	-0.313	0.094	-1.102	-0.944	-0.541	-0.759	-179.688
-0.286	0.153	0.531	1.058	2.247	1.210	0.257	-0.654	-0.001	-0.296	-0.351	-0.749	1.093	2.009	-0.760	-0.309	-0.604	-0.595	-0.232	0.660	1.688	0.381	-0.159	0.103	-1.038	-0.901	-0.633	-0.798	-175.781
-0.303	0.183	0.606	1.082	2.300	1.259	0.421	-0.594	-0.115	-0.301	-0.510	-0.853	0.994	1.891	-0.812	-0.433	-0.617	-0.464	-0.299	0.461	1.489	0.377	0.011	0.098	-0.905	-0.781	-0.655	-0.773	-171.875
-0.333	0.166	0.623	1.038	2.261	1.221	0.640	-0.472	-0.184	-0.279	-0.591	-0.881	0.852	1.667	-0.859	-0.566	-0.650	-0.354	-0.377	0.230	1.212	0.345	0.170	0.080	-0.714	-0.587	-0.599	-0.678	-167.969
-0.375	0.097	0.574	0.920	2.116	1.091	0.897	-0.301	-0.198	-0.213	-0.584	-0.821	0.681	1.353	-0.894	-0.690	-0.694	-0.278	-0.453	-0.003	0.883	0.289	0.295	0.054	-0.483	-0.331	-0.464	-0.512	-164.062
-0.425	-0.023	0.458	0.729	1.859	0.874	1.165	-0.100	-0.157	-0.099	-0.492	-0.673	0.491	0.967	-0.907	-0.789	-0.735	-0.239	-0.508	-0.215	0.532	0.219	0.377	0.025	-0.231	-0.035	-0.260	-0.288	-160.156
-0.477	-0.182	0.290	0.473	1.496	0.587	1.411	0.110	-0.070	0.056	-0.329	-0.448	0.292	0.530	-0.888	-0.849	-0.754	-0.226	-0.525	-0.390	0.179	0.153	0.415	-0.002	0.022	0.271	-0.010	-0.025	-156.250
-0.521	-0.364	0.091	0.172	1.045	0.252	1.601	0.306	0.050	0.233	-0.120	-0.170	0.089	0.066	-0.829	-0.860	-0.734	-0.219	-0.487	-0.519	-0.159	0.109	0.423	-0.024	0.255	0.556	0.255	0.250	-152.344
-0.544	-0.544	-0.108	-0.151	0.533	-0.099	1.702	0.470	0.184	0.408	0.101	0.129	-0.116	-0.400	-0.721	-0.817	-0.659	-0.198	-0.386	-0.599	-0.468	0.105	0.421	-0.042	0.450	0.787	0.499	0.502	-148.438
-0.536	-0.694	-0.277	-0.461	-0.000	-0.432	1.692	0.584	0.308	0.552	0.299	0.411	-0.322	-0.841	-0.566	-0.715	-0.520	-0.138	-0.220	-0.633	-0.737	0.149	0.430	-0.056	0.592	0.937	0.685	0.699	-144.531
-0.484	-0.782	-0.389	-0.723	-0.511	-0.715	1.561	0.635	0.402	0.642	0.439	0.636	-0.528	-1.228	-0.364	-0.554	-0.313	-0.027	0.003	-0.617	-0.952	0.242	0.464	-0.071	0.670	0.988	0.783	0.811	-140.625
-0.385	-0.781	-0.428	-0.901	-0.955	-0.918	1.310	0.619	0.444	0.659	0.496	0.773	-0.728	-1.538	-0.126	-0.332	-0.047	0.140	0.264	-0.550	-1.101	0.371	0.529	-0.093	0.678	0.934	0.773	0.817	-136.719
-0.239	-0.672	-0.389	-0.968	-1.290	-1.021	0.960	0.537	0.421	0.597	0.455	0.797	-0.916	-1.748	0.136	-0.052	0.263	0.354	0.540	-0.429	-1.171	0.515	0.617	-0.126	0.619	0.782	0.654	0.713	-132.812
-0.055	-0.449	-0.282	-0.909	-1.485	-1.014	0.542	0.401	0.329	0.463	0.318	0.704	-1.080	-1.844	0.404	0.276	0.595	0.593	0.803	-0.255	-1.152	0.647	0.708	-0.173	0.496	0.549	0.436	0.507	-128.906
0.152	-0.122	-0.125	-0.725	-1.525	-0.899	0.095	0.231	0.177	0.273	0.104	0.501	-1.208	-1.822	0.659	0.635	0.920	0.827	1.024	-0.035	-1.043	0.740	0.778	-0.234	0.322	0.264	0.147	0.224	-125.000
0.362	0.282	0.059	-0.434	-1.411	-0.692	-0.340	0.050	-0.016	0.053	-0.158	0.214	-1.290	-1.688	0.881	1.001	1.209	1.027	1.183	0.218	-0.850	0.776	0.803	-0.307	0.112	-0.044	-0.179	-0.102	-121.094
0.553	0.722	0.242	-0.071	-1.169	-0.420	-0.728	-0.117	-0.226	-0.168	-0.434	-0.125	-1.320	-1.460	1.054	1.343	1.437	1.166	1.266	0.483	-0.589	0.746	0.766	-0.382	-0.112	-0.341	-0.503	-0.435	-117.188
0.705	1.144	0.403	0.315	-0.841	-0.121	-1.049	-0.252	-0.426	-0.368	-0.689	-0.474	-1.297	-1.163	1.166	1.628	1.583	1.232	1.274	0.733	-0.281	0.658	0.666	-0.450	-0.326	-0.599	-0.790	-0.737	-113.281
0.803	1.494	0.520	0.672	-0.481	0.164	-1.296	-0.342	-0.594	-0.528	-0.897	-0.794	-1.226	-0.829	1.211	1.827	1.638	1.221	1.215	0.946	0.046	0.532	0.517	-0.498	-0.504	-0.794	-1.011	-0.977	-109.375
0.837	1.724	0.581	0.948	-0.151	0.390	-1.474	-0.389	-0.716	-0.643	-1.044	-1.050	-1.116	-0.487	1.192	1.919	1.603	1.146	1.109	1.099	0.363	0.397	0.347	-0.513	-0.619	-0.908	-1.143	-1.132	-105.469
0.806	1.802	0.580	1.101	0.091	0.522	-1.596	-0.401	-0.792	-0.719	-1.125	-1.215	-0.975	-0.168	1.116	1.895	1.487	1.024	0.977	1.180	0.641	0.285	0.190	-0.485	-0.648	-0.930	-1.178	-1.188	-101.562
0.716	1.714	0.517	1.109	0.205	0.537	-1.682	-0.397	-0.830	-0.768	-1.149	-1.275	-0.814	0.108	0.997	1.759	1.309	0.878	0.844	1.182	0.858	0.225	0.081	-0.406	-0.577	-0.853	-1.113	-1.141	-97.656
0.583	1.472	0.399	0.971	0.169	0.428	-1.748	-0.395	-0.847	-0.807	-1.130	-1.228	-0.641	0.327	0.850	1.531	1.093	0.730	0.728	1.112	0.997	0.235	0.045	-0.277	-0.404	-0.683	-0.957	-0.997	-93.750
0.422	1.111	0.241	0.706	-0.008	0.210	-1.804	-0.412	-0.860	-0.846	-1.083	-1.085	-0.465	0.484	0.692	1.239	0.862	0.595	0.639	0.978	1.050	0.318	0.090	-0.104	-0.141	-0.431	-0.728	-0.771	-89.844
0.256	0.678	0.059	0.356	-0.296	-0.086	-1.851	-0.454	-0.881	-0.887	-1.018	-0.867	-0.296	0.581	0.537	0.921	0.642	0.483	0.579	0.799	1.014	0.458	0.207	0.099	0.184	-0.122	-0.450	-0.485	-85.938
0.104	0.231	-0.129	-0.028	-0.642	-0.417	-1.880	-0.518	-0.909	-0.919	-0.937	-0.600	-0.143	0.622	0.399	0.611	0.452	0.396	0.540	0.593	0.898	0.625	0.367	0.310	0.530	0.210	-0.155	-0.169	-82.031
-0.020	-0.179	-0.307	-0.392	-0.989	-0.734	-1.876	-0.590	-0.931	-0.920	-0.835	-0.313	-0.017	0.613	0.285	0.342	0.302	0.330	0.509	0.380	0.716	0.779	0.530	0.502	0.850	0.527	0.126	0.144	-78.125
-0.103	-0.507	-0.463	-0.690	-1.280	-0.994	-1.822	-0.648	-0.926	-0.868	-0.701	-0.033	0.073	0.558	0.202	0.133	0.198	0.277	0.472	0.178	0.484	0.876	0.653	0.647	1.101	0.787	0.363	0.424	-74.219
-0.142	-0.727	-0.587	-0.890	-1.473	-1.162	-1.706	-0.668	-0.870	-0.742	-0.527	0.218	0.118	0.461	0.151	-0.005	0.136	0.226	0.414	0.003	0.224	0.881	0.697	0.722	1.248	0.959	0.532	0.646	-70.312
-0.135	-0.830	-0.672	-0.980	-1.546	-1.224	-1.526	-0.630	-0.746	-0.535	-0.312	0.425	0.115	0.325	0.130	-0.076	0.107	0.170	0.327	-0.134	-0.043	0.770	0.638	0.712	1.271	1.022	0.622	0.797	-66.406
-0.088	-0.825	-0.716	-0.968	-1.499	-1.179	-1.293	-0.522	-0.546	-0.256	-0.066	0.581	0.069	0.154	0.133	-0.092	0.097	0.102	0.208	-0.229	-0.301	0.540	0.469	0.619	1.175	0.976	0.634	0.872	-62.500
-0.011	-0.734	-0.717	-0.876	-1.353	-1.043	-1.026	-0.341	-0.278	0.071	0.195	0.684	-0.010	-0.044	0.150	-0.075	0.091	0.022	0.060	-0.284	-0.535	0.206	0.206	0.456	0.979	0.837	0.582	0.878	-58.594
0.083	-0.591	-0.676	-0.739	-1.142	-0.843	-0.749	-0.099	0.037	0.412	0.446	0.738	-0.105	-0.259	0.169	-0.052	0.075	-0.066	-0.109	-0.311	-0.739	-0.200	-0.120	0.250	0.719	0.637	0.487	0.832	-54.688
0.176	-0.430	-0.596	-0.593	-0.903	-0.610	-0.481	0.185	0.367	0.727	0.664	0.751	-0.193	-0.474	0.178	-0.049	0.035	-0.155	-0.289	-0.328	-0.909	-0.632	-0.467	0.034	0.441	0.417	0.376	0.753	-50.781
0.252	-0.286	-0.485	-0.466	-0.674	-0.372	-0.235	0.480	0.679	0.985	0.831	0.734	-0.249	-0.668	0.167	-0.089	-0.034	-0.237	-0.470	-0.357	-1.045	-1.044	-0.788	-0.157	0.185	0.216	0.278	0.661	-46.875
0.294	-0.184	-0.351	-0.380	-0.481	-0.155	-0.008	0.755	0.938	1.161	0.938	0.698	-0.253	-0.819	0.129	-0.185	-0.135	-0.304	-0.644	-0.420	-1.148	-1.391	-1.042	-0.293	-0.013	0.065	0.212	0.573	-42.969
0.291	-0.135	-0.211	-0.342	-0.340	0.024	0.206	0.977	1.117	1.247	0.987	0.654	-0.189	-0.909	0.063	-0.338	-0.262	-0.354	-0.802	-0.528	-1.218	-1.639	-1.202	-0.353	-0.135	-0.019	0.193	0.502	-39.062
0.241	-0.142	-0.079	-0.345	-0.254	0.159	0.420	1.119	1.198	1.247	0.986	0.613	-0.053	-0.923	-0.028	-0.536	-0.406	-0.389	-0.936	-0.680	-1.250	-1.769	-1.255	-0.331	-0.177	-0.035	0.223	0.451	-35.156
0.151	-0.190	0.029	-0.375	-0.215	0.249	0.644	1.162	1.175	1.174	0.949	0.580	0.145	-0.857	-0.133	-0.753	-0.548	-0.413	-1.037	-0.858	-1.238	-1.778	-1.208	-0.238	-0.152	0.002	0.292	0.419	-31.250
0.036	-0.259	0.099	-0.410	-0.203	0.305	0.878	1.098	1.052	1.048	0.888	0.558	0.381	-0.720	-0.238	-0.955	-0.671	-0.431	-1.099	-1.031	-1.178	-1.681	-1.082	-0.096	-0.086	0.066	0.379	0.396	-27.344
-0.079	-0.319	0.131	-0.426	-0.198	0.344	1.111	0.937	0.844	0.888	0.810	0.544	0.617	-0.532	-0.325	-1.106	-0.754	-0.450	-1.114	-1.165	-1.068	-1.506	-0.908	0.059	-0.010	0.123	0.457	0.367	-23.438
-0.166	-0.342	0.130	-0.400	-0.174	0.384	1.324	0.701	0.574	0.711	0.718	0.530	0.811	-0.323	-0.376	-1.175	-0.782	-0.467	-1.081	-1.225	-0.911	-1.289	-0.721	0.190	0.041	0.139	0.491	0.315	-19.531
-0.199	-0.303	0.117	-0.316	-0.113	0.446	1.490	0.424	0.272	0.528	0.609	0.507	0.919	-0.126	-0.375	-1.144	-0.745	-0.480	-1.002	-1.193	-0.717	-1.068	-0.555	0.255	0.040	0.087	0.448	0.221	-15.625
-0.160	-0.187	0.117	-0.163	-0.003	0.542	1.586	0.146	-0.031	0.341	0.479	0.461	0.910	0.027	-0.311	-1.009	-0.643	-0.476	-0.883	-1.063	-0.503	-0.877	-0.433	0.227	-0.032	-0.052	0.302	0.071	-11.719
-0.041	0.006	0.156	0.056	0.158	0.677	1.592	-0.093	-0.306	0.148	0.322	0.384	0.768	0.113	-0.181	-0.782	-0.483	-0.443	-0.734	-0.848	-0.286	-0.734	-0.366	0.092	-0.179	-0.281	0.043	-0.139	-7.812
0.150	0.265	0.250	0.327	0.359	0.840	1.504	-0.265	-0.531	-0.060	0.138	0.268	0.501	0.126	0.007	-0.489	-0.280	-0.370	-0.564	-0.576	-0.082	-0.647	-0.352	-0.144	-0.393	-0.586	-0.320	-0.406	-3.906
0.391	0.562	0.402	0.625	0.581	1.014	1.328	-0.355	-0.691	-0.288	-0.067	0.116	0.140	0.073	0.235	-0.166	-0.054	-0.252	-0.384	-0.281	0.098	-0.606	-0.379	-0.452	-0.651	-0.942	-0.756	-0.713	0.000
0.648	0.860	0.596	0.915	0.801	1.173	1.087	-0.362	-0.779	-0.536	-0.279	-0.063	-0.265	-0.021	0.477	0.148	0.171	-0.094	-0.205	0.001	0.247	-0.589	-0.423	-0.785	-0.919	-1.308	-1.216	-1.031	3.906
0.881	1.119	0.801	1.158	0.990	1.290	0.815	-0.298	-0.795	-0.790	-0.476	-0.252	-0.652	-0.125	0.697	0.417	0.368	0.085	-0.037	0.238	0.368	-0.573	-0.465	-1.084	-1.159	-1.639	-1.636	-1.325	7.812
1.049	1.297	0.976	1.319	1.125	1.340	0.550	-0.183	-0.741	-1.030	-0.631	-0.424	-0.959	-0.203	0.862	0.606	0.512	0.260	0.106	0.402	0.461	-0.536	-0.484	-1.292	-1.333	-1.889	-1.949	-1.558	11.719
1.117	1.363	1.082	1.369	1.188	1.308	0.332	-0.040	-0.623	-1.227	-0.718	-0.554	-1.137	-0.228	0.943	0.692	0.583	0.400	0.212	0.477	0.530	-0.465	-0.467	-1.365	-1.410	-2.020	-2.101	-1.694	15.625
1.065	1.301	1.090	1.295	1.169	1.191	0.188	0.110	-0.450	-1.352	-0.719	-0.615	-1.158	-0.185	0.924	0.663	0.567	0.479	0.270	0.454	0.571	-0.357	-0.412	-1.279	-1.372	-2.010	-2.058	-1.710	19.531
0.894	1.111	0.991	1.101	1.068	0.996	0.133	0.252	-0.236	-1.387	-0.626	-0.593	-1.022	-0.078	0.809	0.519	0.466	0.483	0.273	0.335	0.579	-0.222	-0.321	-1.038	-1.217	-1.856	-1.813	-1.597	23.438
0.623	0.814	0.802	0.807	0.894	0.743	0.161	0.374	-0.002	-1.328	-0.448	-0.482	-0.756	0.072	0.614	0.276	0.291	0.412	0.221	0.131	0.545	-0.078	-0.206	-0.671	-0.962	-1.577	-1.392	-1.366	27.344
0.287	0.448	0.561	0.452	0.665	0.463	0.252	0.467	0.229	-1.191	-0.209	-0.295	-0.406	0.233	0.373	-0.038	0.068	0.282	0.124	-0.134	0.461	0.053	-0.083	-0.231	-0.638	-1.213	-0.847	-1.046	31.250
-0.066	0.061	0.323	0.085	0.407	0.190	0.376	0.529	0.435	-1.005	0.059	-0.054	-0.030	0.369	0.127	-0.386	-0.172	0.119	-0.005	-0.433	0.324	0.147	0.029	0.222	-0.290	-0.818	-0.248	-0.681	35.156
-0.390	-0.295	0.142	-0.245	0.150	-0.040	0.503	0.559	0.596	-0.806	0.322	0.205	0.320	0.448	-0.086	-0.727	-0.396	-0.045	-0.148	-0.731	0.138	0.184	0.110	0.626	0.034	-0.454	0.333	-0.325	39.062
-0.645	-0.573	0.065	-0.493	-0.075	-0.197	0.609	0.562	0.700	-0.632	0.551	0.449	0.603	0.454	-0.234	-1.018	-0.574	-0.182	-0.289	-0.994	-0.082	0.151	0.140	0.933	0.288	-0.174	0.831	-0.025	42.969
-0.806	-0.743	0.115	-0.630	-0.245	-0.263	0.686	0.546	0.747	-0.509	0.729	0.647	0.799	0.384	-0.300	-1.228	-0.690	-0.272	-0.413	-1.192	-0.315	0.043	0.106	1.113	0.439	-0.019	1.200	0.180	46.875
-0.865	-0.792	0.290	-0.648	-0.346	-0.234	0.733	0.524	0.748	-0.453	0.854	0.779	0.904	0.254	-0.285	-1.338	-0.737	-0.310	-0.516	-1.307	-0.537	-0.136	0.002	1.161	0.472	-0.004	1.419	0.272	50.781
-0.831	-0.728	0.566	-0.561	-0.376	-0.127	0.765	0.509	0.721	-0.462	0.935	0.838	0.931	0.087	-0.204	-1.344	-0.724	-0.302	-0.596	-1.333	-0.726	-0.372	-0.171	1.093	0.391	-0.116	1.492	0.255	54.688
-0.724	-0.576	0.898	-0.401	-0.350	0.029	0.798	0.518	0.692	-0.519	0.992	0.834	0.898	-0.092	-0.082	-1.261	-0.669	-0.262	-0.661	-1.281	-0.871	-0.646	-0.404	0.940	0.221	-0.315	1.448	0.159	58.594
-0.572	-0.378	1.237	-0.215	-0.296	0.194	0.850	0.562	0.687	-0.599	1.049	0.789	0.825	-0.266	0.050	-1.118	-0.599	-0.213	-0.722	-1.178	-0.974	-0.938	-0.680	0.739	-0.001	-0.540	1.331	0.030	62.500
-0.407	-0.180	1.533	-0.054	-0.254	0.321	0.931	0.651	0.732	-0.666	1.134	0.733	0.724	-0.428	0.164	-0.957	-0.542	-0.177	-0.795	-1.064	-1.051	-1.229	-0.978	0.531	-0.226	-0.716	1.198	-0.067	66.406
-0.258	-0.029	1.748	0.031	-0.265	0.370	1.048	0.790	0.853	-0.683	1.274	0.704	0.603	-0.584	0.236	-0.826	-0.524	-0.174	-0.895	-0.989	-1.133	-1.505	-1.279	0.349	-0.404	-0.770	1.104	-0.067	70.312
-0.149	0.032	1.858	-0.000	-0.369	0.307	1.201	0.978	1.072	-0.613	1.493	0.737	0.464	-0.751	0.249	-0.770	-0.571	-0.222	-1.038	-1.004	-1.255	-1.758	-1.566	0.218	-0.492	-0.635	1.102	0.096	74.219
-0.099	-0.029	1.851	-0.175	-0.597	0.116	1.386	1.210	1.403	-0.424	1.813	0.867	0.307	-0.950	0.196	-0.832	-0.699	-0.329	-1.236	-1.152	-1.453	-1.990	-1.825	0.155	-0.454	-0.265	1.237	0.470	78.125
-0.124	-0.231	1.727	-0.504	-0.961	-0.204	1.600	1.479	1.856	-0.092	2.245	1.124	0.136	-1.198	0.074	-1.040	-0.918	-0.503	-1.500	-1.459	-1.754	-2.207	-2.052	0.167	-0.270	0.364	1.536	1.083	82.031
-0.229	-0.577	1.494	-0.977	-1.450	-0.637	1.841	1.771	2.424	0.390	2.792	1.524	-0.042	-1.502	-0.114	-1.403	-1.230	-0.742	-1.832	-1.928	-2.166	-2.421	-2.248	0.256	0.066	1.244	2.009	1.938	85.938
-0.417	-1.057	1.166	-1.567	-2.032	-1.153	2.111	2.075	3.090	1.017	3.443	2.069	-0.212	-1.853	-0.359	-1.910	-1.626	-1.039	-2.226	-2.533	-2.676	-2.640	-2.419	0.415	0.541	2.340	2.645	3.001	89.844
-0.683	-1.640	0.761	-2.233	-2.651	-1.711	2.414	2.380	3.822	1.762	4.173	2.744	-0.355	-2.227	-0.652	-2.531	-2.089	-1.385	-2.670	-3.226	-3.251	-2.873	-2.574	0.631	1.124	3.583	3.412	4.214	93.750
-1.015	-2.286	0.301	-2.919	-3.241	-2.268	2.753	2.673	4.577	2.586	4.946	3.512	-0.450	-2.588	-0.979	-3.216	-2.593	-1.765	-3.140	-3.941	-3.837	-3.119	-2.723	0.888	1.769	4.885	4.256	5.489	97.656
-1.394	-2.941	-0.186	-3.566	-3.732	-2.779	3.127	2.945	5.307	3.432	5.716	4.319	-0.475	-2.889	-1.324	-3.905	-3.107	-2.161	-3.608	-4.605	-4.373	-3.371	-2.872	1.165	2.418	6.139	5.112	6.727	101.562
-1.793	-3.549	-0.668	-4.117	-4.066	-3.204	3.524	3.188	5.961	4.237	6.431	5.098	-0.417	-3.086	-1.669	-4.532	-3.595	-2.555	-4.042	-5.148	-4.797	-3.613	-3.023	1.440	3.008	7.235	5.903	7.823	105.469
-2.176	-4.055	-1.109	-4.522	-4.205	-3.513	3.922	3.394	6.494	4.936	7.039	5.778	-0.269	-3.142	-1.992	-5.038	-4.023	-2.926	-4.404	-5.514	-5.056	-3.823	-3.172	1.691	3.479	8.070	6.557	8.683	109.375
-2.508	-4.411	-1.475	-4.747	-4.138	-3.689	4.289	3.554	6.869	5.469	7.494	6.296	-0.037	-3.034	-2.270	-5.371	-4.355	-3.253	-4.662	-5.667	-5.113	-3.974	-3.308	1.894	3.777	8.560	7.010	9.232	113.281
-2.754	-4.587	-1.741	-4.778	-3.883	-3.727	4.590	3.660	7.063	5.787	7.765	6.604	0.262	-2.760	-2.482	-5.496	-4.561	-3.514	-4.787	-5.593	-4.954	-4.042	-3.416	2.034	3.869	8.652	7.221	9.430	117.188
-2.889	-4.571	-1.889	-4.622	-3.485	-3.634	4.789	3.703	7.071	5.863	7.835	6.680	0.601	-2.340	-2.605	-5.401	-4.623	-3.690	-4.761	-5.298	-4.588	-4.007	-3.477	2.098	3.737	8.328	7.173	9.272	121.094
-2.901	-4.373	-1.919	-4.307	-3.002	-3.431	4.860	3.680	6.907	5.695	7.715	6.531	0.947	-1.818	-2.628	-5.097	-4.532	-3.766	-4.580	-4.813	-4.050	-3.858	-3.477	2.082	3.390	7.616	6.880	8.795	125.000
-2.793	-4.023	-1.840	-3.875	-2.496	-3.142	4.787	3.597	6.609	5.311	7.441	6.194	1.263	-1.255	-2.546	-4.617	-4.300	-3.736	-4.260	-4.187	-3.398	-3.604	-3.410	1.987	2.858	6.584	6.387	8.067	128.906
-2.585	-3.567	-1.673	-3.377	-2.019	-2.798	4.575	3.469	6.231	4.766	7.072	5.728	1.513	-0.722	-2.369	-4.018	-3.953	-3.607	-3.834	-3.483	-2.705	-3.266	-3.279	1.824	2.189	5.332	5.762	7.185	132.812
-2.306	-3.058	-1.445	-2.866	-1.607	-2.426	4.247	3.322	5.841	4.138	6.684	5.211	1.671	-0.290	-2.122	-3.367	-3.535	-3.400	-3.352	-2.772	-2.052	-2.883	-3.104	1.609	1.444	3.983	5.088	6.260	136.719
-1.998	-2.553	-1.186	-2.390	-1.276	-2.053	3.844	3.193	5.511	3.519	6.356	4.723	1.724	-0.019	-1.839	-2.740	-3.099	-3.150	-2.871	-2.128	-1.518	-2.499	-2.911	1.362	0.686	2.666	4.452	5.402	140.625
-1.703	-2.109	-0.929	-1.991	-1.025	-1.700	3.423	3.120	5.306	3.000	6.164	4.342	1.676	0.056	-1.560	-2.210	-2.701	-2.897	-2.449	-1.619	-1.166	-2.160	-2.734	1.108	-0.027	1.499	3.934	4.705	144.531
-1.463	-1.770	-0.703	-1.698	-0.841	-1.387	3.040	3.142	5.275	2.661	6.161	4.127	1.547	-0.073	-1.328	-1.835	-2.393	-2.689	-2.133	-1.296	-1.036	-1.903	-2.606	0.875	-0.646	0.577	3.593	4.241	148.438
-1.314	-1.569	-0.539	-1.530	-0.706	-1.126	2.752	3.283	5.441	2.559	6.375	4.116	1.372	-0.383	-1.180	-1.657	-2.217	-2.567	-1.959	-1.191	-1.138	-1.752	-2.553	0.691	-1.136	-0.039	3.470	4.052	152.344
-1.277	-1.525	-0.458	-1.496	-0.604	-0.930	2.600	3.555	5.804	2.720	6.802	4.320	1.190	-0.824	-1.140	-1.691	-2.200	-2.563	-1.941	-1.307	-1.448	-1.713	-2.590	0.576	-1.482	-0.325	3.577	4.143	156.250
-1.364	-1.638	-0.478	-1.587	-0.524	-0.806	2.606	3.948	6.339	3.134	7.412	4.719	1.039	-1.329	-1.222	-1.925	-2.349	-2.697	-2.075	-1.617	-1.912	-1.779	-2.718	0.547	-1.679	-0.290	3.901	4.492	160.156
-1.568	-1.888	-0.607	-1.784	-0.460	-0.758	2.774	4.436	7.000	3.761	8.146	5.269	0.950	-1.827	-1.422	-2.322	-2.651	-2.965	-2.340	-2.071	-2.456	-1.926	-2.928	0.610	-1.737	0.025	4.407	5.047	164.062
-1.870	-2.242	-0.844	-2.055	-0.410	-0.783	3.083	4.976	7.727	4.532	8.933	5.903	0.935	-2.250	-1.723	-2.827	-3.078	-3.351	-2.702	-2.596	-2.994	-2.130	-3.201	0.758	-1.675	0.561	5.043	5.745	167.969
-2.240	-2.651	-1.171	-2.360	-0.373	-0.874	3.496	5.521	8.455	5.367	9.695	6.543	0.993	-2.548	-2.097	-3.371	-3.587	-3.820	-3.119	-3.111	-3.446	-2.363	-3.514	0.975	-1.515	1.249	5.748	6.511	171.875
-2.641	-3.063	-1.563	-2.653	-0.345	-1.016	3.967	6.021	9.122	6.181	10.360	7.113	1.110	-2.692	-2.509	-3.883	-4.126	-4.330	-3.547	-3.542	-3.748	-2.602	-3.841	1.237	-1.282	2.022	6.459	7.273	175.781
-3.034	-3.423	-1.982	-2.893	-0.321	-1.189	4.447	6.436	9.675	6.903	10.874	7.546	1.264	-2.674	-2.922	-4.304	-4.647	-4.837	-3.949	-3.830	-3.861	-2.829	-4.161	1.516	-1.000	2.818	7.119	7.972	179.688
-3.387	-3.691	-2.388	-3.047	-0.291	-1.369	4.894	6.740	10.081	7.487	11.203	7.796	1.432	-2.508	-3.309	-4.593	-5.110	-5.306	-4.296	-3.943	-3.780	-3.036	-4.460	1.788	-0.688	3.592	7.686	8.564	183.594
-3.676	-3.840	-2.747	-3.094	-0.247	-1.532	5.282	6.923	10.330	7.917	11.345	7.849	1.600	-2.221	-3.649	-4.735	-5.488	-5.712	-4.572	-3.882	-3.529	-3.221	-4.729	2.034	-0.364	4.315	8.141	9.023	187.500
-3.893	-3.867	-3.037	-3.036	-0.184	-1.661	5.604	6.987	10.429	8.206	11.322	7.719	1.765	-1.850	-3.937	-4.740	-5.774	-6.050	-4.775	-3.676	-3.157	-3.383	-4.961	2.249	-0.037	4.975	8.484	9.348	191.406
-4.046	-3.791	-3.251	-2.889	-0.099	-1.746	5.872	6.950	10.406	8.393	11.177	7.448	1.938	-1.432	-4.181	-4.645	-5.977	-6.326	-4.914	-3.378	-2.723	-3.523	-5.153	2.442	0.290	5.575	8.739	9.556	195.312
-4.161	-3.650	-3.406	-2.687	0.007	-1.785	6.114	6.836	10.295	8.529	10.962	7.095	2.141	-0.998	-4.400	-4.503	-6.122	-6.558	-5.008	-3.055	-2.291	-3.638	-5.303	2.636	0.620	6.130	8.950	9.676	199.219
-4.272	-3.495	-3.530	-2.473	0.127	-1.786	6.366	6.676	10.134	8.671	10.730	6.727	2.401	-0.575	-4.619	-4.374	-6.241	-6.769	-5.076	-2.775	-1.914	-3.720	-5.404	2.861	0.960	6.661	9.168	9.750	203.125
-4.420	-3.380	-3.664	-2.292	0.254	-1.761	6.659	6.504	9.956	8.867	10.525	6.408	2.739	-0.180	-4.863	-4.313	-6.367	-6.980	-5.138	-2.595	-1.631	-3.759	-5.450	3.149	1.319	7.189	9.445	9.818	207.031
-4.641	-3.353	-3.847	-2.185	0.378	-1.727	7.019	6.351	9.788	9.149	10.375	6.184	3.166	0.179	-5.155	-4.364	-6.527	-7.206	-5.207	-2.553	-1.461	-3.746	-5.435	3.525	1.705	7.728	9.822	9.918	210.938
-4.959	-3.448	-4.107	-2.180	0.489	-1.697	7.452	6.245	9.650	9.531	10.291	6.085	3.681	0.499	-5.508	-4.550	-6.739	-7.454	-5.290	-2.663	-1.404	-3.669	-5.352	4.004	2.119	8.286	10.318	10.071	214.844
-5.382	-3.680	-4.456	-2.290	0.579	-1.681	7.946	6.204	9.551	10.002	10.267	6.113	4.262	0.782	-5.923	-4.869	-7.006	-7.721	-5.388	-2.914	-1.446	-3.520	-5.200	4.587	2.563	8.857	10.932	10.288	218.750
-5.899	-4.043	-4.885	-2.509	0.639	-1.681	8.471	6.232	9.493	10.533	10.287	6.250	4.879	1.033	-6.392	-5.302	-7.321	-7.996	-5.493	-3.275	-1.557	-3.296	-4.978	5.259	3.029	9.430	11.639	10.563	222.656
-6.484	-4.512	-5.362	-2.819	0.666	-1.696	8.983	6.322	9.467	11.082	10.325	6.460	5.494	1.259	-6.900	-5.814	-7.669	-8.267	-5.598	-3.701	-1.706	-3.001	-4.690	5.994	3.512	9.986	12.399	10.877	226.562
-7.096	-5.044	-5.841	-3.184	0.658	-1.715	9.437	6.449	9.456	11.596	10.351	6.699	6.068	1.463	-7.421	-6.360	-8.030	-8.520	-5.692	-4.141	-1.860	-2.643	-4.343	6.759	4.000	10.505	13.162	11.205	230.469
-7.687	-5.585	-6.269	-3.564	0.621	-1.728	9.785	6.575	9.435	12.020	10.337	6.921	6.566	1.652	-7.931	-6.891	-8.381	-8.745	-5.764	-4.546	-1.989	-2.235	-3.951	7.515	4.483	10.970	13.876	11.520	234.375
-8.210	-6.079	-6.596	-3.913	0.566	-1.722	9.994	6.658	9.374	12.304	10.257	7.085	6.961	1.826	-8.401	-7.358	-8.698	-8.934	-5.804	-4.872	-2.070	-1.795	-3.529	8.225	4.944	11.364	14.498	11.794	238.281
-8.625	-6.473	-6.785	-4.191	0.507	-1.688	10.045	6.653	9.246	12.408	10.093	7.163	7.237	1.986	-8.803	-7.720	-8.959	-9.081	-5.802	-5.084	-2.089	-1.344	-3.094	8.854	5.368	11.677	14.994	12.007	242.188
-8.900	-6.728	-6.825	-4.363	0.459	-1.624	9.940	6.527	9.030	12.313	9.836	7.142	7.390	2.131	-9.112	-7.940	-9.138	-9.179	-5.748	-5.161	-2.040	-0.901	-2.669	9.373	5.731	11.899	15.343	12.143	246.094
-9.023	-6.817	-6.725	-4.407	0.439	-1.532	9.701	6.260	8.716	12.020	9.491	7.024	7.426	2.258	-9.308	-7.997	-9.216	-9.222	-5.632	-5.094	-1.921	-0.486	-2.278	9.762	6.008	12.021	15.537	12.193	250.000
-8.996	-6.735	-6.519	-4.315	0.459	-1.424	9.364	5.853	8.310	11.560	9.072	6.825	7.365	2.368	-9.379	-7.878	-9.176	-9.205	-5.449	-4.884	-1.737	-0.116	-1.942	10.009	6.175	12.035	15.584	12.155	253.906
-8.841	-6.499	-6.256	-4.096	0.525	-1.313	8.980	5.324	7.829	10.982	8.606	6.570	7.235	2.466	-9.324	-7.590	-9.010	-9.124	-5.195	-4.543	-1.492	0.199	-1.682	10.115	6.209	11.936	15.499	12.033	257.812
-8.590	-6.142	-5.991	-3.774	0.636	-1.215	8.599	4.709	7.302	10.357	8.129	6.292	7.077	2.562	-9.157	-7.155	-8.722	-8.985	-4.877	-4.095	-1.193	0.451	-1.512	10.097	6.100	11.725	15.312	11.840	261.719
-8.288	-5.715	-5.775	-3.386	0.783	-1.144	8.272	4.053	6.764	9.761	7.678	6.023	6.936	2.670	-8.904	-6.616	-8.334	-8.798	-4.511	-3.571	-0.845	0.641	-1.441	9.978	5.852	11.409	15.060	11.596	265.625
-7.985	-5.278	-5.650	-2.978	0.950	-1.109	8.037	3.406	6.252	9.271	7.293	5.795	6.859	2.811	-8.604	-6.026	-7.883	-8.586	-4.120	-3.011	-0.460	0.773	-1.465	9.796	5.484	11.011	14.787	11.329	269.531
-7.730	-4.892	-5.637	-2.599	1.120	-1.117	7.925	2.816	5.798	8.951	7.010	5.637	6.892	3.003	-8.303	-5.451	-7.417	-8.375	-3.735	-2.462	-0.050	0.858	-1.571	9.592	5.034	10.560	14.538	11.069	273.438
-7.564	-4.610	-5.740	-2.294	1.273	-1.169	7.946	2.321	5.430	8.843	6.852	5.568	7.068	3.261	-8.045	-4.954	-6.989	-8.194	-3.389	-1.967	0.369	0.911	-1.737	9.410	4.546	10.097	14.354	10.847	277.344
-7.516	-4.470	-5.947	-2.096	1.399	-1.262	8.099	1.942	5.161	8.961	6.829	5.594	7.406	3.595	-7.871	-4.586	-6.645	-8.067	-3.108	-1.565	0.780	0.950	-1.934	9.289	4.069	9.661	14.265	10.685	281.250
-7.596	-4.486	-6.236	-2.023	1.493	-1.390	8.365	1.685	4.992	9.286	6.932	5.709	7.906	4.008	-7.806	-4.374	-6.414	-8.009	-2.907	-1.279	1.167	0.995	-2.131	9.259	3.648	9.288	14.285	10.596	285.156
-7.798	-4.649	-6.579	-2.071	1.560	-1.544	8.715	1.534	4.909	9.769	7.132	5.888	8.545	4.494	-7.855	-4.318	-6.301	-8.016	-2.783	-1.109	1.523	1.067	-2.295	9.333	3.315	8.997	14.409	10.574	289.062
-8.096	-4.924	-6.947	-2.218	1.612	-1.713	9.115	1.462	4.884	10.341	7.382	6.093	9.285	5.040	-8.005	-4.387	-6.285	-8.066	-2.715	-1.038	1.844	1.183	-2.401	9.512	3.084	8.793	14.610	10.597	292.969
-8.454	-5.262	-7.315	-2.428	1.667	-1.881	9.530	1.431	4.880	10.922	7.624	6.274	10.071	5.625	-8.222	-4.527	-6.322	-8.127	-2.668	-1.028	2.140	1.354	-2.432	9.775	2.953	8.662	14.847	10.629	296.875
-8.828	-5.602	-7.663	-2.652	1.741	-2.036	9.931	1.406	4.858	11.436	7.798	6.378	10.845	6.229	-8.464	-4.671	-6.354	-8.156	-2.597	-1.030	2.422	1.586	-2.379	10.093	2.907	8.573	15.069	10.627	300.781
-9.179	-5.886	-7.976	-2.845	1.849	-2.164	10.296	1.357	4.785	11.824	7.851	6.356	11.550	6.826	-8.684	-4.755	-6.324	-8.114	-2.461	-0.997	2.706	1.876	-2.246	10.427	2.916	8.491	15.225	10.550	304.688
-9.473	-6.070	-8.246	-2.967	1.999	-2.254	10.611	1.270	4.639	12.050	7.749	6.178	12.141	7.395	-8.844	-4.732	-6.187	-7.977	-2.229	-0.890	3.006	2.215	-2.044	10.740	2.953	8.383	15.277	10.368	308.594
-9.692	-6.129	-8.469	-2.994	2.189	-2.298	10.872	1.144	4.417	12.112	7.484	5.833	12.588	7.918	-8.919	-4.580	-5.925	-7.738	-1.891	-0.692	3.327	2.586	-1.790	11.003	2.993	8.227	15.204	10.070	312.500
-9.835	-6.064	-8.646	-2.923	2.414	-2.296	11.078	0.994	4.128	12.033	7.075	5.336	12.883	8.379	-8.904	-4.307	-5.545	-7.413	-1.460	-0.407	3.663	2.969	-1.504	11.200	3.022	8.022	15.007	9.668	316.406
-9.913	-5.898	-8.782	-2.768	2.659	-2.248	11.231	0.842	3.798	11.854	6.561	4.726	13.035	8.768	-8.811	-3.947	-5.085	-7.035	-0.968	-0.064	3.997	3.342	-1.204	11.327	3.039	7.784	14.713	9.196	320.312
-9.944	-5.667	-8.881	-2.556	2.906	-2.163	11.338	0.715	3.455	11.629	5.998	4.057	13.066	9.076	-8.665	-3.553	-4.596	-6.646	-0.461	0.294	4.305	3.682	-0.909	11.393	3.054	7.544	14.360	8.701	324.219
-9.953	-5.416	-8.949	-2.325	3.136	-2.050	11.405	0.632	3.131	11.402	5.445	3.392	13.005	9.298	-8.496	-3.180	-4.135	-6.291	0.011	0.620	4.557	3.970	-0.633	11.412	3.081	7.342	13.998	8.235	328.125
-9.957	-5.183	-8.994	-2.109	3.331	-1.922	11.437	0.605	2.847	11.208	4.954	2.791	12.877	9.429	-8.329	-2.873	-3.750	-6.003	0.403	0.876	4.728	4.188	-0.386	11.400	3.135	7.212	13.670	7.847	332.031
-9.965	-4.997	-9.023	-1.936	3.476	-1.793	11.438	0.636	2.619	11.055	4.566	2.305	12.702	9.465	-8.178	-2.655	-3.467	-5.802	0.689	1.040	4.804	4.328	-0.177	11.367	3.224	7.173	13.409	7.569	335.938
-9.979	-4.868	-9.046	-1.823	3.563	-1.678	11.409	0.714	2.451	10.935	4.299	1.970	12.491	9.404	-8.045	-2.527	-3.290	-5.688	0.859	1.109	4.780	4.386	-0.013	11.318	3.349	7.229	13.228	7.418	339.844
-9.991	-4.795	-9.070	-1.772	3.590	-1.590	11.348	0.823	2.338	10.821	4.157	1.804	12.244	9.250	-7.919	-2.471	-3.202	-5.646	0.925	1.101	4.668	4.369	0.104	11.248	3.498	7.363	13.124	7.390	343.750
-9.993	-4.764	-9.102	-1.776	3.559	-1.542	11.251	0.944	2.269	10.686	4.123	1.808	11.961	9.009	-7.783	-2.455	-3.173	-5.650	0.912	1.044	4.487	4.291	0.177	11.151	3.658	7.546	13.077	7.465	347.656
-9.973	-4.758	-9.142	-1.820	3.476	-1.540	11.116	1.059	2.227	10.509	4.171	1.966	11.641	8.696	-7.621	-2.447	-3.168	-5.670	0.852	0.969	4.265	4.174	0.211	11.019	3.812	7.741	13.060	7.615	351.562
-9.929	-4.761	-9.187	-1.889	3.348	-1.587	10.944	1.156	2.199	10.287	4.269	2.248	11.295	8.334	-7.427	-2.423	-3.159	-5.683	0.776	0.903	4.031	4.042	0.217	10.851	3.944	7.915	13.046	7.804	355.469
-9.862	-4.763	-9.229	-1.967	3.186	-1.678	10.743	1.229	2.174	10.036	4.388	2.613	10.943	7.955	-7.204	-2.368	-3.130	-5.673	0.709	0.864	3.812	3.920	0.207	10.652	4.043	8.041	13.014	8.003	359.375
-9.782	-4.762	-9.261	-2.041	3.000	-1.805	10.526	1.282	2.148	9.789	4.505	3.011	10.617	7.596	-6.972	-2.286	-3.080	-5.642	0.666	0.860	3.631	3.830	0.191	10.440	4.105	8.107	12.958	8.184	363.281
-9.707	-4.762	-9.279	-2.106	2.803	-1.956	10.317	1.329	2.125	9.590	4.608	3.393	10.357	7.299	-6.763	-2.188	-3.021	-5.603	0.650	0.891	3.509	3.785	0.179	10.239	4.129	8.116	12.886	8.330	367.188
-9.659	-4.773	-9.284	-2.158	2.609	-2.115	10.146	1.388	2.116	9.480	4.694	3.711	10.204	7.102	-6.611	-2.094	-2.973	-5.576	0.656	0.953	3.460	3.791	0.175	10.079	4.122	8.082	12.815	8.434	371.094
-9.660	-4.806	-9.287	-2.202	2.434	-2.266	10.041	1.482	2.133	9.492	4.763	3.929	10.188	7.034	-6.549	-2.022	-2.957	-5.587	0.671	1.038	3.494	3.845	0.177	9.984	4.092	8.027	12.769	8.494	375.000
-9.725	-4.870	-9.299	-2.243	2.293	-2.394	10.025	1.632	2.187	9.634	4.818	4.022	10.324	7.108	-6.597	-1.987	-2.989	-5.652	0.684	1.141	3.611	3.937	0.183	9.974	4.050	7.977	12.768	8.515	378.906
-9.860	-4.971	-9.334	-2.288	2.199	-2.487	10.111	1.847	2.283	9.892	4.859	3.987	10.598	7.314	-6.758	-1.993	-3.071	-5.777	0.687	1.254	3.805	4.050	0.187	10.050	4.005	7.950	12.818	8.503	382.812
-10.053	-5.105	-9.396	-2.342	2.160	-2.536	10.292	2.123	2.415	10.223	4.881	3.835	10.972	7.625	-7.009	-2.038	-3.193	-5.947	0.677	1.371	4.055	4.169	0.189	10.195	3.963	7.955	12.903	8.460	386.719
-10.273	-5.261	-9.481	-2.408	2.177	-2.541	10.541	2.437	2.565	10.568	4.871	3.592	11.385	7.993	-7.309	-2.106	-3.330	-6.132	0.661	1.487	4.335	4.278	0.191	10.374	3.929	7.985	12.991	8.384	390.625
-10.479	-5.424	-9.573	-2.482	2.243	-2.501	10.813	2.750	2.703	10.854	4.814	3.291	11.760	8.361	-7.600	-2.179	-3.449	-6.288	0.649	1.594	4.610	4.367	0.203	10.538	3.903	8.020	13.029	8.267	394.531
-10.625	-5.572	-9.645	-2.553	2.347	-2.425	11.053	3.013	2.795	11.012	4.691	2.969	12.023	8.670	-7.823	-2.238	-3.519	-6.369	0.654	1.688	4.847	4.428	0.236	10.637	3.883	8.036	12.963	8.096	398.438
-10.665	-5.681	-9.669	-2.609	2.473	-2.323	11.206	3.175	2.807	10.986	4.486	2.652	12.116	8.877	-7.926	-2.265	-3.514	-6.336	0.690	1.766	5.020	4.461	0.306	10.628	3.865	8.004	12.743	7.855	402.344
-10.575	-5.734	-9.619	-2.634	2.608	-2.207	11.230	3.194	2.713	10.747	4.190	2.355	12.008	8.955	-7.875	-2.248	-3.420	-6.169	0.765	1.830	5.118	4.470	0.423	10.487	3.849	7.902	12.344	7.533	406.250
-10.349	-5.714	-9.484	-2.611	2.742	-2.086	11.108	3.050	2.503	10.298	3.803	2.075	11.706	8.907	-7.668	-2.179	-3.241	-5.867	0.879	1.888	5.146	4.465	0.594	10.217	3.834	7.724	11.768	7.121	410.156
-10.009	-5.615	-9.266	-2.529	2.871	-1.968	10.850	2.748	2.182	9.675	3.334	1.792	11.247	8.760	-7.327	-2.059	-2.994	-5.458	1.031	1.954	5.131	4.460	0.815	9.842	3.821	7.471	11.048	6.618	414.062
-9.599	-5.436	-8.983	-2.377	3.002	-1.851	10.495	2.323	1.772	8.943	2.799	1.469	10.701	8.564	-6.900	-1.889	-2.705	-4.984	1.215	2.048	5.110	4.471	1.073	9.406	3.809	7.158	10.237	6.027	417.969
-9.172	-5.182	-8.661	-2.149	3.152	-1.727	10.101	1.831	1.308	8.187	2.220	1.066	10.144	8.376	-6.446	-1.672	-2.402	-4.498	1.424	2.188	5.128	4.511	1.348	8.955	3.789	6.796	9.397	5.354	421.875
-8.780	-4.859	-8.326	-1.841	3.341	-1.581	9.731	1.341	0.831	7.494	1.621	0.548	9.653	8.251	-6.023	-1.411	-2.106	-4.049	1.653	2.394	5.223	4.589	1.613	8.533	3.743	6.391	8.583	4.605	425.781
-8.458	-4.474	-7.998	-1.452	3.590	-1.394	9.440	0.920	0.381	6.935	1.029	-0.103	9.281	8.224	-5.670	-1.110	-1.830	-3.672	1.897	2.671	5.419	4.704	1.841	8.161	3.640	5.932	7.826	3.785	429.688
-8.220	-4.037	-7.681	-0.986	3.913	-1.146	9.262	0.620	-0.012	6.556	0.468	-0.876	9.053	8.309	-5.404	-0.773	-1.574	-3.383	2.153	3.014	5.712	4.847	2.008	7.841	3.447	5.396	7.130	2.901	433.594
-8.051	-3.554	-7.366	-0.456	4.310	-0.822	9.201	0.468	-0.329	6.364	-0.041	-1.732	8.964	8.488	-5.214	-0.407	-1.328	-3.175	2.418	3.402	6.078	5.002	2.101	7.551	3.129	4.754	6.478	1.965	437.500
-7.921	-3.037	-7.033	0.121	4.765	-0.417	9.237	0.460	-0.571	6.329	-0.485	-2.609	8.978	8.723	-5.069	-0.023	-1.078	-3.021	2.689	3.807	6.468	5.150	2.115	7.259	2.667	3.983	5.837	0.998	441.406
-7.789	-2.504	-6.663	0.716	5.252	0.061	9.328	0.566	-0.750	6.395	-0.859	-3.434	9.048	8.962	-4.930	0.363	-0.811	-2.886	2.960	4.190	6.831	5.273	2.062	6.935	2.062	3.080	5.178	0.033	445.312
-7.619	-1.976	-6.243	1.296	5.731	0.592	9.423	0.735	-0.887	6.494	-1.163	-4.136	9.124	9.155	-4.760	0.729	-0.522	-2.734	3.227	4.518	7.116	5.360	1.960	6.560	1.338	2.067	4.488	-0.890	449.219
-7.395	-1.484	-5.779	1.824	6.165	1.141	9.478	0.912	-1.001	6.566	-1.400	-4.661	9.167	9.267	-4.541	1.054	-0.215	-2.542	3.480	4.767	7.292	5.409	1.837	6.138	0.546	0.996	3.774	-1.723	453.125
-7.120	-1.060	-5.294	2.263	6.519	1.664	9.459	1.047	-1.108	6.570	-1.574	-4.980	9.160	9.284	-4.274	1.314	0.094	-2.304	3.711	4.926	7.351	5.429	1.720	5.697	-0.246	-0.059	3.074	-2.421	457.031
-6.821	-0.737	-4.828	2.583	6.772	2.116	9.356	1.109	-1.212	6.498	-1.684	-5.092	9.101	9.213	-3.981	1.491	0.379	-2.035	3.909	4.998	7.309	5.433	1.633	5.280	-0.963	-1.014	2.437	-2.947	460.938
-6.539	-0.543	-4.427	2.766	6.916	2.460	9.175	1.086	-1.306	6.365	-1.730	-5.020	9.007	9.080	-3.698	1.574	0.614	-1.763	4.065	4.995	7.197	5.435	1.589	4.938	-1.540	-1.791	1.921	-3.281	464.844
-6.318	-0.492	-4.132	2.808	6.959	2.672	8.942	0.992	-1.376	6.205	-1.707	-4.806	8.897	8.918	-3.465	1.558	0.774	-1.523	4.170	4.938	7.050	5.447	1.594	4.712	-1.927	-2.331	1.571	-3.421	468.750
-6.193	-0.584	-3.966	2.719	6.921	2.748	8.689	0.857	-1.404	6.059	-1.615	-4.497	8.790	8.756	-3.311	1.449	0.843	-1.348	4.218	4.843	6.900	5.474	1.641	4.626	-2.105	-2.606	1.409	-3.384	472.656
-6.180	-0.801	-3.930	2.526	6.831	2.704	8.452	0.723	-1.378	5.957	-1.463	-4.139	8.696	8.611	-3.253	1.260	0.815	-1.260	4.206	4.724	6.765	5.513	1.717	4.679	-2.079	-2.622	1.432	-3.203	476.562
-6.275	-1.109	-4.000	2.265	6.718	2.572	8.255	0.630	-1.291	5.916	-1.264	-3.772	8.610	8.486	-3.292	1.011	0.698	-1.267	4.133	4.587	6.648	5.552	1.802	4.843	-1.880	-2.413	1.609	-2.918	480.469
-6.450	-1.465	-4.132	1.975	6.610	2.399	8.112	0.611	-1.147	5.930	-1.044	-3.423	8.520	8.371	-3.411	0.725	0.505	-1.362	4.004	4.432	6.540	5.578	1.876	5.076	-1.558	-2.035	1.890	-2.572	484.375
-6.666	-1.823	-4.273	1.697	6.527	2.228	8.020	0.683	-0.962	5.979	-0.834	-3.111	8.406	8.247	-3.585	0.423	0.258	-1.526	3.826	4.259	6.426	5.576	1.923	5.324	-1.167	-1.551	2.221	-2.205	488.281
-6.879	-2.142	-4.373	1.462	6.477	2.102	7.963	0.843	-0.759	6.031	-0.664	-2.847	8.252	8.094	-3.788	0.127	-0.020	-1.733	3.610	4.070	6.294	5.533	1.933	5.538	-0.757	-1.023	2.552	-1.850	492.188
-7.050	-2.393	-4.395	1.293	6.461	2.048	7.920	1.074	-0.563	6.056	-0.561	-2.639	8.050	7.901	-3.992	-0.146	-0.307	-1.954	3.369	3.867	6.139	5.447	1.904	5.680	-0.373	-0.507	2.844	-1.531	496.094
-7.153	-2.563	-4.320	1.201	6.469	2.077	7.866	1.345	-0.394	6.030	-0.537	-2.492	7.809	7.665	-4.177	-0.386	-0.580	-2.162	3.121	3.661	5.961	5.320	1.843	5.730	-0.045	-0.046	3.076	-1.267	500.000
-7.180	-2.652	-4.153	1.183	6.488	2.187	7.784	1.617	-0.263	5.946	-0.591	-2.411	7.548	7.401	-4.329	-0.585	-0.818	-2.332	2.886	3.464	5.775	5.168	1.763	5.687	0.207	0.325	3.239	-1.074	503.906
-7.135	-2.671	-3.914	1.232	6.508	2.359	7.669	1.854	-0.176	5.813	-0.709	-2.404	7.299	7.132	-4.440	-0.738	-1.004	-2.444	2.688	3.291	5.598	5.011	1.683	5.567	0.371	0.584	3.336	-0.966	507.812
-7.036	-2.634	-3.632	1.334	6.522	2.568	7.523	2.022	-0.129	5.652	-0.865	-2.471	7.092	6.888	-4.507	-0.840	-1.120	-2.487	2.550	3.158	5.455	4.875	1.622	5.395	0.445	0.714	3.371	-0.953	511.719
-6.902	-2.558	-3.339	1.475	6.529	2.786	7.357	2.099	-0.116	5.489	-1.030	-2.611	6.954	6.699	-4.529	-0.885	-1.155	-2.455	2.490	3.082	5.368	4.784	1.595	5.198	0.427	0.707	3.350	-1.043	515.625
-6.752	-2.451	-3.061	1.644	6.537	2.987	7.184	2.073	-0.135	5.345	-1.182	-2.816	6.895	6.586	-4.506	-0.865	-1.101	-2.352	2.521	3.080	5.356	4.755	1.609	4.997	0.320	0.562	3.273	-1.234	519.531
-6.596	-2.316	-2.813	1.834	6.552	3.149	7.013	1.941	-0.185	5.231	-1.305	-3.071	6.908	6.557	-4.436	-0.770	-0.956	-2.189	2.646	3.169	5.435	4.794	1.661	4.803	0.130	0.288	3.137	-1.517	523.438
-6.433	-2.151	-2.604	2.040	6.583	3.255	6.846	1.712	-0.269	5.143	-1.394	-3.350	6.967	6.604	-4.316	-0.590	-0.728	-1.983	2.859	3.361	5.605	4.894	1.741	4.616	-0.133	-0.095	2.937	-1.870	527.344
-6.257	-1.954	-2.434	2.256	6.628	3.293	6.677	1.400	-0.390	5.061	-1.453	-3.624	7.033	6.702	-4.145	-0.320	-0.428	-1.755	3.141	3.660	5.859	5.036	1.830	4.427	-0.453	-0.556	2.670	-2.262	531.250
-6.057	-1.728	-2.299	2.470	6.678	3.260	6.496	1.031	-0.544	4.958	-1.489	-3.859	7.065	6.813	-3.922	0.033	-0.078	-1.524	3.466	4.055	6.169	5.192	1.911	4.221	-0.808	-1.055	2.341	-2.652	535.156
-5.827	-1.482	-2.197	2.669	6.718	3.154	6.292	0.633	-0.725	4.807	-1.515	-4.021	7.026	6.898	-3.652	0.449	0.296	-1.309	3.800	4.516	6.499	5.332	1.969	3.991	-1.169	-1.545	1.966	-2.998	539.062
-5.565	-1.235	-2.122	2.830	6.725	2.983	6.060	0.238	-0.917	4.584	-1.538	-4.085	6.893	6.918	-3.345	0.892	0.666	-1.119	4.110	4.994	6.801	5.430	1.996	3.735	-1.500	-1.977	1.573	-3.257	542.969
-5.283	-1.012	-2.072	2.935	6.677	2.759	5.800	-0.122	-1.106	4.280	-1.570	-4.042	6.662	6.846	-3.020	1.315	1.002	-0.958	4.367	5.432	7.026	5.472	1.997	3.467	-1.767	-2.305	1.199	-3.398	546.875
-5.001	-0.838	-2.041	2.971	6.560	2.500	5.523	-0.419	-1.275	3.897	-1.618	-3.900	6.349	6.673	-2.699	1.669	1.282	-0.822	4.551	5.769	7.137	5.456	1.983	3.210	-1.936	-2.494	0.889	-3.405	550.781
-4.749	-0.728	-2.027	2.933	6.370	2.226	5.245	-0.636	-1.416	3.451	-1.692	-3.684	5.985	6.407	-2.406	1.915	1.492	-0.700	4.658	5.963	7.113	5.395	1.972	2.996	-1.984	-2.525	0.680	-3.279	554.688
-4.554	-0.690	-2.027	2.832	6.116	1.959	4.984	-0.766	-1.526	2.965	-1.803	-3.437	5.610	6.079	-2.164	2.029	1.629	-0.585	4.694	5.994	6.960	5.311	1.981	2.860	-1.904	-2.396	0.605	-3.040	558.594
-4.441	-0.716	-2.039	2.691	5.816	1.718	4.759	-0.815	-1.611	2.469	-1.959	-3.210	5.265	5.730	-1.991	2.013	1.698	-0.468	4.679	5.877	6.710	5.236	2.024	2.827	-1.700	-2.124	0.677	-2.725	562.500
-4.424	-0.787	-2.065	2.538	5.499	1.518	4.582	-0.798	-1.683	1.989	-2.167	-3.051	4.988	5.409	-1.898	1.891	1.715	-0.352	4.641	5.654	6.415	5.199	2.105	2.912	-1.393	-1.740	0.891	-2.376	566.406
-4.503	-0.881	-2.107	2.403	5.192	1.368	4.458	-0.732	-1.754	1.550	-2.427	-2.998	4.801	5.161	-1.887	1.704	1.700	-0.244	4.607	5.387	6.131	5.223	2.224	3.114	-1.014	-1.286	1.222	-2.040	570.312
-4.663	-0.971	-2.169	2.309	4.918	1.267	4.382	-0.637	-1.835	1.171	-2.730	-3.073	4.709	5.015	-1.949	1.502	1.671	-0.157	4.601	5.142	5.911	5.323	2.371	3.412	-0.597	-0.806	1.630	-1.754	574.219
-4.879	-1.039	-2.252	2.267	4.691	1.212	4.338	-0.531	-1.931	0.865	-3.060	-3.272	4.700	4.981	-2.069	1.332	1.647	-0.105	4.638	4.974	5.788	5.497	2.535	3.775	-0.177	-0.341	2.062	-1.548	578.125
-5.116	-1.072	-2.353	2.277	4.515	1.190	4.306	-0.423	-2.039	0.637	-3.391	-3.573	4.743	5.044	-2.221	1.226	1.638	-0.095	4.718	4.917	5.769	5.727	2.702	4.156	0.217	0.072	2.463	-1.434	582.031
-5.333	-1.066	-2.459	2.325	4.382	1.192	4.255	-0.323	-2.153	0.484	-3.697	-3.937	4.795	5.165	-2.375	1.204	1.652	-0.127	4.834	4.976	5.836	5.984	2.858	4.507	0.562	0.408	2.779	-1.416	585.938
-5.492	-1.025	-2.551	2.394	4.281	1.205	4.154	-0.238	-2.263	0.393	-3.955	-4.318	4.806	5.293	-2.497	1.265	1.693	-0.184	4.967	5.130	5.951	6.233	2.993	4.777	0.844	0.648	2.965	-1.484	589.844
-5.561	-0.955	-2.606	2.465	4.191	1.220	3.972	-0.180	-2.362	0.340	-4.150	-4.670	4.728	5.371	-2.553	1.394	1.762	-0.240	5.101	5.341	6.065	6.437	3.103	4.926	1.054	0.784	2.994	-1.623	593.750
-5.517	-0.867	-2.601	2.524	4.095	1.229	3.686	-0.159	-2.446	0.296	-4.278	-4.955	4.522	5.350	-2.516	1.568	1.862	-0.259	5.220	5.565	6.135	6.567	3.188	4.924	1.188	0.815	2.853	-1.813	597.656
-5.351	-0.769	-2.523	2.558	3.976	1.230	3.288	-0.188	-2.518	0.231	-4.345	-5.148	4.168	5.197	-2.365	1.759	1.995	-0.205	5.315	5.757	6.126	6.605	3.252	4.762	1.246	0.745	2.553	-2.035	601.562
-5.069	-0.674	-2.371	2.564	3.819	1.219	2.788	-0.272	-2.580	0.119	-4.360	-5.240	3.667	4.903	-2.098	1.940	2.161	-0.049	5.387	5.885	6.023	6.550	3.302	4.448	1.233	0.590	2.121	-2.271	605.469
-4.692	-0.590	-2.161	2.539	3.619	1.199	2.215	-0.410	-2.635	-0.059	-4.340	-5.234	3.047	4.482	-1.724	2.090	2.359	0.219	5.439	5.931	5.826	6.414	3.344	4.010	1.155	0.365	1.600	-2.501	609.375
-4.254	-0.528	-1.920	2.487	3.381	1.171	1.613	-0.588	-2.683	-0.305	-4.298	-5.144	2.356	3.970	-1.272	2.194	2.581	0.591	5.480	5.895	5.557	6.219	3.382	3.490	1.022	0.093	1.038	-2.712	613.281
-3.795	-0.490	-1.677	2.414	3.119	1.145	1.034	-0.780	-2.720	-0.607	-4.247	-4.995	1.655	3.419	-0.781	2.248	2.812	1.038	5.516	5.790	5.246	5.991	3.414	2.937	0.841	-0.206	0.482	-2.894	617.188
-3.352	-0.474	-1.461	2.333	2.859	1.130	0.528	-0.952	-2.741	-0.943	-4.199	-4.820	1.007	2.884	-0.298	2.259	3.037	1.514	5.549	5.644	4.933	5.759	3.434	2.399	0.618	-0.517	-0.030	-3.044	621.094
-2.959	-0.471	-1.290	2.260	2.635	1.139	0.136	-1.072	-2.735	-1.283	-4.163	-4.652	0.469	2.420	0.132	2.241	3.237	1.969	5.582	5.490	4.658	5.543	3.431	1.913	0.361	-0.830	-0.475	-3.170	625.000
-2.637	-0.465	-1.171	2.212	2.476	1.185	-0.120	-1.111	-2.695	-1.592	-4.149	-4.525	0.077	2.066	0.472	2.216	3.397	2.355	5.612	5.365	4.455	5.361	3.396	1.504	0.075	-1.142	-0.845	-3.283	628.906
-2.393	-0.442	-1.100	2.205	2.405	1.275	-0.232	-1.056	-2.618	-1.843	-4.163	-4.463	-0.159	1.846	0.700	2.210	3.509	2.637	5.636	5.298	4.348	5.218	3.321	1.179	-0.234	-1.457	-1.146	-3.400	632.812
-2.222	-0.387	-1.065	2.251	2.430	1.412	-0.215	-0.907	-2.501	-2.015	-4.208	-4.480	-0.250	1.758	0.810	2.243	3.570	2.798	5.650	5.307	4.342	5.115	3.207	0.930	-0.554	-1.775	-1.393	-3.532	636.719
-2.109	-0.293	-1.048	2.352	2.541	1.591	-0.098	-0.685	-2.351	-2.103	-4.285	-4.576	-0.232	1.785	0.816	2.327	3.588	2.838	5.650	5.393	4.425	5.048	3.060	0.742	-0.871	-2.097	-1.604	-3.688	640.625
-2.034	-0.159	-1.032	2.499	2.713	1.800	0.080	-0.420	-2.177	-2.118	-4.387	-4.737	-0.149	1.892	0.746	2.464	3.574	2.780	5.637	5.541	4.571	5.009	2.893	0.592	-1.167	-2.419	-1.796	-3.866	644.531
-1.977	0.007	-1.001	2.676	2.913	2.021	0.273	-0.151	-1.994	-2.082	-4.505	-4.938	-0.050	2.038	0.635	2.645	3.547	2.657	5.610	5.723	4.744	4.991	2.726	0.462	-1.426	-2.730	-1.984	-4.060	648.438
-1.926	0.190	-0.942	2.860	3.105	2.235	0.437	0.083	-1.818	-2.026	-4.625	-5.151	0.029	2.184	0.523	2.851	3.522	2.508	5.573	5.906	4.910	4.987	2.576	0.340	-1.632	-3.019	-2.175	-4.255	652.344
-1.872	0.369	-0.851	3.028	3.258	2.424	0.538	0.252	-1.664	-1.983	-4.734	-5.345	0.063	2.304	0.441	3.060	3.514	2.369	5.532	6.063	5.045	4.994	2.460	0.224	-1.778	-3.272	-2.370	-4.438	656.250
-1.819	0.524	-0.729	3.159	3.355	2.575	0.557	0.337	-1.544	-1.977	-4.817	-5.498	0.051	2.385	0.406	3.248	3.530	2.263	5.493	6.177	5.142	5.011	2.386	0.121	-1.862	-3.478	-2.560	-4.593	660.156
-1.776	0.637	-0.585	3.238	3.390	2.682	0.490	0.335	-1.465	-2.018	-4.865	-5.592	0.007	2.432	0.420	3.392	3.564	2.202	5.460	6.244	5.210	5.039	2.359	0.044	-1.888	-3.626	-2.731	-4.710	664.062
-1.757	0.691	-0.434	3.257	3.371	2.746	0.358	0.258	-1.428	-2.104	-4.871	-5.619	-0.040	2.460	0.467	3.474	3.603	2.179	5.433	6.267	5.266	5.077	2.372	0.014	-1.863	-3.710	-2.861	-4.777	667.969
-1.775	0.677	-0.296	3.212	3.308	2.773	0.193	0.128	-1.427	-2.216	-4.831	-5.574	-0.055	2.490	0.520	3.475	3.622	2.176	5.403	6.250	5.327	5.124	2.412	0.050	-1.793	-3.721	-2.925	-4.784	671.875
-1.843	0.591	-0.187	3.103	3.217	2.770	0.039	-0.020	-1.449	-2.324	-4.742	-5.453	-0.008	2.537	0.548	3.381	3.592	2.166	5.353	6.190	5.396	5.170	2.463	0.165	-1.682	-3.656	-2.897	-4.717	675.781
-1.965	0.434	-0.122	2.933	3.105	2.743	-0.058	-0.151	-1.475	-2.389	-4.598	-5.252	0.119	2.603	0.523	3.178	3.481	2.123	5.260	6.073	5.458	5.199	2.502	0.364	-1.533	-3.506	-2.760	-4.563	679.688
-2.137	0.210	-0.104	2.702	2.975	2.695	-0.062	-0.228	-1.480	-2.377	-4.392	-4.965	0.326	2.675	0.428	2.855	3.268	2.027	5.096	5.870	5.476	5.187	2.509	0.634	-1.344	-3.269	-2.503	-4.309	683.594
-2.344	-0.068	-0.123	2.412	2.821	2.626	0.047	-0.220	-1.438	-2.260	-4.117	-4.588	0.594	2.722	0.265	2.411	2.941	1.869	4.837	5.549	5.400	5.105	2.467	0.950	-1.115	-2.944	-2.132	-3.949	687.500
-2.565	-0.386	-0.158	2.066	2.630	2.536	0.267	-0.105	-1.324	-2.029	-3.771	-4.126	0.883	2.704	0.049	1.856	2.509	1.656	4.466	5.081	5.180	4.928	2.363	1.271	-0.849	-2.535	-1.669	-3.486	691.406
-2.769	-0.721	-0.181	1.672	2.391	2.424	0.575	0.122	-1.126	-1.698	-3.361	-3.595	1.145	2.580	-0.191	1.214	1.997	1.407	3.988	4.458	4.778	4.638	2.195	1.552	-0.554	-2.058	-1.151	-2.939	695.312
-2.924	-1.047	-0.157	1.248	2.096	2.296	0.929	0.450	-0.844	-1.302	-2.909	-3.022	1.325	2.322	-0.416	0.532	1.452	1.153	3.423	3.701	4.188	4.234	1.969	1.746	-0.244	-1.536	-0.626	-2.343	699.219
-3.000	-1.333	-0.058	0.822	1.749	2.162	1.277	0.847	-0.499	-0.897	-2.451	-2.453	1.377	1.920	-0.586	-0.129	0.928	0.929	2.814	2.865	3.441	3.730	1.698	1.812	0.057	-1.008	-0.152	-1.749	703.125
-2.972	-1.541	0.134	0.431	1.366	2.036	1.563	1.270	-0.129	-0.547	-2.038	-1.941	1.270	1.390	-0.667	-0.698	0.489	0.769	2.221	2.036	2.604	3.161	1.403	1.725	0.320	-0.522	0.214	-1.219	707.031
-2.824	-1.636	0.425	0.120	0.975	1.938	1.737	1.663	0.216	-0.314	-1.725	-1.548	0.992	0.773	-0.635	-1.099	0.192	0.701	1.710	1.321	1.775	2.574	1.106	1.476	0.511	-0.131	0.420	-0.816	710.938
-2.552	-1.587	0.804	-0.066	0.610	1.887	1.764	1.971	0.480	-0.249	-1.566	-1.327	0.556	0.127	-0.479	-1.270	0.081	0.742	1.345	0.823	1.061	2.025	0.831	1.076	0.600	0.112	0.427	-0.600	714.844
-2.166	-1.374	1.249	-0.093	0.307	1.896	1.628	2.147	0.615	-0.378	-1.598	-1.319	-0.002	-0.479	-0.204	-1.170	0.180	0.895	1.176	0.627	0.557	1.571	0.602	0.557	0.567	0.166	0.219	-0.612	718.750
-1.693	-0.998	1.724	0.054	0.097	1.970	1.331	2.160	0.591	-0.703	-1.837	-1.540	-0.631	-0.983	0.173	-0.794	0.488	1.156	1.232	0.775	0.331	1.258	0.438	-0.033	0.406	0.009	-0.196	-0.866	722.656
-1.169	-0.481	2.188	0.366	-0.007	2.102	0.899	2.000	0.400	-1.198	-2.267	-1.974	-1.271	-1.334	0.621	-0.171	0.981	1.505	1.513	1.258	0.406	1.120	0.357	-0.635	0.131	-0.352	-0.782	-1.349	726.562
-0.642	0.130	2.597	0.806	-0.004	2.275	0.375	1.677	0.062	-1.816	-2.847	-2.578	-1.862	-1.505	1.101	0.632	1.610	1.920	1.990	2.016	0.755	1.170	0.371	-1.184	-0.225	-0.883	-1.479	-2.014	730.469
-0.162	0.769	2.912	1.317	0.088	2.463	-0.183	1.224	-0.384	-2.496	-3.515	-3.284	-2.350	-1.492	1.572	1.522	2.313	2.369	2.610	2.946	1.314	1.397	0.483	-1.621	-0.615	-1.522	-2.210	-2.791	734.375
0.223	1.362	3.105	1.827	0.239	2.633	-0.710	0.686	-0.883	-3.174	-4.196	-4.010	-2.697	-1.314	1.991	2.397	3.016	2.817	3.300	3.923	1.987	1.772	0.689	-1.901	-0.984	-2.191	-2.894	-3.592	738.281
0.478	1.838	3.160	2.264	0.414	2.757	-1.143	0.120	-1.374	-3.788	-4.816	-4.673	-2.885	-1.009	2.321	3.156	3.647	3.230	3.979	4.819	2.670	2.244	0.969	-1.997	-1.280	-2.808	-3.454	-4.330	742.188
0.584	2.144	3.082	2.566	0.579	2.810	-1.431	-0.414	-1.801	-4.287	-5.313	-5.201	-2.914	-0.625	2.534	3.719	4.146	3.574	4.567	5.529	3.267	2.751	1.296	-1.910	-1.465	-3.301	-3.835	-4.924	746.094
0.540	2.250	2.889	2.693	0.705	2.782	-1.542	-0.859	-2.118	-4.633	-5.640	-5.542	-2.802	-0.213	2.618	4.037	4.466	3.818	4.999	5.978	3.704	3.225	1.631	-1.665	-1.518	-3.619	-4.005	-5.317	750.000
0.365	2.158	2.616	2.634	0.774	2.672	-1.469	-1.170	-2.295	-4.799	-5.775	-5.666	-2.579	0.178	2.573	4.096	4.584	3.943	5.228	6.138	3.939	3.605	1.929	-1.310	-1.444	-3.739	-3.963	-5.479	753.906
0.093	1.896	2.302	2.403	0.779	2.495	-1.233	-1.315	-2.320	-4.777	-5.716	-5.571	-2.285	0.506	2.413	3.917	4.499	3.939	5.235	6.018	3.961	3.839	2.149	-0.901	-1.267	-3.669	-3.733	-5.409	757.812
-0.232	1.514	1.994	2.041	0.724	2.277	-0.873	-1.287	-2.198	-4.568	-5.483	-5.278	-1.960	0.741	2.166	3.545	4.234	3.811	5.026	5.660	3.789	3.897	2.256	-0.500	-1.026	-3.441	-3.360	-5.133	761.719
-0.564	1.072	1.728	1.602	0.620	2.048	-0.444	-1.096	-1.949	-4.189	-5.105	-4.825	-1.641	0.864	1.866	3.040	3.828	3.576	4.629	5.129	3.461	3.771	2.229	-0.161	-0.764	-3.103	-2.897	-4.699	765.625
-0.863	0.628	1.536	1.146	0.478	1.839	-0.006	-0.776	-1.599	-3.668	-4.621	-4.261	-1.357	0.870	1.548	2.465	3.331	3.264	4.093	4.494	3.029	3.476	2.067	0.080	-0.521	-2.707	-2.399	-4.168	769.531
-1.098	0.228	1.433	0.722	0.310	1.677	0.390	-0.372	-1.180	-3.042	-4.066	-3.638	-1.128	0.764	1.247	1.873	2.797	2.912	3.474	3.821	2.541	3.046	1.782	0.205	-0.323	-2.298	-1.912	-3.598	773.438
-1.254	-0.102	1.424	0.368	0.119	1.579	0.705	0.065	-0.719	-2.353	-3.471	-3.001	-0.964	0.561	0.988	1.303	2.273	2.558	2.828	3.163	2.043	2.525	1.403	0.216	-0.182	-1.911	-1.466	-3.041	777.344
-1.330	-0.354	1.501	0.100	-0.094	1.549	0.919	0.487	-0.239	-1.637	-2.857	-2.386	-0.863	0.279	0.787	0.776	1.796	2.233	2.202	2.551	1.565	1.962	0.964	0.131	-0.096	-1.561	-1.075	-2.533	781.250
-1.337	-0.539	1.647	-0.084	-0.331	1.582	1.032	0.862	0.246	-0.924	-2.236	-1.813	-0.817	-0.062	0.648	0.294	1.384	1.957	1.627	1.998	1.122	1.396	0.497	-0.024	-0.051	-1.252	-0.738	-2.090	785.156
-1.294	-0.677	1.842	-0.204	-0.594	1.665	1.061	1.175	0.728	-0.230	-1.612	-1.285	-0.809	-0.439	0.565	-0.151	1.037	1.735	1.113	1.498	0.717	0.854	0.029	-0.220	-0.029	-0.976	-0.442	-1.711	789.062
-1.225	-0.791	2.063	-0.283	-0.879	1.781	1.032	1.429	1.207	0.441	-0.983	-0.791	-0.823	-0.834	0.520	-0.576	0.741	1.559	0.652	1.036	0.340	0.345	-0.426	-0.428	-0.015	-0.720	-0.169	-1.379	792.969
-1.150	-0.901	2.287	-0.347	-1.176	1.908	0.979	1.645	1.683	1.096	-0.353	-0.315	-0.840	-1.229	0.493	-0.996	0.472	1.410	0.224	0.589	-0.021	-0.134	-0.863	-0.630	0.004	-0.470	0.099	-1.072	796.875
