FP1	F3	F7	FC3	C3	C5	P3	P7	PO7	PO3	O1	Oz	Pz	CPz	FP2	Fz	F4	F8	FC4	FCz	Cz	C4	C6	P4	P8	PO8	PO4	O2	time
0.570	0.480	0.875	0.071	-0.083	0.016	-1.548	-1.354	-0.760	-2.380	-1.024	-1.884	0.620	1.214	0.926	1.027	1.635	1.581	1.742	1.150	1.350	0.983	0.742	0.050	-0.580	-0.670	-1.032	-1.332	-199.219
0.429	0.465	0.791	0.191	0.218	0.262	-1.293	-1.013	-0.646	-2.269	-0.979	-1.771	0.435	0.968	0.857	0.782	1.384	1.411	1.530	0.899	1.106	0.963	0.677	0.041	-0.612	-0.759	-1.144	-1.364	-195.312
0.292	0.437	0.718	0.292	0.493	0.490	-1.046	-0.700	-0.533	-2.149	-0.915	-1.639	0.272	0.733	0.771	0.541	1.129	1.232	1.315	0.654	0.869	0.941	0.611	0.041	-0.629	-0.826	-1.219	-1.366	-191.406
0.169	0.391	0.662	0.361	0.718	0.682	-0.825	-0.441	-0.425	-2.019	-0.822	-1.476	0.143	0.513	0.658	0.314	0.873	1.042	1.095	0.421	0.647	0.910	0.542	0.057	-0.617	-0.845	-1.225	-1.313	-187.500
0.070	0.327	0.630	0.391	0.873	0.826	-0.647	-0.260	-0.332	-1.884	-0.697	-1.275	0.055	0.311	0.517	0.109	0.618	0.839	0.871	0.208	0.443	0.867	0.471	0.091	-0.564	-0.798	-1.140	-1.187	-183.594
0.001	0.250	0.619	0.383	0.950	0.915	-0.526	-0.172	-0.264	-1.750	-0.547	-1.031	0.006	0.126	0.351	-0.066	0.370	0.624	0.646	0.022	0.257	0.805	0.400	0.142	-0.461	-0.673	-0.956	-0.981	-179.688
-0.031	0.172	0.625	0.347	0.947	0.948	-0.475	-0.179	-0.233	-1.627	-0.386	-0.752	-0.015	-0.046	0.172	-0.203	0.136	0.403	0.422	-0.130	0.091	0.720	0.332	0.204	-0.308	-0.469	-0.678	-0.698	-175.781
-0.025	0.104	0.642	0.295	0.873	0.928	-0.503	-0.277	-0.244	-1.526	-0.233	-0.451	-0.023	-0.208	-0.000	-0.294	-0.071	0.186	0.209	-0.243	-0.056	0.610	0.271	0.267	-0.109	-0.194	-0.331	-0.357	-171.875
0.017	0.063	0.664	0.245	0.746	0.863	-0.615	-0.448	-0.303	-1.458	-0.109	-0.152	-0.039	-0.364	-0.145	-0.333	-0.238	-0.011	0.019	-0.309	-0.182	0.480	0.223	0.320	0.123	0.133	0.053	0.015	-167.969
0.088	0.058	0.684	0.212	0.584	0.762	-0.811	-0.672	-0.404	-1.434	-0.033	0.120	-0.079	-0.514	-0.240	-0.314	-0.349	-0.171	-0.133	-0.321	-0.282	0.342	0.192	0.351	0.367	0.484	0.429	0.385	-164.062
0.179	0.095	0.699	0.207	0.407	0.631	-1.083	-0.921	-0.537	-1.460	-0.015	0.340	-0.156	-0.654	-0.269	-0.235	-0.389	-0.277	-0.230	-0.276	-0.352	0.211	0.184	0.352	0.600	0.828	0.759	0.716	-160.156
0.275	0.168	0.701	0.229	0.231	0.478	-1.412	-1.165	-0.685	-1.535	-0.055	0.494	-0.268	-0.777	-0.224	-0.102	-0.352	-0.316	-0.263	-0.177	-0.385	0.101	0.200	0.318	0.801	1.133	1.009	0.980	-156.250
0.362	0.263	0.688	0.269	0.066	0.309	-1.768	-1.376	-0.825	-1.647	-0.138	0.574	-0.405	-0.873	-0.111	0.071	-0.244	-0.287	-0.231	-0.034	-0.380	0.026	0.236	0.252	0.951	1.373	1.159	1.157	-152.344
0.427	0.360	0.655	0.311	-0.083	0.130	-2.112	-1.529	-0.933	-1.777	-0.241	0.590	-0.544	-0.930	0.053	0.262	-0.082	-0.200	-0.145	0.134	-0.339	-0.010	0.287	0.163	1.036	1.526	1.207	1.243	-148.438
0.462	0.436	0.605	0.336	-0.212	-0.050	-2.398	-1.606	-0.988	-1.896	-0.336	0.559	-0.661	-0.937	0.239	0.443	0.103	-0.077	-0.028	0.299	-0.269	-0.012	0.337	0.064	1.055	1.584	1.162	1.242	-144.531
0.466	0.472	0.542	0.329	-0.322	-0.223	-2.581	-1.598	-0.976	-1.975	-0.396	0.505	-0.731	-0.889	0.412	0.585	0.276	0.051	0.090	0.434	-0.181	0.008	0.372	-0.032	1.010	1.547	1.044	1.170	-140.625
0.444	0.460	0.475	0.283	-0.411	-0.377	-2.628	-1.504	-0.895	-1.991	-0.402	0.449	-0.735	-0.782	0.542	0.665	0.399	0.154	0.177	0.518	-0.085	0.030	0.373	-0.111	0.913	1.426	0.878	1.043	-136.719
0.407	0.401	0.415	0.201	-0.478	-0.502	-2.523	-1.336	-0.754	-1.931	-0.352	0.407	-0.666	-0.618	0.603	0.672	0.446	0.203	0.208	0.536	0.011	0.035	0.327	-0.165	0.777	1.240	0.687	0.881	-132.812
0.368	0.306	0.370	0.100	-0.521	-0.589	-2.273	-1.115	-0.575	-1.797	-0.257	0.382	-0.527	-0.402	0.588	0.611	0.407	0.186	0.171	0.493	0.104	0.011	0.227	-0.193	0.618	1.010	0.491	0.696	-128.906
0.338	0.198	0.342	-0.000	-0.538	-0.634	-1.908	-0.864	-0.387	-1.604	-0.140	0.369	-0.331	-0.145	0.503	0.502	0.290	0.104	0.070	0.407	0.198	-0.047	0.076	-0.197	0.448	0.758	0.301	0.499	-125.000
0.321	0.101	0.331	-0.075	-0.524	-0.637	-1.473	-0.613	-0.224	-1.378	-0.030	0.354	-0.100	0.141	0.368	0.377	0.124	-0.025	-0.076	0.307	0.300	-0.130	-0.112	-0.186	0.277	0.500	0.121	0.292	-121.094
0.318	0.036	0.328	-0.107	-0.478	-0.602	-1.020	-0.383	-0.107	-1.144	0.045	0.319	0.140	0.437	0.212	0.268	-0.056	-0.175	-0.235	0.226	0.416	-0.224	-0.315	-0.170	0.110	0.248	-0.047	0.079	-117.188
0.321	0.017	0.325	-0.087	-0.398	-0.535	-0.592	-0.187	-0.049	-0.921	0.071	0.252	0.364	0.723	0.064	0.204	-0.213	-0.316	-0.377	0.188	0.546	-0.307	-0.509	-0.159	-0.050	0.009	-0.206	-0.134	-113.281
0.320	0.046	0.311	-0.016	-0.285	-0.444	-0.214	-0.027	-0.044	-0.716	0.046	0.150	0.550	0.977	-0.055	0.196	-0.321	-0.427	-0.476	0.204	0.680	-0.364	-0.674	-0.162	-0.200	-0.214	-0.355	-0.338	-109.375
0.303	0.110	0.276	0.089	-0.143	-0.335	0.108	0.112	-0.069	-0.521	-0.009	0.024	0.685	1.176	-0.136	0.236	-0.371	-0.498	-0.524	0.262	0.799	-0.390	-0.795	-0.182	-0.339	-0.418	-0.490	-0.519	-105.469
0.259	0.187	0.212	0.204	0.022	-0.213	0.389	0.255	-0.088	-0.314	-0.063	-0.103	0.763	1.302	-0.182	0.299	-0.373	-0.532	-0.529	0.336	0.877	-0.389	-0.873	-0.218	-0.462	-0.595	-0.603	-0.658	-101.562
0.180	0.247	0.116	0.301	0.198	-0.082	0.657	0.429	-0.063	-0.067	-0.074	-0.201	0.789	1.341	-0.210	0.348	-0.354	-0.548	-0.512	0.386	0.886	-0.380	-0.913	-0.265	-0.565	-0.739	-0.680	-0.734	-97.656
0.064	0.261	-0.014	0.352	0.371	0.049	0.938	0.655	0.038	0.242	-0.007	-0.238	0.773	1.291	-0.239	0.342	-0.346	-0.565	-0.502	0.374	0.807	-0.382	-0.931	-0.312	-0.641	-0.838	-0.704	-0.733	-93.750
-0.085	0.207	-0.176	0.337	0.520	0.168	1.244	0.940	0.231	0.626	0.162	-0.190	0.731	1.156	-0.287	0.254	-0.376	-0.604	-0.524	0.275	0.634	-0.416	-0.939	-0.347	-0.683	-0.881	-0.657	-0.644	-89.844
-0.260	0.077	-0.366	0.244	0.625	0.257	1.569	1.268	0.510	1.077	0.433	-0.044	0.679	0.952	-0.362	0.071	-0.459	-0.673	-0.591	0.082	0.377	-0.490	-0.946	-0.359	-0.685	-0.858	-0.529	-0.469	-85.938
-0.445	-0.126	-0.574	0.075	0.662	0.296	1.888	1.603	0.846	1.568	0.786	0.194	0.632	0.699	-0.463	-0.194	-0.590	-0.766	-0.698	-0.186	0.063	-0.600	-0.952	-0.338	-0.643	-0.764	-0.318	-0.222	-82.031
-0.624	-0.382	-0.790	-0.156	0.614	0.265	2.161	1.897	1.194	2.057	1.180	0.500	0.595	0.420	-0.577	-0.510	-0.748	-0.865	-0.824	-0.492	-0.273	-0.726	-0.947	-0.282	-0.559	-0.605	-0.032	0.074	-78.125
-0.775	-0.662	-0.999	-0.425	0.472	0.152	2.348	2.096	1.503	2.498	1.563	0.837	0.569	0.136	-0.680	-0.831	-0.898	-0.941	-0.936	-0.785	-0.591	-0.843	-0.919	-0.198	-0.438	-0.394	0.302	0.383	-74.219
-0.880	-0.929	-1.184	-0.701	0.243	-0.040	2.417	2.159	1.722	2.844	1.879	1.159	0.546	-0.136	-0.749	-1.103	-1.003	-0.965	-0.998	-1.012	-0.857	-0.922	-0.852	-0.095	-0.296	-0.155	0.649	0.670	-70.312
-0.925	-1.145	-1.327	-0.948	-0.055	-0.293	2.355	2.061	1.816	3.057	2.081	1.420	0.515	-0.383	-0.764	-1.281	-1.030	-0.913	-0.982	-1.131	-1.046	-0.941	-0.738	0.008	-0.148	0.082	0.966	0.899	-66.406
-0.904	-1.279	-1.410	-1.134	-0.385	-0.573	2.174	1.806	1.768	3.117	2.137	1.582	0.461	-0.596	-0.712	-1.334	-0.959	-0.777	-0.875	-1.122	-1.146	-0.888	-0.576	0.097	-0.016	0.286	1.212	1.043	-62.500
-0.820	-1.307	-1.421	-1.231	-0.702	-0.837	1.905	1.421	1.587	3.022	2.033	1.622	0.374	-0.771	-0.594	-1.251	-0.790	-0.562	-0.681	-0.985	-1.160	-0.767	-0.376	0.158	0.085	0.432	1.352	1.088	-58.594
-0.684	-1.222	-1.351	-1.222	-0.962	-1.039	1.591	0.957	1.299	2.786	1.778	1.533	0.247	-0.902	-0.424	-1.047	-0.539	-0.293	-0.422	-0.749	-1.100	-0.591	-0.152	0.184	0.141	0.501	1.368	1.030	-54.688
-0.515	-1.029	-1.199	-1.103	-1.124	-1.143	1.280	0.474	0.946	2.438	1.395	1.322	0.081	-0.987	-0.224	-0.753	-0.240	-0.003	-0.134	-0.457	-0.985	-0.382	0.072	0.177	0.150	0.487	1.259	0.882	-50.781
-0.334	-0.749	-0.975	-0.884	-1.165	-1.127	1.011	0.037	0.574	2.019	0.921	1.013	-0.119	-1.023	-0.022	-0.416	0.069	0.272	0.145	-0.161	-0.835	-0.167	0.278	0.141	0.115	0.396	1.037	0.664	-46.875
-0.159	-0.415	-0.701	-0.589	-1.082	-0.987	0.808	-0.301	0.227	1.573	0.401	0.635	-0.338	-1.010	0.155	-0.082	0.346	0.497	0.379	0.092	-0.669	0.031	0.448	0.086	0.048	0.243	0.727	0.402	-42.969
-0.009	-0.068	-0.403	-0.255	-0.891	-0.743	0.679	-0.502	-0.061	1.151	-0.118	0.224	-0.557	-0.948	0.283	0.204	0.560	0.648	0.545	0.271	-0.499	0.194	0.570	0.023	-0.033	0.051	0.363	0.125	-39.062
0.103	0.246	-0.120	0.075	-0.628	-0.430	0.618	-0.550	-0.267	0.800	-0.591	-0.181	-0.756	-0.840	0.347	0.412	0.687	0.714	0.631	0.361	-0.338	0.311	0.641	-0.037	-0.109	-0.155	-0.017	-0.141	-35.156
0.171	0.485	0.114	0.355	-0.339	-0.098	0.610	-0.449	-0.379	0.565	-0.974	-0.544	-0.908	-0.692	0.343	0.521	0.720	0.696	0.638	0.360	-0.193	0.380	0.661	-0.084	-0.162	-0.349	-0.376	-0.373	-31.250
0.189	0.614	0.262	0.542	-0.073	0.204	0.638	-0.223	-0.394	0.483	-1.230	-0.828	-0.990	-0.510	0.273	0.526	0.663	0.605	0.577	0.282	-0.072	0.398	0.636	-0.110	-0.181	-0.508	-0.679	-0.552	-27.344
0.155	0.615	0.300	0.605	0.129	0.431	0.689	0.088	-0.317	0.578	-1.332	-1.007	-0.980	-0.301	0.149	0.433	0.528	0.462	0.460	0.144	0.017	0.371	0.571	-0.109	-0.158	-0.615	-0.895	-0.664	-23.438
0.068	0.483	0.214	0.532	0.240	0.554	0.756	0.434	-0.162	0.858	-1.264	-1.062	-0.860	-0.068	-0.012	0.256	0.335	0.286	0.304	-0.034	0.073	0.301	0.474	-0.075	-0.097	-0.661	-1.004	-0.700	-19.531
-0.070	0.236	0.006	0.328	0.255	0.562	0.837	0.763	0.046	1.309	-1.033	-0.990	-0.619	0.189	-0.193	0.018	0.105	0.097	0.122	-0.232	0.097	0.196	0.353	-0.005	-0.006	-0.642	-0.991	-0.659	-15.625
-0.254	-0.093	-0.308	0.024	0.189	0.463	0.934	1.019	0.272	1.895	-0.666	-0.804	-0.256	0.475	-0.377	-0.256	-0.139	-0.089	-0.072	-0.432	0.102	0.066	0.215	0.104	0.105	-0.563	-0.857	-0.546	-11.719
-0.476	-0.458	-0.699	-0.335	0.072	0.283	1.047	1.156	0.472	2.554	-0.215	-0.536	0.217	0.796	-0.551	-0.532	-0.376	-0.260	-0.267	-0.615	0.108	-0.073	0.072	0.254	0.221	-0.436	-0.615	-0.376	-7.812
-0.720	-0.808	-1.130	-0.692	-0.055	0.062	1.173	1.137	0.598	3.213	0.254	-0.233	0.776	1.158	-0.705	-0.779	-0.587	-0.407	-0.443	-0.759	0.139	-0.199	-0.063	0.442	0.330	-0.276	-0.292	-0.169	-3.906
-0.965	-1.093	-1.559	-0.989	-0.151	-0.161	1.299	0.943	0.608	3.789	0.663	0.054	1.378	1.558	-0.830	-0.962	-0.754	-0.522	-0.584	-0.841	0.223	-0.289	-0.174	0.659	0.423	-0.103	0.074	0.049	0.000
-1.185	-1.274	-1.949	-1.179	-0.186	-0.346	1.405	0.576	0.472	4.203	0.942	0.271	1.972	1.984	-0.921	-1.051	-0.859	-0.600	-0.668	-0.841	0.380	-0.323	-0.248	0.892	0.491	0.062	0.437	0.249	3.906
-1.352	-1.328	-2.264	-1.230	-0.142	-0.465	1.467	0.064	0.184	4.394	1.038	0.377	2.500	2.414	-0.969	-1.024	-0.890	-0.634	-0.677	-0.741	0.619	-0.288	-0.277	1.119	0.532	0.198	0.748	0.403	7.812
-1.442	-1.247	-2.480	-1.132	-0.019	-0.499	1.461	-0.542	-0.234	4.329	0.925	0.347	2.903	2.814	-0.971	-0.873	-0.840	-0.623	-0.604	-0.538	0.932	-0.185	-0.258	1.315	0.541	0.286	0.963	0.488	11.719
-1.439	-1.044	-2.581	-0.897	0.169	-0.444	1.370	-1.168	-0.733	4.013	0.615	0.176	3.135	3.143	-0.924	-0.607	-0.712	-0.566	-0.453	-0.243	1.289	-0.030	-0.198	1.454	0.519	0.312	1.050	0.488	15.625
-1.342	-0.748	-2.559	-0.559	0.397	-0.304	1.193	-1.732	-1.244	3.488	0.150	-0.118	3.169	3.360	-0.828	-0.256	-0.520	-0.465	-0.240	0.110	1.646	0.147	-0.112	1.514	0.468	0.270	0.993	0.397	19.531
-1.160	-0.399	-2.420	-0.160	0.631	-0.096	0.938	-2.153	-1.689	2.830	-0.401	-0.498	2.999	3.432	-0.689	0.135	-0.284	-0.327	0.002	0.472	1.945	0.308	-0.017	1.479	0.392	0.160	0.795	0.221	23.438
-0.916	-0.042	-2.179	0.249	0.837	0.159	0.633	-2.366	-1.996	2.134	-0.956	-0.915	2.645	3.335	-0.516	0.514	-0.031	-0.161	0.235	0.785	2.128	0.414	0.068	1.347	0.298	-0.008	0.478	-0.023	27.344
-0.642	0.277	-1.865	0.620	0.984	0.431	0.310	-2.335	-2.112	1.498	-1.431	-1.314	2.149	3.063	-0.323	0.826	0.207	0.023	0.421	0.994	2.151	0.435	0.128	1.126	0.194	-0.218	0.082	-0.308	31.250
-0.372	0.522	-1.512	0.914	1.049	0.690	0.008	-2.060	-2.017	1.011	-1.761	-1.644	1.570	2.630	-0.123	1.030	0.407	0.212	0.530	1.059	1.989	0.356	0.154	0.838	0.090	-0.451	-0.345	-0.603	35.156
-0.141	0.670	-1.161	1.107	1.021	0.904	-0.244	-1.579	-1.721	0.728	-1.900	-1.867	0.970	2.070	0.068	1.105	0.551	0.395	0.549	0.968	1.651	0.181	0.147	0.515	-0.005	-0.687	-0.756	-0.880	39.062
0.030	0.712	-0.852	1.192	0.899	1.046	-0.426	-0.964	-1.270	0.673	-1.838	-1.965	0.413	1.432	0.240	1.055	0.635	0.563	0.484	0.739	1.177	-0.065	0.113	0.192	-0.085	-0.907	-1.106	-1.114	42.969
0.129	0.661	-0.613	1.178	0.697	1.096	-0.531	-0.305	-0.733	0.827	-1.591	-1.937	-0.051	0.777	0.387	0.906	0.665	0.710	0.357	0.419	0.631	-0.345	0.063	-0.098	-0.147	-1.101	-1.366	-1.291	46.875
0.162	0.541	-0.461	1.088	0.434	1.045	-0.571	0.301	-0.190	1.144	-1.201	-1.803	-0.387	0.168	0.506	0.703	0.657	0.830	0.203	0.070	0.089	-0.617	0.008	-0.325	-0.194	-1.261	-1.521	-1.406	50.781
0.145	0.382	-0.398	0.952	0.133	0.894	-0.563	0.771	0.284	1.555	-0.726	-1.591	-0.578	-0.340	0.596	0.491	0.628	0.916	0.057	-0.245	-0.381	-0.844	-0.046	-0.472	-0.229	-1.378	-1.566	-1.456	54.688
0.103	0.217	-0.406	0.798	-0.183	0.655	-0.531	1.052	0.634	1.991	-0.222	-1.330	-0.627	-0.711	0.655	0.311	0.592	0.961	-0.058	-0.481	-0.727	-1.004	-0.098	-0.529	-0.252	-1.444	-1.506	-1.438	58.594
0.059	0.068	-0.464	0.647	-0.499	0.349	-0.496	1.125	0.839	2.395	0.264	-1.044	-0.550	-0.929	0.681	0.179	0.550	0.953	-0.132	-0.623	-0.935	-1.095	-0.157	-0.495	-0.258	-1.438	-1.344	-1.339	62.500
0.026	-0.059	-0.544	0.507	-0.803	-0.000	-0.471	1.013	0.912	2.735	0.707	-0.738	-0.376	-1.004	0.665	0.088	0.487	0.877	-0.181	-0.690	-1.022	-1.134	-0.234	-0.376	-0.230	-1.328	-1.076	-1.133	66.406
0.005	-0.174	-0.628	0.373	-1.094	-0.367	-0.456	0.772	0.901	3.009	1.104	-0.406	-0.137	-0.969	0.593	0.004	0.376	0.715	-0.237	-0.733	-1.037	-1.156	-0.347	-0.180	-0.146	-1.074	-0.690	-0.780	70.312
-0.023	-0.304	-0.712	0.224	-1.375	-0.732	-0.441	0.477	0.873	3.243	1.475	-0.026	0.137	-0.871	0.451	-0.120	0.186	0.454	-0.344	-0.816	-1.043	-1.200	-0.507	0.085	0.026	-0.626	-0.168	-0.238	74.219
-0.090	-0.485	-0.810	0.034	-1.651	-1.082	-0.405	0.211	0.902	3.482	1.853	0.430	0.421	-0.759	0.226	-0.337	-0.115	0.087	-0.544	-1.006	-1.103	-1.299	-0.721	0.412	0.316	0.057	0.513	0.532	78.125
-0.232	-0.755	-0.951	-0.225	-1.930	-1.414	-0.322	0.045	1.054	3.778	2.273	0.987	0.700	-0.677	-0.092	-0.686	-0.542	-0.383	-0.866	-1.347	-1.262	-1.477	-0.986	0.793	0.743	0.999	1.366	1.550	82.031
-0.483	-1.140	-1.170	-0.573	-2.215	-1.733	-0.169	0.025	1.368	4.175	2.764	1.654	0.967	-0.650	-0.499	-1.181	-1.092	-0.939	-1.317	-1.849	-1.540	-1.736	-1.291	1.222	1.311	2.194	2.386	2.802	85.938
-0.858	-1.646	-1.498	-1.013	-2.502	-2.044	0.067	0.172	1.849	4.700	3.335	2.426	1.225	-0.684	-0.983	-1.809	-1.741	-1.554	-1.880	-2.489	-1.925	-2.064	-1.615	1.685	1.999	3.596	3.546	4.241	89.844
-1.352	-2.256	-1.948	-1.528	-2.783	-2.351	0.384	0.475	2.473	5.354	3.978	3.271	1.476	-0.766	-1.518	-2.527	-2.443	-2.192	-2.514	-3.210	-2.377	-2.431	-1.939	2.164	2.761	5.121	4.789	5.780	93.750
-1.932	-2.928	-2.508	-2.082	-3.042	-2.653	0.766	0.902	3.185	6.109	4.659	4.141	1.727	-0.868	-2.068	-3.271	-3.142	-2.812	-3.163	-3.936	-2.842	-2.800	-2.242	2.635	3.529	6.651	6.033	7.305	97.656
-2.547	-3.601	-3.136	-2.626	-3.258	-2.937	1.181	1.406	3.917	6.915	5.333	4.972	1.977	-0.955	-2.594	-3.967	-3.778	-3.372	-3.767	-4.587	-3.263	-3.135	-2.508	3.068	4.227	8.053	7.186	8.691	101.562
-3.132	-4.204	-3.773	-3.103	-3.411	-3.184	1.591	1.935	4.597	7.704	5.944	5.696	2.222	-0.998	-3.054	-4.546	-4.301	-3.838	-4.269	-5.096	-3.592	-3.404	-2.727	3.433	4.778	9.197	8.152	9.816	105.469
-3.621	-4.672	-4.349	-3.461	-3.484	-3.369	1.955	2.440	5.163	8.404	6.443	6.253	2.449	-0.979	-3.409	-4.954	-4.671	-4.181	-4.627	-5.417	-3.800	-3.588	-2.894	3.700	5.119	9.972	8.849	10.582	109.375
-3.959	-4.951	-4.795	-3.658	-3.468	-3.471	2.237	2.887	5.574	8.949	6.789	6.596	2.644	-0.893	-3.634	-5.160	-4.870	-4.384	-4.818	-5.535	-3.877	-3.678	-3.006	3.849	5.212	10.302	9.217	10.929	113.281
-4.112	-5.017	-5.062	-3.676	-3.363	-3.472	2.417	3.255	5.810	9.291	6.964	6.706	2.791	-0.754	-3.713	-5.160	-4.897	-4.441	-4.840	-5.459	-3.833	-3.678	-3.063	3.867	5.047	10.160	9.230	10.842	117.188
-4.073	-4.869	-5.126	-3.518	-3.178	-3.363	2.489	3.536	5.874	9.412	6.970	6.587	2.877	-0.583	-3.649	-4.977	-4.770	-4.360	-4.711	-5.223	-3.689	-3.600	-3.067	3.757	4.644	9.563	8.899	10.350	121.094
-3.861	-4.538	-4.996	-3.212	-2.934	-3.151	2.467	3.738	5.794	9.324	6.834	6.273	2.897	-0.406	-3.460	-4.652	-4.520	-4.159	-4.464	-4.870	-3.472	-3.462	-3.020	3.533	4.046	8.572	8.269	9.527	125.000
-3.520	-4.076	-4.709	-2.802	-2.654	-2.855	2.379	3.873	5.608	9.069	6.599	5.822	2.856	-0.244	-3.175	-4.238	-4.186	-3.869	-4.138	-4.449	-3.207	-3.281	-2.928	3.222	3.311	7.284	7.415	8.475	128.906
-3.108	-3.550	-4.322	-2.346	-2.366	-2.504	2.262	3.957	5.369	8.714	6.324	5.303	2.767	-0.112	-2.834	-3.788	-3.809	-3.527	-3.775	-4.003	-2.914	-3.073	-2.800	2.861	2.506	5.815	6.431	7.314	132.812
-2.688	-3.029	-3.905	-1.899	-2.096	-2.136	2.151	4.006	5.128	8.334	6.069	4.791	2.649	-0.014	-2.478	-3.354	-3.431	-3.171	-3.412	-3.566	-2.608	-2.853	-2.646	2.490	1.692	4.291	5.420	6.164	136.719
-2.313	-2.575	-3.519	-1.514	-1.862	-1.791	2.070	4.033	4.934	8.002	5.891	4.358	2.520	0.049	-2.146	-2.976	-3.086	-2.841	-3.079	-3.168	-2.306	-2.631	-2.483	2.146	0.926	2.830	4.483	5.134	140.625
-2.023	-2.233	-3.211	-1.228	-1.678	-1.501	2.029	4.048	4.826	7.775	5.835	4.056	2.393	0.080	-1.870	-2.682	-2.805	-2.568	-2.801	-2.832	-2.025	-2.419	-2.327	1.861	0.249	1.536	3.703	4.308	144.531
-1.835	-2.028	-3.005	-1.061	-1.549	-1.290	2.021	4.059	4.829	7.683	5.925	3.920	2.272	0.077	-1.669	-2.488	-2.606	-2.372	-2.591	-2.576	-1.788	-2.229	-2.194	1.650	-0.310	0.487	3.139	3.741	148.438
-1.746	-1.961	-2.903	-1.016	-1.477	-1.169	2.024	4.073	4.947	7.728	6.161	3.960	2.147	0.034	-1.550	-2.399	-2.500	-2.264	-2.459	-2.417	-1.620	-2.071	-2.096	1.518	-0.734	-0.268	2.819	3.454	152.344
-1.734	-2.018	-2.891	-1.082	-1.459	-1.141	2.010	4.095	5.171	7.886	6.526	4.163	2.001	-0.058	-1.507	-2.408	-2.486	-2.241	-2.406	-2.360	-1.540	-1.957	-2.045	1.452	-1.022	-0.711	2.744	3.440	156.250
-1.770	-2.169	-2.948	-1.235	-1.491	-1.195	1.952	4.131	5.475	8.116	6.979	4.497	1.816	-0.205	-1.527	-2.498	-2.554	-2.290	-2.423	-2.401	-1.558	-1.895	-2.043	1.432	-1.178	-0.850	2.889	3.667	160.156
-1.826	-2.377	-3.053	-1.446	-1.566	-1.319	1.830	4.185	5.827	8.372	7.476	4.919	1.577	-0.409	-1.589	-2.643	-2.684	-2.394	-2.499	-2.521	-1.663	-1.888	-2.093	1.435	-1.217	-0.713	3.209	4.087	164.062
-1.881	-2.606	-3.194	-1.684	-1.674	-1.495	1.638	4.261	6.189	8.614	7.965	5.377	1.281	-0.660	-1.674	-2.810	-2.854	-2.535	-2.615	-2.685	-1.830	-1.936	-2.192	1.441	-1.157	-0.348	3.654	4.641	167.969
-1.926	-2.826	-3.363	-1.919	-1.801	-1.706	1.385	4.358	6.531	8.818	8.405	5.821	0.941	-0.936	-1.769	-2.967	-3.038	-2.699	-2.751	-2.848	-2.019	-2.034	-2.338	1.437	-1.020	0.195	4.175	5.275	171.875
-1.965	-3.015	-3.562	-2.126	-1.932	-1.937	1.094	4.475	6.831	8.978	8.765	6.209	0.586	-1.209	-1.866	-3.084	-3.217	-2.878	-2.891	-2.967	-2.185	-2.172	-2.525	1.424	-0.825	0.863	4.730	5.937	175.781
-2.014	-3.160	-3.794	-2.287	-2.048	-2.169	0.801	4.610	7.081	9.106	9.035	6.511	0.258	-1.442	-1.969	-3.144	-3.379	-3.073	-3.021	-3.010	-2.290	-2.337	-2.747	1.412	-0.587	1.611	5.290	6.589	179.688
-2.093	-3.263	-4.057	-2.395	-2.131	-2.387	0.549	4.760	7.284	9.226	9.220	6.714	0.002	-1.603	-2.088	-3.147	-3.526	-3.292	-3.141	-2.965	-2.312	-2.518	-2.997	1.424	-0.316	2.401	5.842	7.206	183.594
-2.227	-3.335	-4.349	-2.450	-2.166	-2.576	0.380	4.927	7.457	9.368	9.342	6.823	-0.136	-1.667	-2.241	-3.110	-3.670	-3.549	-3.256	-2.849	-2.251	-2.700	-3.264	1.488	-0.015	3.208	6.386	7.774	187.500
-2.432	-3.395	-4.660	-2.465	-2.143	-2.722	0.331	5.112	7.623	9.564	9.429	6.857	-0.124	-1.621	-2.449	-3.072	-3.834	-3.857	-3.380	-2.705	-2.131	-2.872	-3.533	1.633	0.320	4.018	6.931	8.295	191.406
-2.721	-3.470	-4.982	-2.460	-2.064	-2.812	0.430	5.319	7.802	9.834	9.514	6.844	0.057	-1.468	-2.731	-3.077	-4.048	-4.226	-3.533	-2.590	-1.986	-3.023	-3.787	1.882	0.699	4.824	7.493	8.774	195.312
-3.097	-3.588	-5.304	-2.458	-1.937	-2.838	0.688	5.549	8.008	10.192	9.620	6.819	0.406	-1.223	-3.102	-3.176	-4.337	-4.661	-3.730	-2.566	-1.861	-3.142	-4.005	2.251	1.132	5.627	8.089	9.223	199.219
-3.552	-3.772	-5.620	-2.487	-1.776	-2.799	1.099	5.804	8.247	10.634	9.761	6.814	0.904	-0.910	-3.566	-3.407	-4.721	-5.155	-3.984	-2.681	-1.792	-3.218	-4.165	2.739	1.627	6.429	8.728	9.653	203.125
-4.074	-4.040	-5.925	-2.568	-1.603	-2.696	1.643	6.077	8.509	11.147	9.938	6.852	1.519	-0.559	-4.119	-3.791	-5.203	-5.694	-4.295	-2.961	-1.801	-3.244	-4.251	3.336	2.186	7.230	9.413	10.069	207.031
-4.639	-4.395	-6.212	-2.715	-1.437	-2.537	2.284	6.359	8.778	11.704	10.140	6.946	2.207	-0.201	-4.742	-4.325	-5.774	-6.254	-4.653	-3.402	-1.896	-3.213	-4.251	4.015	2.798	8.023	10.135	10.473	210.938
-5.224	-4.828	-6.478	-2.932	-1.298	-2.333	2.976	6.637	9.031	12.269	10.345	7.095	2.920	0.139	-5.408	-4.983	-6.405	-6.807	-5.038	-3.971	-2.062	-3.124	-4.163	4.740	3.446	8.793	10.874	10.859	214.844
-5.800	-5.314	-6.712	-3.209	-1.197	-2.098	3.668	6.892	9.241	12.801	10.528	7.282	3.610	0.442	-6.078	-5.717	-7.057	-7.324	-5.422	-4.614	-2.275	-2.980	-3.994	5.470	4.101	9.519	11.599	11.215	218.750
-6.338	-5.819	-6.904	-3.525	-1.141	-1.850	4.309	7.108	9.385	13.259	10.661	7.484	4.234	0.700	-6.711	-6.465	-7.684	-7.774	-5.772	-5.266	-2.501	-2.788	-3.758	6.165	4.729	10.175	12.276	11.527	222.656
-6.812	-6.300	-7.040	-3.852	-1.127	-1.607	4.853	7.268	9.444	13.601	10.719	7.668	4.760	0.911	-7.267	-7.161	-8.238	-8.133	-6.057	-5.860	-2.706	-2.560	-3.476	6.787	5.296	10.734	12.870	11.779	226.562
-7.200	-6.715	-7.110	-4.156	-1.145	-1.384	5.264	7.356	9.406	13.797	10.685	7.804	5.164	1.081	-7.714	-7.745	-8.680	-8.384	-6.253	-6.340	-2.859	-2.308	-3.170	7.311	5.774	11.176	13.353	11.960	230.469
-7.488	-7.027	-7.107	-4.404	-1.180	-1.194	5.519	7.363	9.267	13.827	10.548	7.867	5.439	1.220	-8.031	-8.173	-8.984	-8.520	-6.344	-6.667	-2.941	-2.045	-2.861	7.723	6.144	11.484	13.705	12.061	234.375
-7.672	-7.215	-7.034	-4.568	-1.215	-1.046	5.609	7.285	9.037	13.686	10.311	7.840	5.590	1.341	-8.215	-8.419	-9.142	-8.547	-6.328	-6.823	-2.942	-1.780	-2.569	8.026	6.399	11.658	13.925	12.083	238.281
-7.761	-7.270	-6.905	-4.632	-1.230	-0.944	5.543	7.125	8.731	13.388	9.987	7.722	5.637	1.454	-8.280	-8.483	-9.162	-8.482	-6.210	-6.810	-2.857	-1.517	-2.303	8.238	6.547	11.705	14.025	12.032	242.188
-7.772	-7.208	-6.747	-4.592	-1.214	-0.889	5.344	6.894	8.372	12.966	9.600	7.526	5.611	1.574	-8.252	-8.383	-9.066	-8.348	-6.005	-6.647	-2.693	-1.252	-2.067	8.390	6.605	11.647	14.035	11.924	246.094
-7.735	-7.056	-6.593	-4.462	-1.158	-0.879	5.047	6.606	7.987	12.463	9.178	7.272	5.550	1.710	-8.170	-8.157	-8.887	-8.176	-5.733	-6.365	-2.458	-0.977	-1.857	8.519	6.601	11.514	13.997	11.777	250.000
-7.685	-6.860	-6.481	-4.265	-1.065	-0.914	4.698	6.280	7.599	11.933	8.754	6.993	5.498	1.875	-8.076	-7.850	-8.663	-7.993	-5.416	-6.001	-2.163	-0.679	-1.662	8.659	6.566	11.340	13.953	11.615	253.906
-7.654	-6.664	-6.443	-4.038	-0.944	-0.991	4.348	5.935	7.225	11.433	8.360	6.722	5.497	2.080	-8.007	-7.514	-8.429	-7.828	-5.078	-5.598	-1.821	-0.349	-1.471	8.841	6.529	11.158	13.945	11.464	257.812
-7.671	-6.510	-6.503	-3.814	-0.807	-1.103	4.044	5.591	6.878	11.017	8.022	6.491	5.584	2.333	-7.993	-7.192	-8.215	-7.702	-4.741	-5.191	-1.446	0.013	-1.278	9.079	6.508	10.996	14.000	11.343	261.719
-7.752	-6.429	-6.665	-3.627	-0.666	-1.243	3.826	5.264	6.566	10.726	7.759	6.327	5.784	2.641	-8.046	-6.919	-8.044	-7.630	-4.428	-4.814	-1.052	0.399	-1.085	9.371	6.509	10.867	14.130	11.264	265.625
-7.900	-6.428	-6.917	-3.493	-0.527	-1.396	3.724	4.967	6.291	10.590	7.582	6.245	6.109	3.010	-8.165	-6.713	-7.926	-7.618	-4.159	-4.487	-0.651	0.786	-0.902	9.698	6.526	10.771	14.326	11.231	269.531
-8.104	-6.498	-7.229	-3.419	-0.393	-1.544	3.752	4.710	6.056	10.621	7.492	6.249	6.555	3.436	-8.334	-6.577	-7.863	-7.664	-3.950	-4.222	-0.256	1.144	-0.748	10.030	6.536	10.693	14.566	11.235	273.438
-8.343	-6.608	-7.559	-3.389	-0.256	-1.662	3.911	4.494	5.856	10.812	7.481	6.329	7.104	3.913	-8.529	-6.497	-7.845	-7.759	-3.810	-4.015	0.126	1.440	-0.645	10.332	6.509	10.608	14.815	11.261	277.344
-8.589	-6.718	-7.863	-3.380	-0.106	-1.728	4.189	4.317	5.688	11.138	7.530	6.458	7.726	4.429	-8.721	-6.449	-7.855	-7.886	-3.736	-3.854	0.492	1.648	-0.614	10.572	6.415	10.485	15.035	11.284	281.250
-8.812	-6.787	-8.102	-3.359	0.072	-1.720	4.561	4.168	5.545	11.560	7.616	6.601	8.383	4.969	-8.883	-6.402	-7.870	-8.025	-3.715	-3.717	0.842	1.756	-0.664	10.730	6.231	10.295	15.192	11.279	285.156
-8.992	-6.779	-8.252	-3.297	0.286	-1.629	4.994	4.030	5.414	12.029	7.708	6.717	9.038	5.516	-8.993	-6.324	-7.862	-8.151	-3.721	-3.576	1.184	1.771	-0.792	10.801	5.946	10.020	15.261	11.221	289.062
-9.116	-6.676	-8.312	-3.174	0.540	-1.457	5.448	3.884	5.277	12.489	7.772	6.767	9.653	6.054	-9.037	-6.187	-7.805	-8.238	-3.720	-3.402	1.527	1.721	-0.976	10.798	5.570	9.657	15.232	11.094	292.969
-9.186	-6.481	-8.302	-2.987	0.826	-1.221	5.878	3.708	5.114	12.889	7.778	6.717	10.199	6.569	-9.013	-5.974	-7.673	-8.261	-3.674	-3.172	1.880	1.649	-1.182	10.751	5.131	9.220	15.112	10.890	296.875
-9.216	-6.215	-8.257	-2.750	1.125	-0.951	6.243	3.491	4.901	13.184	7.696	6.552	10.661	7.055	-8.924	-5.682	-7.452	-8.200	-3.548	-2.873	2.250	1.605	-1.364	10.695	4.672	8.739	14.920	10.614	300.781
-9.223	-5.914	-8.223	-2.491	1.414	-0.682	6.509	3.228	4.618	13.342	7.510	6.268	11.031	7.505	-8.784	-5.317	-7.137	-8.046	-3.317	-2.504	2.637	1.636	-1.477	10.667	4.245	8.255	14.686	10.280	304.688
-9.229	-5.619	-8.237	-2.244	1.665	-0.449	6.656	2.928	4.257	13.348	7.213	5.880	11.315	7.919	-8.611	-4.902	-6.737	-7.803	-2.975	-2.076	3.033	1.776	-1.484	10.693	3.897	7.811	14.441	9.910	308.594
-9.250	-5.366	-8.327	-2.042	1.858	-0.279	6.679	2.610	3.823	13.204	6.815	5.416	11.524	8.295	-8.424	-4.462	-6.274	-7.486	-2.532	-1.613	3.427	2.038	-1.368	10.787	3.663	7.444	14.214	9.527	312.500
-9.295	-5.177	-8.496	-1.908	1.981	-0.186	6.591	2.301	3.335	12.931	6.338	4.910	11.675	8.635	-8.242	-4.026	-5.780	-7.122	-2.018	-1.144	3.802	2.410	-1.131	10.943	3.561	7.176	14.025	9.153	316.406
-9.365	-5.062	-8.730	-1.852	2.033	-0.170	6.416	2.028	2.828	12.566	5.818	4.397	11.782	8.935	-8.081	-3.621	-5.290	-6.747	-1.472	-0.699	4.142	2.861	-0.797	11.142	3.586	7.016	13.883	8.806	320.312
-9.452	-5.013	-8.995	-1.870	2.026	-0.218	6.187	1.816	2.343	12.153	5.295	3.912	11.857	9.193	-7.951	-3.270	-4.838	-6.396	-0.941	-0.306	4.431	3.343	-0.409	11.354	3.717	6.955	13.788	8.496	324.219
-9.547	-5.013	-9.250	-1.946	1.979	-0.311	5.937	1.676	1.924	11.744	4.811	3.482	11.907	9.399	-7.855	-2.985	-4.452	-6.099	-0.467	0.015	4.655	3.802	-0.016	11.547	3.922	6.976	13.734	8.231	328.125
-9.634	-5.041	-9.456	-2.058	1.913	-0.429	5.695	1.612	1.606	11.387	4.406	3.130	11.933	9.542	-7.794	-2.775	-4.148	-5.876	-0.085	0.250	4.800	4.187	0.335	11.692	4.166	7.057	13.712	8.016	332.031
-9.702	-5.076	-9.586	-2.181	1.845	-0.557	5.477	1.615	1.410	11.119	4.106	2.871	11.930	9.609	-7.760	-2.638	-3.932	-5.732	0.186	0.394	4.859	4.460	0.608	11.767	4.418	7.178	13.714	7.854	335.938
-9.739	-5.104	-9.629	-2.297	1.785	-0.690	5.289	1.669	1.341	10.962	3.929	2.716	11.888	9.587	-7.740	-2.568	-3.799	-5.659	0.339	0.446	4.823	4.599	0.784	11.762	4.657	7.323	13.730	7.749	339.844
-9.740	-5.122	-9.596	-2.397	1.729	-0.833	5.126	1.754	1.384	10.921	3.878	2.673	11.798	9.467	-7.719	-2.557	-3.736	-5.637	0.384	0.411	4.689	4.599	0.863	11.679	4.869	7.481	13.754	7.707	343.750
-9.703	-5.133	-9.513	-2.478	1.669	-0.998	4.978	1.854	1.514	10.983	3.944	2.744	11.654	9.246	-7.680	-2.593	-3.724	-5.639	0.338	0.298	4.460	4.475	0.863	11.525	5.055	7.648	13.781	7.729	347.656
-9.632	-5.149	-9.414	-2.549	1.589	-1.196	4.833	1.955	1.702	11.123	4.112	2.928	11.456	8.934	-7.612	-2.667	-3.746	-5.642	0.224	0.118	4.149	4.254	0.812	11.318	5.216	7.820	13.802	7.812	351.562
-9.537	-5.186	-9.336	-2.624	1.475	-1.433	4.687	2.054	1.919	11.308	4.357	3.213	11.213	8.552	-7.509	-2.771	-3.789	-5.628	0.068	-0.117	3.776	3.973	0.740	11.079	5.359	7.990	13.811	7.946	355.469
-9.431	-5.258	-9.305	-2.717	1.321	-1.707	4.548	2.154	2.145	11.508	4.655	3.577	10.946	8.135	-7.376	-2.899	-3.843	-5.593	-0.108	-0.391	3.372	3.674	0.675	10.830	5.489	8.151	13.800	8.115	359.375
-9.332	-5.375	-9.339	-2.840	1.133	-2.003	4.436	2.264	2.368	11.700	4.981	3.990	10.682	7.723	-7.230	-3.048	-3.909	-5.544	-0.285	-0.686	2.974	3.394	0.639	10.597	5.608	8.294	13.764	8.295	363.281
-9.260	-5.542	-9.445	-2.997	0.925	-2.299	4.377	2.395	2.586	11.869	5.313	4.410	10.451	7.362	-7.093	-3.219	-3.988	-5.495	-0.451	-0.985	2.618	3.169	0.642	10.400	5.719	8.414	13.707	8.464	367.188
-9.234	-5.757	-9.622	-3.186	0.720	-2.573	4.400	2.554	2.801	12.017	5.629	4.797	10.280	7.086	-6.993	-3.408	-4.084	-5.465	-0.595	-1.268	2.336	3.024	0.686	10.262	5.826	8.509	13.637	8.603	371.094
-9.271	-6.011	-9.861	-3.398	0.542	-2.803	4.526	2.739	3.017	12.151	5.913	5.110	10.186	6.922	-6.954	-3.615	-4.199	-5.468	-0.712	-1.518	2.148	2.971	0.765	10.196	5.934	8.586	13.570	8.703	375.000
-9.379	-6.290	-10.148	-3.620	0.415	-2.976	4.757	2.941	3.233	12.284	6.151	5.322	10.171	6.873	-6.989	-3.833	-4.330	-5.510	-0.800	-1.723	2.062	3.011	0.871	10.210	6.051	8.660	13.525	8.763	378.906
-9.556	-6.577	-10.464	-3.839	0.350	-3.089	5.081	3.142	3.443	12.426	6.335	5.422	10.221	6.928	-7.097	-4.053	-4.469	-5.583	-0.858	-1.875	2.071	3.134	0.993	10.299	6.181	8.747	13.517	8.793	382.812
-9.789	-6.855	-10.787	-4.040	0.351	-3.148	5.463	3.319	3.632	12.576	6.456	5.414	10.310	7.056	-7.262	-4.262	-4.602	-5.670	-0.885	-1.974	2.153	3.319	1.121	10.447	6.328	8.858	13.551	8.803	386.719
-10.051	-7.102	-11.092	-4.213	0.406	-3.165	5.857	3.448	3.782	12.723	6.508	5.317	10.402	7.219	-7.451	-4.442	-4.710	-5.744	-0.881	-2.020	2.283	3.541	1.249	10.625	6.488	8.995	13.614	8.803	390.625
-10.306	-7.299	-11.350	-4.347	0.499	-3.156	6.208	3.507	3.866	12.839	6.483	5.157	10.459	7.378	-7.623	-4.574	-4.769	-5.775	-0.842	-2.016	2.431	3.776	1.372	10.797	6.646	9.144	13.675	8.790	394.531
-10.510	-7.426	-11.531	-4.433	0.612	-3.132	6.463	3.480	3.858	12.888	6.370	4.957	10.450	7.502	-7.733	-4.633	-4.756	-5.732	-0.760	-1.962	2.579	4.003	1.492	10.924	6.782	9.275	13.692	8.750	398.438
-10.623	-7.462	-11.610	-4.461	0.726	-3.103	6.580	3.360	3.734	12.830	6.156	4.729	10.354	7.574	-7.744	-4.601	-4.653	-5.596	-0.629	-1.855	2.719	4.212	1.609	10.968	6.871	9.351	13.612	8.658	402.344
-10.615	-7.395	-11.565	-4.424	0.834	-3.070	6.537	3.146	3.480	12.632	5.833	4.473	10.170	7.599	-7.636	-4.460	-4.452	-5.361	-0.441	-1.686	2.856	4.401	1.729	10.907	6.891	9.331	13.394	8.480	406.250
-10.475	-7.217	-11.390	-4.316	0.932	-3.030	6.338	2.847	3.095	12.275	5.396	4.173	9.913	7.593	-7.409	-4.207	-4.154	-5.035	-0.192	-1.450	3.006	4.574	1.855	10.731	6.825	9.187	13.011	8.186	410.156
-10.209	-6.934	-11.092	-4.135	1.029	-2.976	6.013	2.484	2.595	11.768	4.854	3.808	9.613	7.585	-7.083	-3.846	-3.774	-4.641	0.115	-1.140	3.191	4.742	1.989	10.451	6.669	8.907	12.465	7.757	414.062
-9.846	-6.562	-10.696	-3.885	1.138	-2.903	5.617	2.083	2.014	11.140	4.230	3.351	9.307	7.608	-6.696	-3.395	-3.337	-4.209	0.472	-0.757	3.432	4.915	2.130	10.091	6.426	8.498	11.783	7.185	417.969
-9.427	-6.128	-10.237	-3.571	1.274	-2.803	5.220	1.679	1.403	10.444	3.558	2.787	9.031	7.687	-6.292	-2.881	-2.870	-3.773	0.866	-0.309	3.740	5.097	2.271	9.682	6.108	7.977	11.005	6.479	421.875
-8.996	-5.662	-9.757	-3.203	1.455	-2.671	4.892	1.310	0.815	9.747	2.883	2.117	8.815	7.837	-5.912	-2.335	-2.402	-3.363	1.275	0.189	4.117	5.285	2.403	9.255	5.725	7.367	10.182	5.660	425.781
-8.590	-5.194	-9.293	-2.795	1.691	-2.504	4.693	1.012	0.303	9.114	2.253	1.361	8.672	8.057	-5.586	-1.789	-1.960	-3.003	1.681	0.718	4.550	5.470	2.510	8.833	5.284	6.688	9.352	4.759	429.688
-8.231	-4.745	-8.870	-2.357	1.986	-2.299	4.652	0.810	-0.093	8.597	1.709	0.562	8.597	8.332	-5.324	-1.267	-1.558	-2.702	2.061	1.256	5.014	5.635	2.578	8.427	4.784	5.948	8.541	3.813	433.594
-7.925	-4.327	-8.499	-1.904	2.339	-2.053	4.769	0.714	-0.358	8.224	1.279	-0.227	8.574	8.635	-5.120	-0.785	-1.205	-2.464	2.401	1.781	5.480	5.761	2.593	8.035	4.224	5.152	7.757	2.858	437.500
-7.661	-3.940	-8.173	-1.445	2.740	-1.766	5.006	0.715	-0.499	7.996	0.974	-0.950	8.575	8.934	-4.953	-0.350	-0.898	-2.278	2.689	2.279	5.923	5.835	2.549	7.650	3.603	4.301	6.997	1.931	441.406
-7.422	-3.579	-7.880	-0.992	3.173	-1.440	5.301	0.788	-0.547	7.881	0.785	-1.560	8.573	9.202	-4.798	0.043	-0.628	-2.133	2.927	2.742	6.322	5.853	2.448	7.267	2.931	3.403	6.254	1.065	445.312
-7.193	-3.234	-7.602	-0.553	3.622	-1.079	5.582	0.896	-0.545	7.834	0.688	-2.027	8.546	9.418	-4.632	0.404	-0.383	-2.015	3.120	3.169	6.670	5.820	2.302	6.884	2.226	2.479	5.526	0.288	449.219
-6.963	-2.896	-7.327	-0.137	4.071	-0.695	5.785	0.998	-0.537	7.800	0.649	-2.345	8.485	9.575	-4.443	0.743	-0.153	-1.915	3.279	3.564	6.967	5.754	2.132	6.512	1.519	1.560	4.824	-0.385	453.125
-6.735	-2.564	-7.048	0.248	4.503	-0.302	5.867	1.060	-0.562	7.732	0.632	-2.529	8.395	9.676	-4.231	1.068	0.068	-1.826	3.418	3.930	7.223	5.677	1.964	6.171	0.848	0.690	4.168	-0.943	457.031
-6.518	-2.242	-6.768	0.595	4.907	0.081	5.816	1.059	-0.643	7.595	0.605	-2.611	8.289	9.732	-4.008	1.375	0.277	-1.749	3.547	4.269	7.447	5.616	1.825	5.883	0.255	-0.087	3.587	-1.389	460.938
-6.330	-1.941	-6.497	0.896	5.269	0.433	5.649	0.988	-0.788	7.377	0.548	-2.628	8.187	9.760	-3.796	1.655	0.467	-1.686	3.668	4.575	7.646	5.590	1.738	5.673	-0.224	-0.729	3.110	-1.729	464.844
-6.190	-1.679	-6.250	1.141	5.580	0.733	5.408	0.853	-0.987	7.085	0.451	-2.614	8.110	9.772	-3.618	1.888	0.626	-1.641	3.779	4.833	7.818	5.610	1.716	5.556	-0.562	-1.204	2.759	-1.973	468.750
-6.114	-1.477	-6.041	1.319	5.827	0.967	5.146	0.678	-1.217	6.743	0.319	-2.590	8.069	9.774	-3.492	2.051	0.738	-1.618	3.868	5.023	7.950	5.676	1.763	5.538	-0.744	-1.495	2.549	-2.128	472.656
-6.112	-1.357	-5.884	1.421	6.002	1.123	4.916	0.491	-1.444	6.390	0.170	-2.560	8.069	9.769	-3.433	2.117	0.786	-1.623	3.917	5.120	8.027	5.774	1.870	5.611	-0.769	-1.600	2.481	-2.197	476.562
-6.187	-1.339	-5.787	1.437	6.096	1.199	4.766	0.328	-1.628	6.067	0.034	-2.513	8.101	9.749	-3.445	2.065	0.755	-1.662	3.905	5.099	8.028	5.880	2.014	5.757	-0.650	-1.530	2.544	-2.177	480.469
-6.334	-1.436	-5.750	1.361	6.103	1.200	4.727	0.222	-1.729	5.817	-0.054	-2.425	8.149	9.705	-3.523	1.877	0.636	-1.740	3.813	4.941	7.936	5.967	2.169	5.949	-0.410	-1.308	2.719	-2.062	484.375
-6.540	-1.652	-5.767	1.194	6.023	1.138	4.814	0.202	-1.715	5.670	-0.064	-2.274	8.191	9.625	-3.655	1.551	0.426	-1.857	3.629	4.640	7.742	6.009	2.306	6.159	-0.083	-0.967	2.977	-1.853	488.281
-6.787	-1.974	-5.821	0.947	5.863	1.035	5.021	0.282	-1.568	5.638	0.024	-2.048	8.203	9.500	-3.820	1.097	0.136	-2.009	3.357	4.204	7.450	5.989	2.401	6.355	0.292	-0.549	3.282	-1.557	492.188
-7.050	-2.380	-5.888	0.640	5.638	0.915	5.325	0.466	-1.292	5.714	0.210	-1.753	8.163	9.325	-3.993	0.545	-0.211	-2.178	3.015	3.660	7.077	5.902	2.440	6.509	0.669	-0.103	3.593	-1.198	496.094
-7.303	-2.827	-5.939	0.305	5.373	0.811	5.689	0.738	-0.912	5.868	0.475	-1.417	8.056	9.102	-4.147	-0.062	-0.577	-2.342	2.638	3.055	6.654	5.756	2.420	6.599	1.005	0.317	3.865	-0.815	500.000
-7.515	-3.266	-5.941	-0.018	5.098	0.752	6.067	1.072	-0.472	6.053	0.777	-1.090	7.874	8.837	-4.252	-0.663	-0.915	-2.470	2.270	2.447	6.219	5.572	2.351	6.606	1.260	0.659	4.050	-0.462	503.906
-7.658	-3.641	-5.863	-0.285	4.846	0.767	6.405	1.428	-0.028	6.213	1.062	-0.829	7.616	8.539	-4.288	-1.195	-1.177	-2.528	1.962	1.901	5.814	5.376	2.252	6.520	1.404	0.874	4.109	-0.196	507.812
-7.708	-3.901	-5.682	-0.458	4.648	0.873	6.656	1.762	0.358	6.295	1.274	-0.693	7.290	8.221	-4.236	-1.595	-1.317	-2.490	1.761	1.478	5.480	5.197	2.146	6.341	1.418	0.925	4.012	-0.070	511.719
-7.652	-4.009	-5.391	-0.507	4.525	1.073	6.778	2.028	0.636	6.256	1.360	-0.725	6.910	7.900	-4.091	-1.816	-1.304	-2.338	1.701	1.228	5.248	5.062	2.058	6.075	1.303	0.796	3.748	-0.122	515.625
-7.489	-3.949	-5.001	-0.421	4.486	1.352	6.746	2.190	0.767	6.077	1.291	-0.945	6.496	7.588	-3.859	-1.831	-1.125	-2.070	1.799	1.179	5.137	4.989	2.011	5.743	1.078	0.497	3.330	-0.360	519.531
-7.237	-3.732	-4.540	-0.211	4.523	1.679	6.554	2.227	0.738	5.761	1.061	-1.337	6.071	7.301	-3.557	-1.647	-0.792	-1.702	2.045	1.327	5.147	4.987	2.017	5.374	0.780	0.063	2.794	-0.761	523.438
-6.926	-3.396	-4.054	0.090	4.614	2.011	6.219	2.132	0.559	5.340	0.690	-1.856	5.658	7.048	-3.213	-1.298	-0.341	-1.266	2.409	1.641	5.263	5.052	2.081	5.003	0.461	-0.445	2.200	-1.271	527.344
-6.596	-3.000	-3.596	0.432	4.725	2.296	5.780	1.919	0.265	4.863	0.228	-2.428	5.277	6.833	-2.863	-0.848	0.172	-0.802	2.839	2.060	5.450	5.168	2.198	4.671	0.176	-0.948	1.620	-1.810	531.250
-6.286	-2.614	-3.219	0.753	4.814	2.487	5.287	1.615	-0.093	4.392	-0.258	-2.967	4.944	6.651	-2.542	-0.377	0.684	-0.357	3.275	2.503	5.660	5.310	2.353	4.411	-0.022	-1.365	1.130	-2.289	535.156
-6.033	-2.305	-2.968	0.995	4.843	2.547	4.798	1.259	-0.453	3.987	-0.695	-3.389	4.668	6.491	-2.281	0.032	1.127	0.028	3.652	2.886	5.837	5.449	2.525	4.251	-0.093	-1.626	0.799	-2.623	539.062
-5.861	-2.127	-2.869	1.110	4.780	2.456	4.366	0.891	-0.758	3.703	-1.014	-3.626	4.451	6.337	-2.104	0.306	1.446	0.323	3.919	3.133	5.931	5.555	2.693	4.204	-0.016	-1.681	0.676	-2.747	542.969
-5.779	-2.111	-2.925	1.072	4.609	2.217	4.028	0.548	-0.964	3.575	-1.167	-3.641	4.289	6.173	-2.019	0.400	1.608	0.512	4.045	3.196	5.900	5.610	2.835	4.269	0.202	-1.515	0.779	-2.632	546.875
-5.780	-2.257	-3.117	0.885	4.330	1.854	3.805	0.258	-1.049	3.615	-1.135	-3.434	4.173	5.982	-2.023	0.305	1.603	0.596	4.022	3.062	5.729	5.605	2.941	4.430	0.535	-1.151	1.095	-2.287	550.781
-5.843	-2.536	-3.406	0.574	3.963	1.409	3.694	0.036	-1.017	3.813	-0.929	-3.043	4.091	5.757	-2.100	0.046	1.450	0.591	3.873	2.757	5.426	5.543	3.004	4.657	0.934	-0.642	1.578	-1.763	554.688
-5.937	-2.898	-3.738	0.189	3.540	0.934	3.676	-0.114	-0.893	4.133	-0.591	-2.536	4.024	5.495	-2.221	-0.320	1.192	0.523	3.638	2.340	5.024	5.440	3.030	4.910	1.346	-0.061	2.155	-1.136	558.594
-6.030	-3.280	-4.058	-0.211	3.102	0.485	3.716	-0.200	-0.717	4.523	-0.187	-1.997	3.951	5.200	-2.355	-0.717	0.886	0.428	3.374	1.890	4.571	5.317	3.029	5.143	1.715	0.508	2.742	-0.501	562.500
-6.087	-3.616	-4.316	-0.567	2.686	0.108	3.772	-0.234	-0.538	4.918	0.208	-1.512	3.847	4.878	-2.466	-1.063	0.598	0.342	3.138	1.489	4.125	5.200	3.017	5.314	1.999	0.994	3.252	0.052	566.406
-6.084	-3.853	-4.475	-0.832	2.323	-0.161	3.805	-0.233	-0.399	5.250	0.517	-1.156	3.689	4.540	-2.522	-1.289	0.390	0.299	2.982	1.205	3.738	5.109	3.013	5.385	2.175	1.345	3.610	0.449	570.312
-6.003	-3.956	-4.517	-0.975	2.032	-0.304	3.776	-0.212	-0.335	5.456	0.677	-0.981	3.454	4.195	-2.500	-1.348	0.311	0.328	2.942	1.082	3.448	5.063	3.034	5.333	2.241	1.534	3.765	0.643	574.219
-5.839	-3.911	-4.444	-0.988	1.818	-0.321	3.659	-0.185	-0.364	5.483	0.645	-1.015	3.127	3.854	-2.385	-1.225	0.389	0.447	3.036	1.131	3.278	5.074	3.095	5.152	2.213	1.565	3.688	0.616	578.125
-5.601	-3.728	-4.275	-0.880	1.676	-0.231	3.436	-0.164	-0.491	5.295	0.403	-1.255	2.702	3.528	-2.174	-0.929	0.632	0.661	3.262	1.337	3.231	5.146	3.205	4.851	2.122	1.465	3.386	0.380	582.031
-5.304	-3.430	-4.040	-0.675	1.594	-0.065	3.106	-0.154	-0.707	4.876	-0.043	-1.679	2.185	3.230	-1.876	-0.494	1.025	0.967	3.603	1.664	3.296	5.281	3.368	4.458	2.004	1.272	2.887	-0.028	585.938
-4.973	-3.053	-3.777	-0.405	1.558	0.138	2.679	-0.159	-0.992	4.235	-0.663	-2.246	1.599	2.970	-1.514	0.031	1.533	1.346	4.028	2.066	3.453	5.474	3.579	4.013	1.896	1.034	2.244	-0.559	589.844
-4.632	-2.630	-3.524	-0.101	1.557	0.339	2.182	-0.179	-1.319	3.405	-1.406	-2.906	0.975	2.758	-1.115	0.595	2.107	1.769	4.500	2.496	3.674	5.714	3.827	3.559	1.823	0.789	1.518	-1.153	593.750
-4.305	-2.191	-3.308	0.209	1.582	0.509	1.655	-0.207	-1.661	2.445	-2.214	-3.606	0.355	2.604	-0.714	1.151	2.692	2.200	4.975	2.915	3.934	5.987	4.090	3.137	1.795	0.565	0.773	-1.756	597.656
-4.007	-1.754	-3.145	0.508	1.632	0.632	1.141	-0.236	-1.989	1.431	-3.018	-4.295	-0.217	2.508	-0.345	1.662	3.230	2.596	5.410	3.295	4.208	6.271	4.344	2.780	1.808	0.374	0.065	-2.323	601.562
-3.745	-1.332	-3.032	0.787	1.711	0.710	0.687	-0.253	-2.280	0.453	-3.751	-4.929	-0.698	2.470	-0.039	2.101	3.669	2.912	5.768	3.620	4.475	6.538	4.559	2.505	1.843	0.213	-0.562	-2.819	605.469
-3.518	-0.926	-2.958	1.044	1.820	0.754	0.333	-0.248	-2.512	-0.400	-4.354	-5.472	-1.055	2.482	0.179	2.452	3.969	3.112	6.017	3.879	4.715	6.760	4.706	2.318	1.874	0.068	-1.079	-3.225	609.375
-3.322	-0.543	-2.903	1.278	1.959	0.784	0.102	-0.213	-2.674	-1.049	-4.780	-5.892	-1.269	2.530	0.296	2.707	4.106	3.170	6.140	4.070	4.914	6.914	4.765	2.211	1.874	-0.078	-1.470	-3.529	613.281
-3.152	-0.188	-2.849	1.489	2.122	0.818	0.006	-0.146	-2.759	-1.442	-5.000	-6.168	-1.332	2.600	0.307	2.863	4.076	3.077	6.130	4.190	5.057	6.983	4.727	2.173	1.826	-0.237	-1.725	-3.729	617.188
-3.003	0.122	-2.786	1.672	2.293	0.863	0.036	-0.054	-2.769	-1.561	-5.004	-6.285	-1.256	2.673	0.222	2.919	3.893	2.843	5.998	4.235	5.134	6.961	4.595	2.185	1.723	-0.411	-1.843	-3.824	621.094
-2.875	0.370	-2.712	1.815	2.450	0.920	0.167	0.051	-2.711	-1.422	-4.805	-6.238	-1.065	2.732	0.061	2.879	3.590	2.502	5.767	4.202	5.137	6.854	4.386	2.233	1.574	-0.595	-1.827	-3.817	625.000
-2.770	0.535	-2.632	1.908	2.568	0.977	0.360	0.153	-2.597	-1.074	-4.432	-6.033	-0.797	2.759	-0.146	2.751	3.213	2.099	5.468	4.089	5.061	6.678	4.124	2.300	1.394	-0.775	-1.686	-3.713	628.906
-2.687	0.601	-2.554	1.938	2.621	1.018	0.569	0.235	-2.440	-0.587	-3.931	-5.687	-0.498	2.739	-0.363	2.546	2.813	1.691	5.139	3.897	4.905	6.453	3.839	2.367	1.207	-0.932	-1.442	-3.523	632.812
-2.624	0.563	-2.486	1.897	2.593	1.026	0.745	0.290	-2.252	-0.043	-3.353	-5.226	-0.219	2.658	-0.556	2.280	2.437	1.331	4.811	3.630	4.673	6.196	3.557	2.418	1.032	-1.050	-1.123	-3.259	636.719
-2.570	0.427	-2.427	1.784	2.475	0.994	0.845	0.317	-2.043	0.480	-2.751	-4.685	-0.007	2.504	-0.694	1.968	2.120	1.063	4.504	3.293	4.371	5.921	3.295	2.431	0.885	-1.117	-0.770	-2.938	640.625
-2.512	0.212	-2.368	1.607	2.272	0.921	0.841	0.328	-1.819	0.916	-2.172	-4.101	0.101	2.269	-0.758	1.628	1.879	0.912	4.227	2.896	4.005	5.633	3.062	2.385	0.773	-1.124	-0.426	-2.583	644.531
-2.429	-0.053	-2.295	1.382	2.001	0.821	0.718	0.344	-1.584	1.220	-1.655	-3.516	0.078	1.951	-0.743	1.273	1.714	0.881	3.975	2.451	3.587	5.327	2.858	2.264	0.698	-1.073	-0.137	-2.215	648.438
-2.302	-0.332	-2.187	1.133	1.687	0.715	0.480	0.389	-1.341	1.369	-1.224	-2.966	-0.087	1.556	-0.654	0.918	1.609	0.953	3.736	1.975	3.131	4.999	2.676	2.053	0.653	-0.971	0.056	-1.863	652.344
-2.115	-0.589	-2.023	0.886	1.360	0.628	0.145	0.483	-1.096	1.365	-0.899	-2.485	-0.388	1.097	-0.507	0.574	1.539	1.098	3.495	1.492	2.656	4.644	2.509	1.750	0.628	-0.835	0.122	-1.552	656.250
-1.860	-0.790	-1.788	0.671	1.049	0.587	-0.264	0.640	-0.858	1.224	-0.688	-2.102	-0.802	0.600	-0.322	0.258	1.481	1.278	3.246	1.029	2.189	4.269	2.350	1.359	0.608	-0.689	0.041	-1.311	660.156
-1.541	-0.912	-1.471	0.512	0.783	0.611	-0.721	0.861	-0.638	0.974	-0.595	-1.841	-1.296	0.096	-0.120	-0.015	1.420	1.463	2.994	0.621	1.759	3.888	2.202	0.898	0.578	-0.565	-0.196	-1.167	664.062
-1.170	-0.942	-1.077	0.425	0.580	0.709	-1.201	1.134	-0.452	0.650	-0.621	-1.720	-1.828	-0.377	0.086	-0.226	1.358	1.632	2.757	0.297	1.398	3.527	2.072	0.393	0.522	-0.500	-0.584	-1.145	667.969
-0.771	-0.879	-0.622	0.419	0.453	0.879	-1.679	1.437	-0.314	0.283	-0.762	-1.745	-2.353	-0.781	0.288	-0.358	1.307	1.783	2.564	0.084	1.136	3.218	1.976	-0.125	0.425	-0.527	-1.109	-1.264	671.875
-0.377	-0.737	-0.136	0.489	0.404	1.106	-2.132	1.745	-0.233	-0.096	-1.006	-1.914	-2.825	-1.083	0.485	-0.397	1.294	1.927	2.448	-0.001	0.990	2.993	1.929	-0.622	0.276	-0.677	-1.746	-1.533	675.781
-0.021	-0.540	0.339	0.620	0.429	1.366	-2.534	2.031	-0.212	-0.455	-1.333	-2.209	-3.207	-1.257	0.678	-0.336	1.345	2.083	2.436	0.044	0.970	2.877	1.946	-1.066	0.072	-0.962	-2.458	-1.947	679.688
0.262	-0.322	0.754	0.788	0.516	1.627	-2.861	2.277	-0.244	-0.768	-1.712	-2.598	-3.472	-1.295	0.871	-0.182	1.478	2.270	2.540	0.207	1.068	2.879	2.030	-1.431	-0.184	-1.378	-3.202	-2.481	683.594
0.445	-0.119	1.065	0.963	0.646	1.858	-3.094	2.472	-0.313	-1.006	-2.101	-3.034	-3.605	-1.200	1.061	0.047	1.698	2.499	2.755	0.463	1.264	2.994	2.176	-1.700	-0.481	-1.896	-3.929	-3.092	687.500
0.512	0.032	1.237	1.112	0.798	2.028	-3.223	2.616	-0.394	-1.146	-2.456	-3.464	-3.607	-0.995	1.241	0.321	1.991	2.766	3.056	0.776	1.529	3.200	2.366	-1.864	-0.796	-2.469	-4.585	-3.722	691.406
0.465	0.099	1.254	1.207	0.942	2.112	-3.254	2.715	-0.462	-1.176	-2.730	-3.830	-3.496	-0.715	1.400	0.600	2.323	3.052	3.399	1.107	1.825	3.459	2.574	-1.929	-1.102	-3.032	-5.121	-4.302	695.312
0.321	0.064	1.126	1.223	1.045	2.096	-3.209	2.778	-0.492	-1.092	-2.885	-4.081	-3.304	-0.412	1.524	0.842	2.648	3.327	3.734	1.415	2.108	3.725	2.769	-1.907	-1.366	-3.516	-5.495	-4.761	699.219
0.112	-0.081	0.883	1.144	1.076	1.973	-3.128	2.815	-0.463	-0.907	-2.892	-4.176	-3.075	-0.143	1.599	1.008	2.914	3.554	4.003	1.661	2.336	3.951	2.919	-1.821	-1.555	-3.852	-5.677	-5.037	703.125
-0.123	-0.331	0.571	0.961	1.001	1.750	-3.055	2.838	-0.364	-0.646	-2.738	-4.088	-2.855	0.034	1.618	1.065	3.073	3.698	4.159	1.809	2.465	4.093	2.998	-1.694	-1.637	-3.982	-5.652	-5.083	707.031
-0.345	-0.671	0.242	0.675	0.798	1.439	-3.031	2.854	-0.191	-0.339	-2.424	-3.810	-2.687	0.068	1.580	0.990	3.090	3.732	4.164	1.829	2.458	4.116	2.991	-1.552	-1.589	-3.870	-5.421	-4.875	710.938
-0.525	-1.080	-0.060	0.294	0.457	1.063	-3.080	2.868	0.052	-0.017	-1.969	-3.351	-2.601	-0.071	1.489	0.777	2.948	3.646	3.999	1.699	2.286	4.002	2.896	-1.409	-1.401	-3.506	-5.002	-4.416	714.844
-0.647	-1.529	-0.304	-0.166	-0.014	0.651	-3.205	2.886	0.354	0.292	-1.402	-2.740	-2.609	-0.388	1.358	0.436	2.653	3.447	3.665	1.407	1.936	3.750	2.723	-1.275	-1.074	-2.911	-4.428	-3.737	718.750
-0.708	-1.990	-0.477	-0.681	-0.586	0.233	-3.389	2.906	0.695	0.568	-0.766	-2.022	-2.703	-0.858	1.204	-0.010	2.231	3.158	3.187	0.959	1.418	3.376	2.494	-1.151	-0.630	-2.135	-3.746	-2.898	722.656
-0.720	-2.430	-0.580	-1.216	-1.218	-0.158	-3.596	2.927	1.049	0.796	-0.114	-1.255	-2.855	-1.429	1.046	-0.518	1.730	2.818	2.604	0.379	0.767	2.912	2.237	-1.031	-0.105	-1.253	-3.013	-1.978	726.562
-0.698	-2.818	-0.623	-1.732	-1.853	-0.493	-3.787	2.942	1.386	0.967	0.498	-0.507	-3.031	-2.025	0.902	-1.039	1.205	2.472	1.972	-0.285	0.042	2.403	1.982	-0.908	0.451	-0.360	-2.295	-1.070	730.469
-0.659	-3.120	-0.619	-2.188	-2.433	-0.744	-3.929	2.945	1.671	1.076	1.013	0.153	-3.191	-2.568	0.789	-1.513	0.717	2.162	1.351	-0.968	-0.678	1.899	1.757	-0.777	0.980	0.449	-1.655	-0.268	734.375
-0.611	-3.306	-0.583	-2.542	-2.908	-0.895	-4.000	2.928	1.870	1.118	1.382	0.661	-3.308	-2.986	0.718	-1.886	0.320	1.927	0.806	-1.593	-1.308	1.449	1.581	-0.639	1.426	1.088	-1.152	0.347	738.281
-0.555	-3.355	-0.523	-2.765	-3.241	-0.941	-4.003	2.882	1.956	1.092	1.567	0.971	-3.368	-3.229	0.698	-2.110	0.059	1.793	0.390	-2.080	-1.772	1.097	1.469	-0.502	1.742	1.492	-0.830	0.718	742.188
-0.488	-3.254	-0.448	-2.839	-3.417	-0.889	-3.955	2.805	1.914	1.000	1.550	1.055	-3.380	-3.280	0.732	-2.153	-0.041	1.774	0.145	-2.366	-2.016	0.876	1.422	-0.376	1.900	1.634	-0.710	0.820	746.094
-0.401	-3.006	-0.363	-2.765	-3.443	-0.761	-3.888	2.694	1.741	0.846	1.337	0.914	-3.366	-3.157	0.821	-2.006	0.030	1.867	0.095	-2.408	-2.016	0.802	1.438	-0.278	1.895	1.521	-0.791	0.662	750.000
-0.291	-2.632	-0.273	-2.562	-3.344	-0.587	-3.836	2.553	1.455	0.644	0.955	0.576	-3.357	-2.906	0.961	-1.684	0.256	2.057	0.239	-2.201	-1.788	0.873	1.506	-0.216	1.744	1.197	-1.047	0.289	753.906
-0.156	-2.169	-0.184	-2.265	-3.155	-0.398	-3.830	2.392	1.089	0.409	0.453	0.092	-3.385	-2.591	1.139	-1.224	0.604	2.316	0.551	-1.775	-1.379	1.069	1.611	-0.198	1.486	0.733	-1.431	-0.231	757.812
-0.006	-1.666	-0.100	-1.917	-2.919	-0.226	-3.881	2.225	0.689	0.168	-0.104	-0.469	-3.468	-2.277	1.336	-0.689	1.023	2.606	0.980	-1.197	-0.861	1.351	1.736	-0.223	1.172	0.216	-1.879	-0.813	761.719
0.147	-1.183	-0.030	-1.566	-2.673	-0.089	-3.976	2.071	0.308	-0.050	-0.644	-1.031	-3.606	-2.022	1.525	-0.153	1.447	2.883	1.458	-0.556	-0.318	1.673	1.861	-0.282	0.856	-0.271	-2.326	-1.374	765.625
0.284	-0.777	0.018	-1.254	-2.443	0.005	-4.082	1.953	0.001	-0.214	-1.093	-1.522	-3.781	-1.860	1.675	0.308	1.811	3.102	1.908	0.048	0.170	1.982	1.968	-0.365	0.584	-0.658	-2.710	-1.838	769.531
0.387	-0.499	0.038	-1.014	-2.246	0.065	-4.145	1.892	-0.186	-0.296	-1.390	-1.882	-3.962	-1.805	1.755	0.624	2.052	3.225	2.254	0.519	0.536	2.228	2.037	-0.459	0.391	-0.897	-2.984	-2.153	773.438
0.444	-0.379	0.026	-0.861	-2.084	0.109	-4.108	1.903	-0.220	-0.276	-1.491	-2.075	-4.112	-1.849	1.738	0.746	2.127	3.226	2.436	0.787	0.739	2.370	2.056	-0.553	0.292	-0.973	-3.121	-2.292	777.344
0.449	-0.428	-0.019	-0.797	-1.952	0.160	-3.921	1.996	-0.088	-0.143	-1.374	-2.088	-4.198	-1.968	1.611	0.648	2.012	3.096	2.417	0.812	0.764	2.386	2.017	-0.641	0.284	-0.894	-3.117	-2.258	781.250
0.405	-0.635	-0.093	-0.810	-1.836	0.238	-3.559	2.171	0.203	0.097	-1.048	-1.936	-4.201	-2.132	1.373	0.339	1.711	2.840	2.192	0.592	0.625	2.271	1.918	-0.719	0.350	-0.690	-2.987	-2.075	785.156
0.320	-0.968	-0.189	-0.879	-1.726	0.354	-3.023	2.415	0.625	0.429	-0.545	-1.653	-4.116	-2.314	1.039	-0.149	1.253	2.482	1.785	0.162	0.356	2.041	1.768	-0.787	0.469	-0.402	-2.759	-1.782	789.062
0.208	-1.383	-0.298	-0.979	-1.610	0.510	-2.347	2.709	1.136	0.823	0.079	-1.286	-3.960	-2.490	0.634	-0.760	0.686	2.054	1.249	-0.415	0.003	1.729	1.580	-0.847	0.612	-0.073	-2.474	-1.426	792.969
0.084	-1.831	-0.413	-1.086	-1.484	0.695	-1.591	3.026	1.686	1.245	0.755	-0.888	-3.760	-2.650	0.196	-1.423	0.070	1.597	0.649	-1.061	-0.380	1.377	1.376	-0.902	0.759	0.262	-2.169	-1.055	796.875
