FP1	F3	F7	FC3	C3	C5	P3	P7	PO7	PO3	O1	Oz	Pz	CPz	FP2	Fz	F4	F8	FC4	FCz	Cz	C4	C6	P4	P8	PO8	PO4	O2	time
-0.261	-0.729	-0.153	-1.158	-0.419	-0.314	0.651	-0.560	-0.527	0.490	0.342	0.140	2.272	1.801	-0.823	-0.582	-1.345	-0.799	0.362	-0.259	0.683	-0.206	-0.814	1.364	0.554	0.618	1.436	0.538	-199.219
-0.332	-0.833	-0.300	-1.355	-0.671	-0.481	0.511	-0.387	-0.365	0.416	0.251	0.278	2.028	1.747	-0.567	-0.605	-1.311	-0.545	0.153	-0.318	0.716	-0.018	-0.388	1.351	0.734	0.838	1.345	0.606	-195.312
-0.389	-0.902	-0.415	-1.508	-0.885	-0.603	0.375	-0.221	-0.205	0.344	0.176	0.402	1.762	1.651	-0.307	-0.641	-1.300	-0.287	-0.056	-0.401	0.712	0.149	0.011	1.306	0.884	1.033	1.231	0.654	-191.406
-0.424	-0.914	-0.484	-1.585	-1.033	-0.653	0.243	-0.077	-0.055	0.271	0.126	0.496	1.455	1.482	-0.049	-0.689	-1.311	-0.029	-0.248	-0.515	0.651	0.287	0.365	1.205	0.986	1.183	1.079	0.669	-187.500
-0.429	-0.854	-0.500	-1.569	-1.101	-0.620	0.109	0.034	0.077	0.192	0.107	0.547	1.095	1.222	0.202	-0.741	-1.329	0.223	-0.403	-0.649	0.528	0.392	0.659	1.035	1.025	1.271	0.877	0.642	-183.594
-0.399	-0.721	-0.462	-1.457	-1.092	-0.514	-0.031	0.101	0.180	0.099	0.116	0.548	0.680	0.871	0.441	-0.780	-1.330	0.461	-0.499	-0.783	0.349	0.465	0.883	0.796	0.993	1.285	0.625	0.568	-179.688
-0.336	-0.528	-0.379	-1.263	-1.021	-0.361	-0.186	0.120	0.248	-0.011	0.149	0.499	0.220	0.448	0.661	-0.786	-1.285	0.675	-0.520	-0.887	0.136	0.511	1.037	0.497	0.895	1.224	0.331	0.454	-175.781
-0.248	-0.299	-0.266	-1.014	-0.912	-0.195	-0.357	0.088	0.275	-0.142	0.195	0.408	-0.266	-0.016	0.848	-0.740	-1.167	0.854	-0.453	-0.926	-0.080	0.539	1.123	0.163	0.743	1.095	0.016	0.313	-171.875
-0.148	-0.069	-0.144	-0.743	-0.789	-0.050	-0.542	0.012	0.260	-0.291	0.244	0.287	-0.746	-0.482	0.981	-0.631	-0.963	0.985	-0.291	-0.874	-0.265	0.560	1.148	-0.174	0.562	0.919	-0.295	0.163	-167.969
-0.055	0.125	-0.034	-0.483	-0.671	0.048	-0.730	-0.102	0.206	-0.452	0.287	0.153	-1.187	-0.907	1.038	-0.459	-0.675	1.055	-0.043	-0.719	-0.390	0.583	1.123	-0.481	0.379	0.723	-0.566	0.027	-164.062
0.013	0.253	0.049	-0.262	-0.564	0.089	-0.908	-0.237	0.123	-0.610	0.318	0.026	-1.551	-1.258	1.002	-0.238	-0.328	1.053	0.271	-0.469	-0.440	0.614	1.057	-0.725	0.222	0.537	-0.768	-0.075	-160.156
0.045	0.299	0.102	-0.094	-0.465	0.083	-1.056	-0.378	0.023	-0.749	0.336	-0.079	-1.809	-1.511	0.868	0.003	0.036	0.975	0.611	-0.156	-0.416	0.646	0.958	-0.886	0.114	0.390	-0.876	-0.127	-156.250
0.038	0.262	0.134	0.019	-0.363	0.053	-1.155	-0.504	-0.078	-0.849	0.346	-0.147	-1.939	-1.659	0.648	0.229	0.358	0.827	0.924	0.170	-0.338	0.666	0.830	-0.957	0.061	0.300	-0.879	-0.124	-152.344
0.001	0.161	0.169	0.088	-0.244	0.031	-1.191	-0.595	-0.166	-0.894	0.355	-0.172	-1.937	-1.712	0.376	0.402	0.577	0.628	1.147	0.452	-0.238	0.645	0.672	-0.947	0.056	0.272	-0.780	-0.069	-148.438
-0.048	0.027	0.240	0.130	-0.101	0.049	-1.159	-0.634	-0.228	-0.874	0.372	-0.151	-1.811	-1.688	0.096	0.492	0.648	0.411	1.224	0.637	-0.154	0.556	0.480	-0.878	0.076	0.295	-0.601	0.023	-144.531
-0.087	-0.106	0.371	0.166	0.066	0.126	-1.060	-0.611	-0.259	-0.790	0.404	-0.089	-1.588	-1.616	-0.138	0.482	0.549	0.215	1.115	0.692	-0.118	0.372	0.252	-0.781	0.090	0.345	-0.375	0.133	-140.625
-0.098	-0.206	0.575	0.208	0.244	0.263	-0.910	-0.527	-0.260	-0.651	0.450	0.002	-1.302	-1.521	-0.287	0.376	0.296	0.081	0.811	0.609	-0.148	0.083	-0.011	-0.688	0.071	0.394	-0.140	0.240	-136.719
-0.074	-0.256	0.839	0.262	0.409	0.442	-0.729	-0.393	-0.238	-0.476	0.508	0.111	-0.988	-1.422	-0.328	0.195	-0.064	0.034	0.339	0.413	-0.241	-0.299	-0.297	-0.619	0.000	0.418	0.069	0.326	-132.812
-0.020	-0.257	1.125	0.320	0.534	0.627	-0.542	-0.228	-0.204	-0.288	0.572	0.226	-0.678	-1.324	-0.272	-0.027	-0.464	0.078	-0.242	0.148	-0.378	-0.737	-0.586	-0.581	-0.118	0.403	0.231	0.386	-128.906
0.044	-0.225	1.377	0.368	0.593	0.777	-0.369	-0.057	-0.170	-0.111	0.635	0.340	-0.392	-1.224	-0.157	-0.253	-0.831	0.190	-0.852	-0.127	-0.525	-1.177	-0.848	-0.562	-0.258	0.357	0.343	0.427	-125.000
0.090	-0.185	1.535	0.388	0.571	0.855	-0.223	0.100	-0.142	0.040	0.693	0.450	-0.140	-1.107	-0.039	-0.452	-1.106	0.325	-1.406	-0.361	-0.647	-1.555	-1.050	-0.538	-0.382	0.300	0.417	0.467	-121.094
0.093	-0.162	1.551	0.368	0.467	0.839	-0.108	0.227	-0.119	0.157	0.743	0.559	0.081	-0.960	0.024	-0.603	-1.258	0.428	-1.834	-0.520	-0.716	-1.816	-1.163	-0.481	-0.444	0.262	0.475	0.524	-117.188
0.038	-0.169	1.406	0.302	0.297	0.728	-0.016	0.319	-0.094	0.244	0.788	0.670	0.276	-0.772	-0.011	-0.703	-1.287	0.447	-2.093	-0.594	-0.719	-1.922	-1.176	-0.367	-0.414	0.272	0.542	0.613	-113.281
-0.074	-0.208	1.116	0.200	0.089	0.541	0.064	0.381	-0.055	0.309	0.831	0.785	0.454	-0.541	-0.158	-0.763	-1.220	0.350	-2.174	-0.596	-0.658	-1.865	-1.091	-0.188	-0.280	0.343	0.630	0.739	-109.375
-0.225	-0.262	0.729	0.078	-0.123	0.315	0.147	0.424	0.011	0.369	0.872	0.901	0.619	-0.278	-0.400	-0.798	-1.106	0.134	-2.100	-0.558	-0.551	-1.669	-0.933	0.047	-0.060	0.471	0.743	0.889	-105.469
-0.384	-0.308	0.313	-0.041	-0.305	0.090	0.246	0.465	0.114	0.437	0.913	1.009	0.769	0.001	-0.693	-0.830	-0.992	-0.176	-1.918	-0.516	-0.424	-1.378	-0.741	0.312	0.207	0.633	0.867	1.043	-101.562
-0.519	-0.325	-0.061	-0.133	-0.433	-0.097	0.366	0.517	0.258	0.523	0.953	1.098	0.901	0.274	-0.979	-0.871	-0.919	-0.535	-1.684	-0.499	-0.299	-1.052	-0.560	0.570	0.467	0.793	0.982	1.172	-97.656
-0.601	-0.300	-0.333	-0.182	-0.494	-0.222	0.503	0.591	0.436	0.633	0.989	1.153	1.007	0.522	-1.205	-0.925	-0.909	-0.888	-1.449	-0.522	-0.195	-0.748	-0.431	0.783	0.668	0.910	1.064	1.249	-93.750
-0.616	-0.231	-0.475	-0.181	-0.490	-0.280	0.650	0.687	0.635	0.765	1.016	1.164	1.081	0.730	-1.336	-0.984	-0.958	-1.187	-1.247	-0.578	-0.115	-0.505	-0.379	0.922	0.770	0.950	1.095	1.256	-89.844
-0.562	-0.129	-0.486	-0.134	-0.432	-0.277	0.791	0.797	0.834	0.911	1.027	1.120	1.120	0.890	-1.361	-1.027	-1.040	-1.403	-1.087	-0.639	-0.051	-0.342	-0.410	0.971	0.755	0.892	1.064	1.185	-85.938
-0.452	-0.011	-0.395	-0.051	-0.341	-0.237	0.913	0.905	1.010	1.056	1.016	1.018	1.123	1.002	-1.295	-1.024	-1.112	-1.527	-0.957	-0.669	0.014	-0.250	-0.507	0.929	0.629	0.729	0.972	1.037	-82.031
-0.304	0.107	-0.248	0.053	-0.235	-0.184	1.003	0.992	1.139	1.183	0.975	0.856	1.091	1.069	-1.166	-0.949	-1.128	-1.566	-0.826	-0.628	0.099	-0.203	-0.635	0.811	0.418	0.473	0.827	0.826	-78.125
-0.140	0.211	-0.099	0.163	-0.130	-0.142	1.053	1.040	1.206	1.277	0.898	0.639	1.031	1.099	-1.010	-0.779	-1.049	-1.540	-0.661	-0.488	0.218	-0.163	-0.753	0.646	0.160	0.147	0.644	0.568	-74.219
0.019	0.297	0.004	0.268	-0.032	-0.128	1.061	1.037	1.205	1.323	0.781	0.377	0.947	1.101	-0.857	-0.511	-0.857	-1.469	-0.438	-0.243	0.373	-0.095	-0.820	0.464	-0.103	-0.219	0.439	0.285	-70.312
0.156	0.365	0.025	0.359	0.056	-0.145	1.031	0.980	1.138	1.312	0.623	0.085	0.849	1.081	-0.726	-0.159	-0.557	-1.369	-0.150	0.089	0.556	0.022	-0.807	0.296	-0.335	-0.590	0.230	-0.004	-66.406
0.261	0.418	-0.050	0.433	0.141	-0.189	0.970	0.876	1.015	1.242	0.428	-0.218	0.741	1.046	-0.620	0.241	-0.176	-1.245	0.188	0.470	0.745	0.191	-0.703	0.161	-0.512	-0.936	0.029	-0.281	-62.500
0.328	0.460	-0.215	0.490	0.230	-0.246	0.885	0.737	0.849	1.113	0.200	-0.512	0.628	0.997	-0.529	0.646	0.247	-1.093	0.545	0.848	0.913	0.397	-0.517	0.071	-0.624	-1.233	-0.157	-0.535	-58.594
0.360	0.489	-0.443	0.531	0.330	-0.299	0.783	0.577	0.655	0.930	-0.057	-0.781	0.513	0.935	-0.435	1.006	0.672	-0.905	0.885	1.170	1.032	0.612	-0.274	0.022	-0.676	-1.465	-0.326	-0.760	-54.688
0.362	0.506	-0.697	0.559	0.442	-0.331	0.666	0.407	0.442	0.699	-0.338	-1.010	0.392	0.857	-0.317	1.284	1.067	-0.676	1.170	1.396	1.083	0.804	-0.006	0.000	-0.683	-1.624	-0.482	-0.954	-50.781
0.345	0.507	-0.932	0.576	0.563	-0.330	0.533	0.234	0.213	0.430	-0.636	-1.190	0.264	0.761	-0.161	1.455	1.412	-0.407	1.377	1.502	1.053	0.942	0.250	-0.013	-0.662	-1.709	-0.629	-1.119	-46.875
0.322	0.492	-1.109	0.585	0.684	-0.292	0.384	0.059	-0.029	0.132	-0.941	-1.317	0.124	0.643	0.036	1.515	1.703	-0.109	1.496	1.485	0.945	1.009	0.463	-0.035	-0.631	-1.723	-0.770	-1.256	-42.969
0.302	0.467	-1.198	0.590	0.792	-0.219	0.217	-0.120	-0.283	-0.180	-1.242	-1.389	-0.031	0.502	0.265	1.479	1.942	0.197	1.534	1.363	0.767	1.000	0.611	-0.081	-0.602	-1.673	-0.906	-1.362	-39.062
0.297	0.439	-1.181	0.596	0.876	-0.118	0.039	-0.305	-0.543	-0.491	-1.519	-1.407	-0.202	0.337	0.506	1.372	2.133	0.484	1.504	1.163	0.536	0.924	0.685	-0.155	-0.582	-1.571	-1.032	-1.434	-35.156
0.310	0.416	-1.056	0.607	0.928	-0.001	-0.139	-0.493	-0.794	-0.780	-1.756	-1.376	-0.385	0.152	0.730	1.226	2.272	0.725	1.427	0.918	0.269	0.799	0.687	-0.255	-0.573	-1.431	-1.139	-1.469	-31.250
0.341	0.405	-0.836	0.627	0.944	0.119	-0.298	-0.675	-1.015	-1.026	-1.933	-1.303	-0.572	-0.047	0.912	1.069	2.349	0.899	1.318	0.657	-0.014	0.649	0.631	-0.374	-0.574	-1.270	-1.218	-1.466	-27.344
0.384	0.409	-0.548	0.657	0.929	0.233	-0.415	-0.833	-1.181	-1.208	-2.037	-1.201	-0.756	-0.252	1.029	0.919	2.351	0.998	1.188	0.398	-0.301	0.495	0.540	-0.497	-0.582	-1.110	-1.260	-1.426	-23.438
0.427	0.425	-0.231	0.694	0.893	0.334	-0.468	-0.947	-1.267	-1.310	-2.065	-1.088	-0.923	-0.453	1.068	0.781	2.264	1.026	1.043	0.151	-0.579	0.355	0.438	-0.611	-0.598	-0.971	-1.260	-1.356	-19.531
0.456	0.445	0.074	0.733	0.848	0.418	-0.443	-0.995	-1.254	-1.322	-2.019	-0.980	-1.064	-0.638	1.028	0.653	2.089	0.999	0.887	-0.084	-0.839	0.239	0.347	-0.705	-0.620	-0.873	-1.218	-1.267	-15.625
0.458	0.459	0.325	0.767	0.807	0.486	-0.333	-0.961	-1.133	-1.246	-1.913	-0.892	-1.169	-0.795	0.918	0.523	1.836	0.938	0.722	-0.309	-1.074	0.148	0.283	-0.770	-0.650	-0.830	-1.140	-1.172	-11.719
0.426	0.456	0.491	0.791	0.779	0.539	-0.146	-0.832	-0.909	-1.087	-1.765	-0.833	-1.231	-0.910	0.755	0.382	1.528	0.862	0.552	-0.525	-1.274	0.079	0.247	-0.805	-0.690	-0.849	-1.038	-1.080	-7.812
0.357	0.430	0.555	0.800	0.771	0.582	0.101	-0.607	-0.594	-0.861	-1.595	-0.804	-1.246	-0.974	0.564	0.225	1.194	0.786	0.384	-0.728	-1.427	0.024	0.231	-0.812	-0.744	-0.931	-0.927	-1.001	-3.906
0.261	0.377	0.518	0.795	0.787	0.617	0.386	-0.293	-0.212	-0.588	-1.424	-0.804	-1.212	-0.976	0.371	0.057	0.869	0.711	0.228	-0.905	-1.518	-0.028	0.218	-0.798	-0.817	-1.071	-0.829	-0.942	0.000
0.154	0.307	0.400	0.780	0.823	0.647	0.681	0.095	0.209	-0.291	-1.267	-0.825	-1.131	-0.912	0.205	-0.106	0.585	0.633	0.093	-1.042	-1.534	-0.088	0.185	-0.775	-0.915	-1.261	-0.762	-0.909	3.906
0.059	0.232	0.231	0.762	0.875	0.673	0.963	0.533	0.638	0.007	-1.133	-0.861	-1.009	-0.783	0.091	-0.244	0.363	0.544	-0.016	-1.122	-1.469	-0.165	0.113	-0.757	-1.046	-1.492	-0.746	-0.906	7.812
-0.002	0.170	0.050	0.750	0.934	0.693	1.211	0.991	1.044	0.284	-1.026	-0.904	-0.852	-0.600	0.050	-0.339	0.215	0.436	-0.097	-1.137	-1.327	-0.266	-0.009	-0.755	-1.211	-1.751	-0.793	-0.935	11.719
-0.011	0.139	-0.108	0.749	0.991	0.703	1.411	1.436	1.401	0.527	-0.938	-0.942	-0.670	-0.379	0.095	-0.378	0.135	0.309	-0.156	-1.091	-1.124	-0.397	-0.184	-0.780	-1.406	-2.020	-0.903	-0.995	15.625
0.035	0.145	-0.220	0.756	1.030	0.696	1.558	1.833	1.690	0.729	-0.855	-0.961	-0.472	-0.144	0.219	-0.362	0.106	0.171	-0.205	-0.999	-0.888	-0.562	-0.403	-0.830	-1.620	-2.277	-1.065	-1.074	19.531
0.122	0.179	-0.281	0.762	1.038	0.663	1.654	2.155	1.902	0.893	-0.755	-0.940	-0.264	0.081	0.401	-0.310	0.100	0.038	-0.264	-0.891	-0.656	-0.760	-0.647	-0.898	-1.827	-2.493	-1.248	-1.152	23.438
0.218	0.217	-0.305	0.751	1.004	0.595	1.707	2.384	2.041	1.037	-0.614	-0.857	-0.053	0.270	0.593	-0.250	0.088	-0.072	-0.350	-0.799	-0.463	-0.985	-0.892	-0.965	-1.995	-2.634	-1.409	-1.198	27.344
0.277	0.220	-0.327	0.702	0.922	0.488	1.735	2.519	2.126	1.182	-0.407	-0.692	0.160	0.407	0.729	-0.222	0.043	-0.146	-0.478	-0.757	-0.339	-1.226	-1.115	-1.005	-2.086	-2.666	-1.494	-1.180	31.250
0.246	0.143	-0.388	0.597	0.789	0.340	1.759	2.576	2.187	1.356	-0.118	-0.437	0.372	0.483	0.730	-0.264	-0.055	-0.184	-0.653	-0.786	-0.302	-1.468	-1.296	-0.987	-2.063	-2.564	-1.452	-1.065	35.156
0.080	-0.049	-0.531	0.427	0.616	0.158	1.800	2.581	2.258	1.579	0.253	-0.100	0.584	0.503	0.519	-0.403	-0.215	-0.198	-0.867	-0.895	-0.352	-1.689	-1.423	-0.883	-1.898	-2.310	-1.239	-0.837	39.062
-0.248	-0.373	-0.785	0.191	0.416	-0.044	1.877	2.570	2.367	1.859	0.684	0.289	0.794	0.478	0.045	-0.648	-0.439	-0.218	-1.099	-1.078	-0.476	-1.868	-1.491	-0.674	-1.578	-1.907	-0.828	-0.491	42.969
-0.734	-0.819	-1.154	-0.094	0.208	-0.249	1.998	2.572	2.532	2.185	1.132	0.677	0.997	0.430	-0.706	-0.987	-0.717	-0.275	-1.321	-1.312	-0.648	-1.987	-1.503	-0.350	-1.110	-1.370	-0.219	-0.044	46.875
-1.343	-1.348	-1.611	-0.404	0.012	-0.442	2.157	2.603	2.751	2.528	1.533	1.000	1.183	0.379	-1.695	-1.388	-1.035	-0.395	-1.506	-1.569	-0.840	-2.036	-1.467	0.080	-0.519	-0.732	0.564	0.471	50.781
-2.011	-1.900	-2.106	-0.710	-0.157	-0.610	2.337	2.662	3.004	2.845	1.820	1.193	1.343	0.342	-2.841	-1.806	-1.370	-0.591	-1.633	-1.819	-1.024	-2.012	-1.396	0.594	0.153	-0.032	1.475	1.016	54.688
-2.668	-2.411	-2.576	-0.986	-0.292	-0.749	2.510	2.733	3.260	3.091	1.935	1.208	1.464	0.331	-4.033	-2.196	-1.702	-0.857	-1.690	-2.038	-1.180	-1.925	-1.306	1.160	0.858	0.693	2.458	1.559	58.594
-3.249	-2.828	-2.969	-1.213	-0.394	-0.866	2.646	2.790	3.484	3.233	1.849	1.029	1.538	0.344	-5.167	-2.520	-2.012	-1.168	-1.682	-2.211	-1.300	-1.795	-1.215	1.742	1.555	1.418	3.459	2.083	62.500
-3.720	-3.127	-3.257	-1.391	-0.476	-0.977	2.723	2.806	3.650	3.262	1.575	0.682	1.566	0.375	-6.168	-2.761	-2.282	-1.492	-1.622	-2.340	-1.389	-1.646	-1.140	2.306	2.221	2.136	4.438	2.595	66.406
-4.084	-3.320	-3.447	-1.535	-0.558	-1.109	2.729	2.762	3.751	3.196	1.171	0.237	1.555	0.407	-7.018	-2.928	-2.500	-1.798	-1.526	-2.438	-1.463	-1.502	-1.093	2.833	2.860	2.866	5.379	3.127	70.312
-4.385	-3.454	-3.587	-1.676	-0.669	-1.291	2.671	2.656	3.803	3.084	0.735	-0.202	1.520	0.422	-7.761	-3.051	-2.660	-2.067	-1.414	-2.533	-1.546	-1.381	-1.083	3.319	3.500	3.651	6.294	3.732	74.219
-4.700	-3.602	-3.751	-1.857	-0.835	-1.550	2.570	2.504	3.845	2.999	0.389	-0.512	1.485	0.402	-8.492	-3.182	-2.769	-2.301	-1.303	-2.658	-1.664	-1.295	-1.110	3.777	4.192	4.545	7.218	4.472	78.125
-5.116	-3.846	-4.026	-2.120	-1.082	-1.909	2.461	2.340	3.933	3.021	0.261	-0.573	1.475	0.332	-9.336	-3.381	-2.845	-2.518	-1.206	-2.852	-1.841	-1.247	-1.168	4.234	4.995	5.608	8.194	5.404	82.031
-5.713	-4.259	-4.484	-2.502	-1.425	-2.371	2.382	2.209	4.125	3.224	0.458	-0.289	1.514	0.206	-10.410	-3.701	-2.925	-2.753	-1.142	-3.146	-2.098	-1.233	-1.248	4.718	5.958	6.880	9.265	6.566	85.938
-6.540	-4.881	-5.166	-3.016	-1.862	-2.927	2.370	2.157	4.472	3.660	1.048	0.393	1.623	0.025	-11.791	-4.179	-3.056	-3.039	-1.128	-3.565	-2.443	-1.245	-1.340	5.253	7.098	8.368	10.451	7.961	89.844
-7.594	-5.709	-6.067	-3.649	-2.377	-3.546	2.450	2.219	4.997	4.345	2.040	1.468	1.808	-0.204	-13.485	-4.822	-3.285	-3.404	-1.187	-4.111	-2.874	-1.280	-1.438	5.843	8.392	10.027	11.736	9.551	93.750
-8.817	-6.691	-7.129	-4.360	-2.936	-4.183	2.630	2.409	5.685	5.254	3.385	2.878	2.067	-0.466	-15.416	-5.597	-3.645	-3.859	-1.334	-4.768	-3.376	-1.336	-1.544	6.469	9.767	11.762	13.070	11.252	97.656
-10.101	-7.730	-8.253	-5.083	-3.492	-4.785	2.896	2.711	6.483	6.321	4.981	4.511	2.385	-0.740	-17.433	-6.441	-4.137	-4.390	-1.576	-5.491	-3.919	-1.415	-1.660	7.093	11.111	13.433	14.362	12.945	101.562
-11.304	-8.706	-9.314	-5.741	-3.994	-5.296	3.220	3.079	7.301	7.453	6.683	6.227	2.741	-1.003	-19.335	-7.263	-4.729	-4.967	-1.898	-6.218	-4.463	-1.517	-1.792	7.660	12.288	14.876	15.505	14.493	105.469
-12.280	-9.494	-10.193	-6.257	-4.388	-5.673	3.564	3.445	8.033	8.542	8.334	7.871	3.110	-1.226	-20.911	-7.967	-5.354	-5.543	-2.264	-6.874	-4.956	-1.635	-1.944	8.112	13.170	15.936	16.389	15.762	109.375
-12.907	-9.991	-10.797	-6.568	-4.633	-5.887	3.888	3.734	8.572	9.487	9.785	9.301	3.471	-1.379	-21.985	-8.466	-5.919	-6.066	-2.618	-7.381	-5.343	-1.755	-2.111	8.404	13.657	16.487	16.925	16.642	113.281
-13.113	-10.138	-11.078	-6.640	-4.700	-5.930	4.158	3.877	8.838	10.209	10.920	10.403	3.807	-1.435	-22.445	-8.702	-6.328	-6.488	-2.892	-7.677	-5.575	-1.855	-2.281	8.504	13.699	16.464	17.062	17.067	117.188
-12.885	-9.925	-11.039	-6.471	-4.583	-5.814	4.356	3.832	8.795	10.662	11.673	11.111	4.104	-1.377	-22.269	-8.653	-6.493	-6.775	-3.021	-7.723	-5.616	-1.911	-2.442	8.405	13.304	15.875	16.793	17.024	121.094
-12.275	-9.399	-10.731	-6.090	-4.296	-5.573	4.474	3.596	8.457	10.838	12.032	11.411	4.351	-1.200	-21.524	-8.340	-6.364	-6.907	-2.960	-7.512	-5.457	-1.906	-2.581	8.121	12.538	14.799	16.162	16.556	125.000
-11.386	-8.646	-10.235	-5.556	-3.874	-5.248	4.521	3.206	7.892	10.768	12.042	11.341	4.535	-0.920	-20.351	-7.818	-5.939	-6.892	-2.698	-7.074	-5.114	-1.836	-2.694	7.681	11.508	13.379	15.249	15.751	128.906
-10.356	-7.781	-9.646	-4.943	-3.368	-4.886	4.514	2.733	7.212	10.510	11.790	10.982	4.641	-0.574	-18.942	-7.164	-5.269	-6.754	-2.263	-6.470	-4.636	-1.721	-2.791	7.124	10.347	11.800	14.163	14.735	132.812
-9.328	-6.923	-9.053	-4.329	-2.836	-4.530	4.478	2.276	6.549	10.145	11.394	10.448	4.652	-0.214	-17.501	-6.471	-4.456	-6.541	-1.725	-5.783	-4.092	-1.598	-2.890	6.490	9.196	10.262	13.024	13.650	136.719
-8.437	-6.180	-8.530	-3.787	-2.339	-4.212	4.433	1.934	6.039	9.758	10.981	9.863	4.551	0.099	-16.218	-5.826	-3.632	-6.308	-1.177	-5.110	-3.564	-1.515	-3.015	5.823	8.176	8.949	11.948	12.635	140.625
-7.782	-5.632	-8.124	-3.372	-1.929	-3.954	4.397	1.797	5.792	9.426	10.667	9.346	4.325	0.306	-15.242	-5.305	-2.934	-6.113	-0.719	-4.542	-3.134	-1.523	-3.189	5.160	7.384	8.008	11.030	11.810	144.531
-7.426	-5.322	-7.859	-3.119	-1.646	-3.767	4.378	1.920	5.879	9.211	10.542	8.994	3.974	0.361	-14.667	-4.963	-2.480	-6.010	-0.435	-4.153	-2.868	-1.658	-3.425	4.540	6.877	7.526	10.342	11.259	148.438
-7.386	-5.262	-7.737	-3.039	-1.512	-3.652	4.376	2.320	6.319	9.148	10.656	8.873	3.509	0.240	-14.531	-4.831	-2.341	-6.035	-0.379	-3.992	-2.806	-1.933	-3.724	3.997	6.676	7.529	9.926	11.028	152.344
-7.646	-5.434	-7.751	-3.125	-1.532	-3.605	4.382	2.968	7.081	9.248	11.023	9.012	2.961	-0.057	-14.822	-4.918	-2.534	-6.208	-0.561	-4.078	-2.961	-2.332	-4.069	3.562	6.771	7.987	9.793	11.125	156.250
-8.160	-5.799	-7.886	-3.355	-1.698	-3.617	4.385	3.800	8.090	9.494	11.617	9.409	2.372	-0.501	-15.486	-5.212	-3.022	-6.526	-0.949	-4.399	-3.311	-2.814	-4.431	3.260	7.124	8.818	9.932	11.522	160.156
-8.864	-6.309	-8.124	-3.699	-1.983	-3.683	4.369	4.729	9.244	9.854	12.382	10.030	1.793	-1.047	-16.442	-5.685	-3.725	-6.963	-1.478	-4.917	-3.817	-3.325	-4.775	3.110	7.682	9.915	10.309	12.164	164.062
-9.689	-6.912	-8.444	-4.123	-2.356	-3.796	4.324	5.657	10.432	10.281	13.245	10.820	1.275	-1.640	-17.589	-6.298	-4.539	-7.477	-2.069	-5.577	-4.421	-3.806	-5.067	3.113	8.380	11.156	10.876	12.981	167.969
-10.559	-7.561	-8.822	-4.591	-2.780	-3.948	4.244	6.492	11.550	10.726	14.126	11.712	0.860	-2.222	-18.819	-7.000	-5.360	-8.016	-2.643	-6.316	-5.063	-4.210	-5.284	3.258	9.151	12.425	11.573	13.896	171.875
-11.406	-8.211	-9.225	-5.071	-3.219	-4.131	4.129	7.168	12.518	11.142	14.953	12.629	0.576	-2.746	-20.021	-7.740	-6.100	-8.525	-3.138	-7.071	-5.690	-4.508	-5.416	3.515	9.927	13.622	12.334	14.832	175.781
-12.169	-8.826	-9.618	-5.537	-3.643	-4.336	3.988	7.648	13.284	11.491	15.664	13.500	0.431	-3.180	-21.092	-8.465	-6.701	-8.957	-3.516	-7.787	-6.258	-4.694	-5.467	3.840	10.646	14.669	13.089	15.717	179.688
-12.799	-9.376	-9.965	-5.968	-4.025	-4.549	3.833	7.929	13.834	11.750	16.219	14.259	0.412	-3.509	-21.946	-9.127	-7.133	-9.278	-3.767	-8.423	-6.739	-4.784	-5.455	4.181	11.256	15.515	13.772	16.490	183.594
-13.266	-9.841	-10.235	-6.352	-4.350	-4.755	3.684	8.039	14.181	11.908	16.596	14.854	0.487	-3.734	-22.524	-9.686	-7.392	-9.471	-3.897	-8.952	-7.120	-4.803	-5.402	4.485	11.718	16.133	14.324	17.103	187.500
-13.558	-10.210	-10.407	-6.683	-4.610	-4.938	3.561	8.031	14.363	11.967	16.790	15.245	0.616	-3.868	-22.798	-10.117	-7.496	-9.536	-3.927	-9.363	-7.400	-4.783	-5.329	4.708	12.010	16.521	14.700	17.522	191.406
-13.681	-10.477	-10.475	-6.957	-4.800	-5.078	3.482	7.963	14.427	11.938	16.812	15.409	0.753	-3.929	-22.775	-10.406	-7.473	-9.485	-3.881	-9.658	-7.586	-4.747	-5.251	4.818	12.126	16.688	14.871	17.730	195.312
-13.653	-10.641	-10.440	-7.174	-4.919	-5.159	3.463	7.894	14.420	11.838	16.678	15.339	0.858	-3.939	-22.493	-10.554	-7.356	-9.337	-3.782	-9.847	-7.691	-4.705	-5.175	4.803	12.075	16.657	14.828	17.724	199.219
-13.502	-10.704	-10.314	-7.327	-4.968	-5.162	3.514	7.865	14.379	11.683	16.409	15.040	0.902	-3.912	-22.006	-10.571	-7.175	-9.116	-3.647	-9.945	-7.724	-4.657	-5.097	4.668	11.879	16.455	14.580	17.511	203.125
-13.254	-10.668	-10.110	-7.409	-4.941	-5.073	3.638	7.897	14.321	11.489	16.025	14.534	0.869	-3.856	-21.376	-10.480	-6.962	-8.843	-3.489	-9.967	-7.698	-4.588	-5.009	4.437	11.566	16.108	14.154	17.112	207.031
-12.936	-10.537	-9.840	-7.410	-4.835	-4.881	3.831	7.988	14.248	11.267	15.546	13.851	0.766	-3.771	-20.661	-10.310	-6.740	-8.540	-3.320	-9.926	-7.617	-4.481	-4.896	4.143	11.168	15.645	13.588	16.556	210.938
-12.568	-10.319	-9.516	-7.323	-4.643	-4.584	4.085	8.115	14.146	11.023	14.991	13.037	0.616	-3.647	-19.909	-10.095	-6.533	-8.220	-3.150	-9.838	-7.483	-4.314	-4.740	3.831	10.719	15.091	12.928	15.879	214.844
-12.166	-10.031	-9.149	-7.146	-4.362	-4.190	4.385	8.243	13.993	10.761	14.379	12.143	0.454	-3.468	-19.149	-9.869	-6.357	-7.896	-2.988	-9.717	-7.296	-4.074	-4.526	3.545	10.250	14.472	12.226	15.123	218.750
-11.743	-9.697	-8.756	-6.887	-3.994	-3.717	4.712	8.330	13.767	10.481	13.729	11.227	0.324	-3.216	-18.397	-9.664	-6.221	-7.576	-2.841	-9.577	-7.053	-3.753	-4.240	3.326	9.792	13.811	11.532	14.332	222.656
-11.312	-9.344	-8.356	-6.565	-3.551	-3.197	5.043	8.340	13.447	10.182	13.058	10.342	0.271	-2.875	-17.658	-9.502	-6.125	-7.263	-2.707	-9.429	-6.752	-3.350	-3.874	3.211	9.367	13.131	10.890	13.547	226.562
-10.885	-9.004	-7.980	-6.208	-3.055	-2.673	5.354	8.243	13.024	9.862	12.382	9.536	0.331	-2.435	-16.931	-9.394	-6.054	-6.956	-2.580	-9.284	-6.394	-2.873	-3.429	3.222	8.994	12.452	10.335	12.804	230.469
-10.475	-8.706	-7.662	-5.854	-2.539	-2.195	5.620	8.024	12.500	9.524	11.717	8.844	0.528	-1.897	-16.216	-9.337	-5.986	-6.651	-2.444	-9.147	-5.981	-2.329	-2.912	3.370	8.688	11.793	9.893	12.133	234.375
-10.097	-8.479	-7.438	-5.542	-2.042	-1.814	5.824	7.684	11.891	9.175	11.075	8.289	0.871	-1.268	-15.525	-9.318	-5.889	-6.344	-2.277	-9.017	-5.519	-1.729	-2.342	3.655	8.458	11.169	9.574	11.554	238.281
-9.772	-8.345	-7.341	-5.312	-1.604	-1.575	5.955	7.240	11.223	8.826	10.474	7.880	1.354	-0.565	-14.880	-9.317	-5.739	-6.039	-2.055	-8.888	-5.014	-1.084	-1.744	4.065	8.306	10.596	9.382	11.079	242.188
-9.515	-8.316	-7.393	-5.192	-1.258	-1.507	6.017	6.722	10.535	8.497	9.930	7.613	1.961	0.192	-14.313	-9.315	-5.521	-5.744	-1.764	-8.751	-4.472	-0.405	-1.149	4.579	8.236	10.086	9.308	10.713	246.094
-9.340	-8.397	-7.598	-5.194	-1.021	-1.620	6.025	6.168	9.865	8.213	9.462	7.471	2.663	0.979	-13.862	-9.297	-5.239	-5.476	-1.399	-8.592	-3.900	0.294	-0.591	5.171	8.242	9.650	9.337	10.453	250.000
-9.254	-8.575	-7.942	-5.314	-0.894	-1.899	6.007	5.620	9.257	7.998	9.088	7.431	3.429	1.774	-13.557	-9.255	-4.922	-5.257	-0.976	-8.403	-3.306	0.994	-0.101	5.810	8.319	9.298	9.450	10.291	253.906
-9.252	-8.825	-8.391	-5.525	-0.859	-2.304	5.997	5.120	8.745	7.875	8.821	7.463	4.224	2.557	-13.419	-9.195	-4.616	-5.108	-0.530	-8.181	-2.703	1.672	0.296	6.462	8.455	9.034	9.624	10.212	257.812
-9.323	-9.113	-8.898	-5.787	-0.885	-2.780	6.030	4.700	8.357	7.861	8.666	7.537	5.016	3.309	-13.448	-9.129	-4.376	-5.045	-0.110	-7.929	-2.105	2.294	0.583	7.095	8.635	8.859	9.838	10.198	261.719
-9.447	-9.401	-9.412	-6.054	-0.933	-3.262	6.138	4.385	8.110	7.964	8.624	7.626	5.774	4.012	-13.626	-9.077	-4.255	-5.073	0.227	-7.665	-1.533	2.826	0.757	7.679	8.842	8.765	10.069	10.229	265.625
-9.604	-9.658	-9.886	-6.283	-0.965	-3.692	6.339	4.189	8.011	8.182	8.685	7.708	6.472	4.652	-13.919	-9.061	-4.289	-5.182	0.435	-7.410	-1.013	3.237	0.829	8.189	9.057	8.742	10.300	10.285	269.531
-9.776	-9.867	-10.287	-6.445	-0.951	-4.021	6.639	4.113	8.051	8.503	8.831	7.767	7.087	5.213	-14.281	-9.099	-4.484	-5.350	0.488	-7.192	-0.567	3.505	0.819	8.608	9.263	8.771	10.514	10.345	273.438
-9.948	-10.027	-10.596	-6.529	-0.876	-4.223	7.025	4.146	8.214	8.902	9.039	7.793	7.605	5.684	-14.662	-9.203	-4.816	-5.546	0.390	-7.034	-0.216	3.629	0.758	8.926	9.445	8.831	10.698	10.393	277.344
-10.107	-10.145	-10.811	-6.538	-0.736	-4.290	7.473	4.266	8.468	9.349	9.282	7.775	8.015	6.057	-15.014	-9.373	-5.231	-5.736	0.176	-6.948	0.034	3.628	0.682	9.145	9.588	8.894	10.840	10.410	281.250
-10.241	-10.235	-10.937	-6.490	-0.544	-4.235	7.946	4.441	8.775	9.806	9.527	7.710	8.315	6.332	-15.296	-9.593	-5.659	-5.892	-0.095	-6.935	0.188	3.541	0.622	9.273	9.683	8.933	10.929	10.383	285.156
-10.340	-10.311	-10.984	-6.407	-0.317	-4.085	8.405	4.630	9.091	10.237	9.745	7.596	8.509	6.516	-15.479	-9.840	-6.029	-5.997	-0.354	-6.978	0.264	3.416	0.604	9.325	9.724	8.923	10.957	10.299	289.062
-10.392	-10.374	-10.963	-6.309	-0.076	-3.872	8.813	4.794	9.374	10.611	9.913	7.439	8.610	6.620	-15.550	-10.082	-6.288	-6.047	-0.544	-7.052	0.290	3.301	0.636	9.322	9.707	8.849	10.918	10.157	292.969
-10.387	-10.422	-10.884	-6.207	0.157	-3.633	9.142	4.898	9.589	10.909	10.015	7.252	8.638	6.664	-15.511	-10.286	-6.410	-6.054	-0.630	-7.125	0.296	3.230	0.711	9.283	9.635	8.703	10.813	9.960	296.875
-10.320	-10.440	-10.753	-6.105	0.369	-3.401	9.377	4.915	9.711	11.124	10.050	7.057	8.620	6.671	-15.375	-10.427	-6.403	-6.036	-0.612	-7.168	0.309	3.216	0.808	9.227	9.513	8.491	10.650	9.728	300.781
-10.189	-10.412	-10.580	-5.997	0.553	-3.200	9.518	4.831	9.725	11.261	10.026	6.881	8.590	6.664	-15.168	-10.489	-6.309	-6.016	-0.523	-7.163	0.348	3.249	0.892	9.168	9.352	8.230	10.445	9.483	304.688
-10.002	-10.327	-10.378	-5.874	0.708	-3.049	9.575	4.644	9.631	11.336	9.958	6.750	8.579	6.665	-14.923	-10.466	-6.187	-6.010	-0.415	-7.100	0.420	3.300	0.930	9.119	9.165	7.946	10.221	9.257	308.594
-9.778	-10.182	-10.167	-5.729	0.836	-2.961	9.569	4.361	9.436	11.367	9.868	6.687	8.621	6.694	-14.674	-10.369	-6.102	-6.027	-0.350	-6.986	0.524	3.335	0.893	9.091	8.971	7.667	10.008	9.081	312.500
-9.539	-9.987	-9.973	-5.564	0.942	-2.940	9.524	3.998	9.158	11.377	9.780	6.708	8.736	6.762	-14.456	-10.214	-6.100	-6.067	-0.374	-6.834	0.650	3.324	0.769	9.090	8.791	7.425	9.838	8.983	316.406
-9.317	-9.767	-9.827	-5.388	1.025	-2.990	9.462	3.581	8.818	11.382	9.714	6.817	8.936	6.873	-14.302	-10.029	-6.203	-6.124	-0.507	-6.666	0.784	3.249	0.562	9.124	8.646	7.245	9.742	8.980	320.312
-9.139	-9.551	-9.754	-5.223	1.082	-3.106	9.400	3.140	8.448	11.394	9.687	7.009	9.216	7.021	-14.234	-9.840	-6.395	-6.188	-0.737	-6.504	0.909	3.109	0.291	9.192	8.553	7.141	9.742	9.082	324.219
-9.024	-9.367	-9.770	-5.091	1.105	-3.283	9.350	2.711	8.082	11.420	9.709	7.267	9.555	7.189	-14.260	-9.671	-6.631	-6.254	-1.023	-6.366	1.010	2.918	-0.015	9.290	8.521	7.119	9.842	9.279	328.125
-8.979	-9.236	-9.875	-5.016	1.086	-3.508	9.313	2.333	7.757	11.457	9.784	7.566	9.919	7.356	-14.375	-9.538	-6.849	-6.323	-1.310	-6.266	1.073	2.699	-0.322	9.405	8.547	7.168	10.031	9.553	332.031
-8.999	-9.166	-10.051	-5.009	1.018	-3.766	9.290	2.045	7.509	11.503	9.909	7.871	10.267	7.494	-14.556	-9.448	-6.992	-6.398	-1.543	-6.209	1.092	2.477	-0.607	9.519	8.614	7.268	10.278	9.870	335.938
-9.065	-9.151	-10.267	-5.069	0.902	-4.035	9.276	1.882	7.370	11.548	10.075	8.146	10.556	7.581	-14.766	-9.401	-7.021	-6.490	-1.682	-6.195	1.065	2.273	-0.851	9.609	8.698	7.390	10.538	10.192	339.844
-9.148	-9.173	-10.485	-5.181	0.746	-4.290	9.269	1.868	7.360	11.587	10.269	8.356	10.752	7.604	-14.959	-9.387	-6.927	-6.603	-1.714	-6.217	0.998	2.100	-1.050	9.653	8.767	7.502	10.761	10.473	343.750
-9.219	-9.206	-10.663	-5.317	0.572	-4.505	9.271	2.013	7.485	11.615	10.474	8.472	10.838	7.562	-15.085	-9.395	-6.736	-6.740	-1.654	-6.265	0.903	1.963	-1.208	9.635	8.791	7.575	10.895	10.673	347.656
-9.250	-9.222	-10.770	-5.441	0.406	-4.656	9.290	2.309	7.733	11.629	10.670	8.477	10.812	7.469	-15.105	-9.409	-6.496	-6.891	-1.536	-6.327	0.800	1.860	-1.335	9.547	8.747	7.585	10.901	10.758	351.562
-9.220	-9.199	-10.785	-5.523	0.282	-4.724	9.335	2.728	8.075	11.633	10.836	8.367	10.695	7.353	-14.993	-9.418	-6.267	-7.040	-1.408	-6.390	0.709	1.788	-1.445	9.393	8.622	7.517	10.759	10.708	355.469
-9.122	-9.124	-10.704	-5.539	0.226	-4.703	9.420	3.229	8.470	11.637	10.957	8.154	10.524	7.245	-14.747	-9.411	-6.103	-7.167	-1.313	-6.441	0.650	1.744	-1.549	9.189	8.420	7.371	10.478	10.520	359.375
-8.961	-8.996	-10.541	-5.485	0.258	-4.598	9.556	3.759	8.871	11.654	11.019	7.861	10.346	7.184	-14.395	-9.387	-6.041	-7.258	-1.284	-6.473	0.640	1.726	-1.651	8.966	8.160	7.160	10.091	10.214	363.281
-8.761	-8.833	-10.326	-5.374	0.378	-4.429	9.753	4.264	9.234	11.701	11.014	7.517	10.212	7.198	-13.990	-9.351	-6.091	-7.305	-1.333	-6.480	0.689	1.738	-1.752	8.763	7.881	6.914	9.659	9.826	367.188
-8.555	-8.663	-10.104	-5.231	0.575	-4.223	10.016	4.700	9.529	11.796	10.943	7.152	10.167	7.309	-13.606	-9.316	-6.245	-7.321	-1.453	-6.464	0.800	1.788	-1.843	8.625	7.631	6.672	9.259	9.409	371.094
-8.386	-8.525	-9.924	-5.092	0.827	-4.011	10.346	5.035	9.741	11.956	10.815	6.793	10.247	7.528	-13.328	-9.299	-6.476	-7.332	-1.620	-6.430	0.968	1.883	-1.913	8.595	7.461	6.480	8.970	9.019	375.000
-8.295	-8.456	-9.832	-4.989	1.104	-3.818	10.738	5.261	9.878	12.191	10.647	6.466	10.467	7.849	-13.234	-9.321	-6.756	-7.376	-1.804	-6.383	1.180	2.030	-1.952	8.703	7.415	6.376	8.856	8.707	378.906
-8.315	-8.486	-9.868	-4.946	1.382	-3.662	11.186	5.389	9.962	12.506	10.468	6.195	10.823	8.254	-13.378	-9.396	-7.056	-7.493	-1.969	-6.332	1.423	2.228	-1.955	8.959	7.514	6.380	8.947	8.510	382.812
-8.463	-8.632	-10.050	-4.971	1.640	-3.549	11.677	5.448	10.029	12.897	10.313	6.008	11.291	8.714	-13.778	-9.534	-7.351	-7.709	-2.087	-6.281	1.678	2.469	-1.924	9.347	7.754	6.488	9.233	8.444	386.719
-8.731	-8.888	-10.373	-5.053	1.870	-3.477	12.190	5.475	10.113	13.354	10.228	5.932	11.829	9.191	-14.405	-9.729	-7.620	-8.035	-2.136	-6.230	1.930	2.735	-1.866	9.820	8.096	6.664	9.655	8.504	390.625
-9.088	-9.226	-10.807	-5.168	2.069	-3.435	12.699	5.507	10.243	13.857	10.256	5.997	12.385	9.643	-15.184	-9.963	-7.845	-8.452	-2.109	-6.174	2.161	3.003	-1.795	10.310	8.475	6.850	10.122	8.658	394.531
-9.483	-9.603	-11.302	-5.283	2.242	-3.409	13.171	5.570	10.431	14.379	10.427	6.221	12.904	10.029	-16.003	-10.206	-8.009	-8.919	-2.013	-6.106	2.362	3.242	-1.728	10.737	8.810	6.974	10.520	8.863	398.438
-9.848	-9.962	-11.790	-5.360	2.398	-3.384	13.572	5.679	10.670	14.888	10.753	6.606	13.333	10.315	-16.728	-10.420	-8.098	-9.373	-1.867	-6.015	2.524	3.424	-1.679	11.022	9.017	6.960	10.742	9.058	402.344
-10.113	-10.245	-12.195	-5.369	2.545	-3.345	13.864	5.828	10.933	15.342	11.212	7.125	13.633	10.480	-17.224	-10.566	-8.101	-9.742	-1.694	-5.892	2.649	3.531	-1.657	11.104	9.025	6.747	10.703	9.184	406.250
-10.216	-10.399	-12.451	-5.289	2.693	-3.281	14.017	5.997	11.174	15.695	11.746	7.723	13.779	10.520	-17.374	-10.611	-8.014	-9.958	-1.518	-5.729	2.743	3.557	-1.663	10.951	8.786	6.299	10.357	9.184	410.156
-10.112	-10.387	-12.504	-5.110	2.847	-3.182	14.005	6.153	11.334	15.896	12.268	8.319	13.763	10.446	-17.107	-10.533	-7.839	-9.973	-1.356	-5.520	2.820	3.512	-1.688	10.566	8.290	5.612	9.706	9.019	414.062
-9.786	-10.193	-12.332	-4.838	3.012	-3.045	13.814	6.258	11.356	15.893	12.673	8.815	13.595	10.286	-16.402	-10.325	-7.590	-9.767	-1.211	-5.262	2.899	3.426	-1.718	9.989	7.566	4.721	8.799	8.669	417.969
-9.254	-9.824	-11.944	-4.486	3.192	-2.868	13.443	6.272	11.189	15.645	12.859	9.122	13.296	10.078	-15.307	-9.998	-7.283	-9.353	-1.074	-4.957	3.000	3.338	-1.731	9.290	6.676	3.691	7.725	8.145	421.875
-8.560	-9.307	-11.378	-4.073	3.388	-2.654	12.905	6.164	10.804	15.130	12.742	9.164	12.900	9.861	-13.920	-9.572	-6.943	-8.779	-0.925	-4.609	3.141	3.292	-1.706	8.554	5.712	2.614	6.598	7.482	425.781
-7.767	-8.682	-10.695	-3.621	3.604	-2.410	12.231	5.913	10.194	14.351	12.278	8.900	12.446	9.674	-12.383	-9.081	-6.591	-8.113	-0.743	-4.222	3.336	3.327	-1.622	7.872	4.776	1.589	5.538	6.735	429.688
-6.947	-7.992	-9.962	-3.146	3.842	-2.142	11.466	5.516	9.383	13.342	11.469	8.325	11.977	9.546	-10.849	-8.557	-6.244	-7.438	-0.509	-3.803	3.592	3.471	-1.470	7.321	3.961	0.703	4.645	5.967	433.594
-6.160	-7.278	-9.241	-2.659	4.105	-1.861	10.665	4.987	8.420	12.167	10.363	7.473	11.526	9.492	-9.461	-8.031	-5.912	-6.831	-0.210	-3.358	3.910	3.731	-1.251	6.949	3.336	0.019	3.991	5.235	437.500
-5.454	-6.572	-8.575	-2.166	4.394	-1.575	9.887	4.355	7.374	10.909	9.049	6.408	11.122	9.514	-8.326	-7.526	-5.594	-6.356	0.156	-2.895	4.279	4.099	-0.976	6.771	2.932	-0.440	3.597	4.579	441.406
-4.850	-5.894	-7.985	-1.669	4.708	-1.295	9.188	3.667	6.326	9.667	7.643	5.219	10.780	9.599	-7.500	-7.061	-5.283	-6.050	0.583	-2.423	4.686	4.546	-0.669	6.764	2.739	-0.693	3.444	4.019	445.312
-4.352	-5.260	-7.472	-1.175	5.037	-1.035	8.612	2.973	5.357	8.535	6.270	4.006	10.503	9.724	-6.985	-6.646	-4.969	-5.920	1.055	-1.956	5.105	5.035	-0.359	6.875	2.709	-0.793	3.467	3.551	449.219
-3.943	-4.676	-7.017	-0.692	5.367	-0.805	8.187	2.328	4.538	7.592	5.049	2.868	10.282	9.860	-6.730	-6.286	-4.642	-5.947	1.548	-1.510	5.509	5.520	-0.079	7.030	2.768	-0.814	3.580	3.154	453.125
-3.593	-4.149	-6.592	-0.237	5.678	-0.619	7.919	1.774	3.919	6.893	4.072	1.897	10.102	9.973	-6.652	-5.979	-4.294	-6.089	2.034	-1.101	5.868	5.957	0.139	7.150	2.831	-0.838	3.688	2.797	457.031
-3.273	-3.681	-6.171	0.173	5.946	-0.487	7.793	1.343	3.524	6.458	3.401	1.160	9.943	10.036	-6.646	-5.719	-3.929	-6.294	2.481	-0.748	6.153	6.306	0.268	7.163	2.820	-0.936	3.704	2.454	460.938
-2.951	-3.273	-5.732	0.519	6.149	-0.416	7.777	1.044	3.348	6.278	3.057	0.700	9.788	10.029	-6.611	-5.492	-3.556	-6.510	2.859	-0.461	6.342	6.539	0.289	7.021	2.676	-1.154	3.571	2.107	464.844
-2.606	-2.919	-5.267	0.788	6.272	-0.409	7.826	0.869	3.359	6.311	3.019	0.527	9.624	9.944	-6.465	-5.283	-3.197	-6.691	3.137	-0.245	6.424	6.640	0.193	6.707	2.374	-1.508	3.264	1.754	468.750
-2.223	-2.606	-4.781	0.973	6.307	-0.466	7.889	0.793	3.502	6.499	3.236	0.618	9.447	9.785	-6.155	-5.074	-2.878	-6.808	3.295	-0.094	6.402	6.606	-0.014	6.237	1.919	-1.978	2.798	1.408	472.656
-1.801	-2.314	-4.291	1.080	6.254	-0.580	7.922	0.778	3.713	6.769	3.629	0.923	9.259	9.567	-5.668	-4.848	-2.625	-6.845	3.324	0.005	6.288	6.449	-0.313	5.656	1.350	-2.521	2.224	1.094	476.562
-1.347	-2.022	-3.821	1.123	6.124	-0.741	7.884	0.782	3.923	7.050	4.105	1.368	9.067	9.312	-5.024	-4.596	-2.453	-6.801	3.227	0.070	6.109	6.197	-0.673	5.033	0.730	-3.072	1.613	0.842	480.469
-0.879	-1.708	-3.397	1.122	5.935	-0.935	7.752	0.763	4.070	7.276	4.570	1.864	8.880	9.042	-4.270	-4.313	-2.363	-6.680	3.027	0.121	5.895	5.885	-1.050	4.440	0.131	-3.562	1.050	0.679	484.375
-0.417	-1.361	-3.043	1.099	5.707	-1.144	7.516	0.686	4.109	7.395	4.940	2.321	8.702	8.781	-3.470	-4.003	-2.337	-6.489	2.760	0.177	5.678	5.560	-1.398	3.948	-0.375	-3.931	0.608	0.621	488.281
0.011	-0.983	-2.777	1.074	5.464	-1.349	7.185	0.530	4.011	7.374	5.149	2.656	8.534	8.543	-2.693	-3.676	-2.342	-6.236	2.476	0.249	5.488	5.268	-1.667	3.607	-0.728	-4.134	0.344	0.670	492.188
0.377	-0.595	-2.610	1.058	5.228	-1.531	6.781	0.290	3.772	7.202	5.155	2.803	8.371	8.340	-2.001	-3.348	-2.337	-5.926	2.229	0.344	5.346	5.048	-1.816	3.443	-0.892	-4.147	0.287	0.814	496.094
0.655	-0.231	-2.548	1.055	5.018	-1.673	6.335	-0.022	3.411	6.885	4.948	2.727	8.206	8.176	-1.444	-3.037	-2.285	-5.568	2.067	0.458	5.264	4.932	-1.818	3.457	-0.853	-3.974	0.433	1.027	500.000
0.820	0.061	-2.590	1.056	4.845	-1.764	5.885	-0.374	2.969	6.451	4.547	2.422	8.029	8.050	-1.060	-2.764	-2.158	-5.173	2.023	0.581	5.243	4.931	-1.663	3.623	-0.624	-3.636	0.753	1.275	503.906
0.852	0.238	-2.731	1.044	4.714	-1.801	5.470	-0.724	2.500	5.943	4.002	1.919	7.834	7.958	-0.872	-2.549	-1.942	-4.760	2.103	0.701	5.274	5.039	-1.364	3.899	-0.235	-3.170	1.202	1.527	507.812
0.741	0.262	-2.960	1.001	4.621	-1.788	5.123	-1.024	2.066	5.413	3.381	1.276	7.618	7.891	-0.890	-2.406	-1.645	-4.354	2.291	0.798	5.338	5.230	-0.953	4.233	0.266	-2.622	1.721	1.755	511.719
0.490	0.116	-3.259	0.908	4.553	-1.736	4.864	-1.229	1.725	4.917	2.768	0.573	7.383	7.840	-1.112	-2.346	-1.287	-3.983	2.549	0.855	5.410	5.466	-0.476	4.576	0.829	-2.037	2.258	1.944	515.625
0.111	-0.196	-3.608	0.754	4.491	-1.660	4.701	-1.309	1.521	4.505	2.244	-0.099	7.138	7.792	-1.518	-2.376	-0.903	-3.671	2.827	0.854	5.464	5.705	0.015	4.884	1.401	-1.457	2.766	2.089	519.531
-0.368	-0.649	-3.982	0.534	4.415	-1.579	4.628	-1.250	1.481	4.217	1.881	-0.654	6.894	7.736	-2.072	-2.496	-0.538	-3.437	3.072	0.778	5.474	5.907	0.469	5.129	1.939	-0.916	3.213	2.200	523.438
-0.912	-1.204	-4.353	0.252	4.303	-1.507	4.626	-1.063	1.603	4.074	1.727	-1.017	6.667	7.660	-2.723	-2.703	-0.240	-3.286	3.244	0.617	5.421	6.044	0.848	5.296	2.409	-0.437	3.580	2.291	527.344
-1.478	-1.815	-4.694	-0.080	4.142	-1.456	4.668	-0.779	1.862	4.078	1.801	-1.136	6.472	7.555	-3.407	-2.988	-0.048	-3.210	3.315	0.366	5.294	6.099	1.129	5.386	2.786	-0.035	3.860	2.381	531.250
-2.022	-2.430	-4.976	-0.440	3.926	-1.431	4.725	-0.445	2.212	4.213	2.085	-0.995	6.318	7.415	-4.057	-3.334	0.013	-3.189	3.280	0.032	5.092	6.071	1.300	5.406	3.058	0.281	4.053	2.487	535.156
-2.498	-3.003	-5.176	-0.805	3.663	-1.432	4.768	-0.113	2.593	4.445	2.530	-0.615	6.214	7.240	-4.601	-3.714	-0.063	-3.192	3.147	-0.362	4.827	5.966	1.368	5.370	3.218	0.507	4.159	2.614	539.062
-2.867	-3.490	-5.270	-1.145	3.372	-1.450	4.780	0.168	2.944	4.729	3.059	-0.046	6.158	7.035	-4.981	-4.097	-0.259	-3.187	2.939	-0.786	4.520	5.802	1.345	5.291	3.266	0.638	4.180	2.757	542.969
-3.100	-3.856	-5.246	-1.431	3.084	-1.473	4.754	0.364	3.209	5.016	3.584	0.634	6.145	6.810	-5.154	-4.446	-0.545	-3.146	2.682	-1.198	4.199	5.595	1.252	5.181	3.205	0.671	4.114	2.900	546.875
-3.178	-4.078	-5.099	-1.636	2.835	-1.484	4.694	0.457	3.353	5.263	4.020	1.339	6.166	6.582	-5.099	-4.728	-0.883	-3.054	2.399	-1.554	3.896	5.365	1.111	5.047	3.043	0.606	3.962	3.022	550.781
-3.099	-4.142	-4.841	-1.736	2.665	-1.467	4.617	0.449	3.362	5.436	4.302	1.986	6.213	6.372	-4.826	-4.915	-1.239	-2.911	2.113	-1.818	3.643	5.129	0.943	4.897	2.794	0.445	3.729	3.100	554.688
-2.878	-4.050	-4.490	-1.718	2.603	-1.408	4.544	0.361	3.243	5.517	4.391	2.504	6.276	6.201	-4.366	-4.996	-1.580	-2.735	1.842	-1.963	3.463	4.906	0.769	4.734	2.475	0.196	3.424	3.114	558.594
-2.538	-3.812	-4.075	-1.575	2.669	-1.298	4.494	0.218	3.020	5.498	4.283	2.845	6.349	6.085	-3.772	-4.969	-1.880	-2.550	1.600	-1.984	3.371	4.709	0.606	4.562	2.108	-0.126	3.064	3.053	562.500
-2.114	-3.450	-3.627	-1.315	2.864	-1.132	4.480	0.052	2.731	5.386	3.998	2.980	6.424	6.035	-3.105	-4.846	-2.118	-2.386	1.398	-1.889	3.368	4.551	0.471	4.385	1.718	-0.503	2.667	2.911	566.406
-1.640	-2.992	-3.172	-0.957	3.172	-0.912	4.504	-0.112	2.414	5.193	3.579	2.902	6.494	6.050	-2.421	-4.649	-2.279	-2.262	1.242	-1.709	3.443	4.440	0.373	4.205	1.327	-0.910	2.256	2.691	570.312
-1.151	-2.472	-2.730	-0.534	3.556	-0.649	4.557	-0.258	2.102	4.933	3.075	2.622	6.549	6.118	-1.764	-4.405	-2.353	-2.184	1.137	-1.481	3.575	4.379	0.321	4.025	0.959	-1.318	1.854	2.403	574.219
-0.675	-1.928	-2.311	-0.087	3.970	-0.361	4.618	-0.377	1.815	4.621	2.530	2.165	6.574	6.220	-1.160	-4.142	-2.332	-2.141	1.079	-1.248	3.735	4.367	0.319	3.849	0.633	-1.693	1.480	2.062	578.125
-0.234	-1.398	-1.918	0.340	4.362	-0.073	4.659	-0.475	1.563	4.268	1.978	1.569	6.555	6.332	-0.620	-3.881	-2.215	-2.104	1.060	-1.049	3.896	4.396	0.369	3.683	0.368	-2.003	1.155	1.691	582.031
0.153	-0.918	-1.552	0.701	4.682	0.188	4.653	-0.561	1.343	3.881	1.440	0.876	6.479	6.428	-0.144	-3.635	-2.009	-2.038	1.070	-0.908	4.033	4.454	0.466	3.532	0.177	-2.216	0.896	1.315	585.938
0.476	-0.518	-1.211	0.964	4.889	0.396	4.578	-0.650	1.142	3.468	0.930	0.138	6.336	6.488	0.274	-3.412	-1.729	-1.907	1.094	-0.835	4.131	4.525	0.603	3.404	0.070	-2.306	0.718	0.963	589.844
0.728	-0.218	-0.893	1.108	4.961	0.529	4.419	-0.758	0.945	3.034	0.450	-0.593	6.120	6.499	0.641	-3.208	-1.401	-1.688	1.122	-0.822	4.185	4.596	0.771	3.305	0.051	-2.264	0.629	0.662	593.750
0.914	-0.021	-0.597	1.133	4.892	0.577	4.172	-0.900	0.735	2.586	0.002	-1.270	5.832	6.458	0.967	-3.015	-1.053	-1.372	1.147	-0.847	4.201	4.656	0.955	3.237	0.112	-2.094	0.628	0.429	597.656
1.048	0.087	-0.324	1.057	4.699	0.538	3.846	-1.085	0.500	2.127	-0.418	-1.859	5.482	6.366	1.265	-2.818	-0.714	-0.969	1.170	-0.879	4.190	4.701	1.145	3.196	0.237	-1.822	0.701	0.271	601.562
1.152	0.142	-0.069	0.916	4.413	0.423	3.455	-1.318	0.229	1.666	-0.814	-2.339	5.080	6.232	1.554	-2.605	-0.403	-0.507	1.204	-0.886	4.167	4.733	1.332	3.174	0.399	-1.489	0.821	0.179	605.469
1.259	0.191	0.170	0.756	4.078	0.254	3.023	-1.597	-0.078	1.208	-1.191	-2.709	4.641	6.065	1.856	-2.363	-0.124	-0.022	1.266	-0.843	4.147	4.758	1.508	3.155	0.563	-1.149	0.949	0.129	609.375
1.399	0.288	0.398	0.623	3.745	0.056	2.579	-1.911	-0.414	0.765	-1.551	-2.982	4.183	5.876	2.194	-2.085	0.131	0.445	1.379	-0.736	4.140	4.784	1.673	3.118	0.693	-0.860	1.041	0.088	613.281
1.595	0.473	0.616	0.558	3.459	-0.140	2.153	-2.240	-0.762	0.348	-1.895	-3.180	3.723	5.672	2.581	-1.774	0.383	0.856	1.555	-0.569	4.147	4.819	1.823	3.046	0.760	-0.670	1.056	0.021	617.188
1.856	0.767	0.823	0.587	3.258	-0.305	1.775	-2.557	-1.096	-0.028	-2.218	-3.330	3.279	5.458	3.019	-1.440	0.651	1.185	1.800	-0.356	4.167	4.866	1.959	2.925	0.742	-0.612	0.966	-0.103	621.094
2.173	1.164	1.011	0.718	3.159	-0.418	1.469	-2.835	-1.387	-0.346	-2.510	-3.453	2.870	5.240	3.490	-1.097	0.951	1.416	2.105	-0.122	4.192	4.923	2.077	2.750	0.634	-0.699	0.760	-0.298	625.000
2.521	1.632	1.171	0.939	3.162	-0.468	1.249	-3.050	-1.607	-0.592	-2.759	-3.563	2.510	5.018	3.966	-0.766	1.283	1.547	2.450	0.107	4.213	4.985	2.174	2.529	0.446	-0.918	0.448	-0.563	628.906
2.869	2.125	1.294	1.224	3.248	-0.453	1.116	-3.185	-1.741	-0.762	-2.953	-3.667	2.210	4.793	4.410	-0.463	1.640	1.592	2.810	0.309	4.220	5.043	2.247	2.277	0.199	-1.236	0.060	-0.881	632.812
3.182	2.590	1.372	1.537	3.380	-0.383	1.056	-3.238	-1.788	-0.862	-3.089	-3.765	1.975	4.564	4.791	-0.195	2.003	1.574	3.160	0.473	4.207	5.089	2.292	2.015	-0.076	-1.608	-0.363	-1.226	636.719
3.438	2.985	1.408	1.840	3.516	-0.275	1.037	-3.218	-1.765	-0.913	-3.174	-3.856	1.799	4.327	5.093	0.034	2.352	1.529	3.476	0.595	4.166	5.111	2.309	1.764	-0.353	-1.987	-0.777	-1.563	640.625
3.626	3.284	1.419	2.101	3.615	-0.148	1.019	-3.146	-1.703	-0.949	-3.227	-3.941	1.667	4.076	5.324	0.228	2.669	1.497	3.744	0.679	4.091	5.099	2.301	1.534	-0.610	-2.332	-1.145	-1.864	644.531
3.755	3.481	1.436	2.297	3.647	-0.016	0.957	-3.047	-1.642	-1.012	-3.273	-4.025	1.555	3.803	5.513	0.391	2.942	1.516	3.949	0.731	3.976	5.041	2.271	1.326	-0.841	-2.617	-1.447	-2.111	648.438
3.848	3.591	1.499	2.420	3.596	0.114	0.814	-2.947	-1.624	-1.143	-3.342	-4.115	1.435	3.500	5.709	0.524	3.164	1.623	4.083	0.754	3.812	4.925	2.225	1.130	-1.054	-2.833	-1.683	-2.298	652.344
3.934	3.640	1.655	2.477	3.467	0.242	0.567	-2.865	-1.679	-1.372	-3.460	-4.219	1.282	3.163	5.967	0.625	3.328	1.839	4.137	0.745	3.596	4.743	2.164	0.923	-1.268	-2.990	-1.868	-2.428	656.250
4.048	3.664	1.939	2.483	3.280	0.375	0.215	-2.817	-1.824	-1.709	-3.640	-4.341	1.080	2.797	6.333	0.687	3.432	2.164	4.106	0.701	3.331	4.492	2.088	0.684	-1.508	-3.108	-2.033	-2.516	660.156
4.213	3.698	2.367	2.463	3.067	0.517	-0.221	-2.809	-2.058	-2.140	-3.880	-4.480	0.827	2.416	6.832	0.703	3.475	2.575	3.991	0.619	3.026	4.179	1.994	0.396	-1.791	-3.211	-2.207	-2.576	664.062
4.439	3.764	2.923	2.439	2.865	0.672	-0.698	-2.842	-2.361	-2.625	-4.157	-4.621	0.540	2.045	7.451	0.671	3.458	3.026	3.803	0.501	2.705	3.818	1.878	0.055	-2.120	-3.317	-2.413	-2.616	667.969
4.716	3.868	3.560	2.430	2.705	0.830	-1.156	-2.914	-2.697	-3.102	-4.434	-4.743	0.253	1.716	8.141	0.593	3.388	3.450	3.561	0.359	2.398	3.438	1.733	-0.327	-2.482	-3.432	-2.657	-2.640	671.875
5.012	3.995	4.203	2.440	2.608	0.975	-1.539	-3.019	-3.022	-3.501	-4.663	-4.818	0.009	1.467	8.816	0.479	3.276	3.779	3.294	0.210	2.144	3.071	1.559	-0.717	-2.840	-3.547	-2.923	-2.638	675.781
5.280	4.112	4.762	2.462	2.576	1.080	-1.793	-3.151	-3.290	-3.755	-4.794	-4.814	-0.144	1.329	9.376	0.345	3.135	3.954	3.031	0.079	1.975	2.753	1.360	-1.071	-3.144	-3.633	-3.176	-2.594	679.688
5.469	4.176	5.148	2.477	2.592	1.111	-1.891	-3.301	-3.465	-3.814	-4.788	-4.706	-0.169	1.325	9.721	0.207	2.982	3.938	2.803	-0.014	1.917	2.516	1.146	-1.336	-3.334	-3.651	-3.366	-2.487	683.594
5.531	4.145	5.291	2.458	2.622	1.037	-1.827	-3.462	-3.526	-3.656	-4.623	-4.476	-0.042	1.461	9.778	0.081	2.827	3.727	2.630	-0.052	1.976	2.385	0.936	-1.462	-3.356	-3.554	-3.439	-2.296	687.500
5.435	3.991	5.153	2.377	2.622	0.833	-1.625	-3.627	-3.472	-3.293	-4.297	-4.120	0.241	1.725	9.512	-0.024	2.677	3.352	2.523	-0.035	2.139	2.372	0.752	-1.406	-3.168	-3.304	-3.346	-2.003	691.406
5.172	3.707	4.735	2.212	2.548	0.489	-1.333	-3.792	-3.324	-2.766	-3.833	-3.649	0.663	2.090	8.942	-0.106	2.532	2.871	2.480	0.025	2.375	2.471	0.618	-1.147	-2.758	-2.878	-3.056	-1.604	695.312
4.763	3.310	4.076	1.955	2.368	0.014	-1.007	-3.955	-3.118	-2.143	-3.270	-3.085	1.193	2.517	8.130	-0.170	2.386	2.359	2.486	0.105	2.643	2.665	0.548	-0.688	-2.144	-2.283	-2.562	-1.107	699.219
4.248	2.840	3.246	1.615	2.072	-0.562	-0.708	-4.117	-2.900	-1.502	-2.660	-2.459	1.790	2.964	7.177	-0.226	2.235	1.888	2.525	0.178	2.901	2.917	0.550	-0.056	-1.377	-1.557	-1.889	-0.533	703.125
3.688	2.349	2.337	1.220	1.677	-1.192	-0.485	-4.279	-2.716	-0.918	-2.055	-1.808	2.409	3.391	6.201	-0.286	2.082	1.515	2.574	0.222	3.112	3.186	0.613	0.694	-0.538	-0.770	-1.088	0.079	707.031
3.151	1.894	1.443	0.812	1.227	-1.814	-0.366	-4.445	-2.603	-0.453	-1.503	-1.168	3.010	3.768	5.318	-0.356	1.937	1.273	2.617	0.225	3.256	3.424	0.715	1.491	0.278	-0.011	-0.233	0.684	710.938
2.699	1.521	0.655	0.439	0.783	-2.363	-0.360	-4.614	-2.582	-0.145	-1.039	-0.574	3.557	4.074	4.627	-0.436	1.818	1.164	2.641	0.190	3.329	3.587	0.824	2.255	0.972	0.620	0.588	1.233	714.844
2.383	1.266	0.043	0.149	0.414	-2.777	-0.453	-4.786	-2.656	-0.004	-0.687	-0.055	4.024	4.298	4.191	-0.516	1.745	1.167	2.637	0.136	3.343	3.641	0.903	2.904	1.459	1.035	1.291	1.681	718.750
2.235	1.146	-0.347	-0.022	0.181	-3.011	-0.615	-4.957	-2.815	-0.020	-0.452	0.364	4.389	4.437	4.040	-0.576	1.730	1.248	2.603	0.091	3.319	3.570	0.921	3.370	1.679	1.175	1.800	1.992	722.656
2.268	1.165	-0.494	-0.049	0.123	-3.040	-0.813	-5.127	-3.035	-0.163	-0.334	0.666	4.635	4.494	4.170	-0.593	1.774	1.370	2.540	0.089	3.279	3.377	0.859	3.605	1.610	1.015	2.063	2.146	726.562
2.473	1.316	-0.404	0.073	0.250	-2.864	-1.018	-5.294	-3.294	-0.399	-0.320	0.837	4.749	4.470	4.547	-0.540	1.865	1.502	2.453	0.156	3.244	3.082	0.715	3.586	1.268	0.580	2.059	2.137	730.469
2.825	1.590	-0.102	0.333	0.542	-2.509	-1.212	-5.459	-3.567	-0.693	-0.395	0.875	4.719	4.364	5.120	-0.400	1.980	1.626	2.350	0.308	3.222	2.722	0.503	3.324	0.707	-0.066	1.799	1.983	734.375
3.285	1.966	0.366	0.703	0.945	-2.028	-1.391	-5.622	-3.832	-1.017	-0.540	0.787	4.542	4.175	5.819	-0.169	2.095	1.735	2.238	0.539	3.209	2.339	0.251	2.854	0.013	-0.819	1.329	1.718	738.281
3.801	2.421	0.944	1.142	1.387	-1.486	-1.563	-5.778	-4.072	-1.347	-0.733	0.593	4.219	3.900	6.569	0.140	2.190	1.833	2.125	0.825	3.190	1.975	-0.002	2.238	-0.714	-1.560	0.719	1.391	742.188
4.316	2.922	1.566	1.599	1.788	-0.961	-1.742	-5.919	-4.268	-1.667	-0.950	0.326	3.765	3.538	7.291	0.494	2.253	1.930	2.015	1.127	3.140	1.662	-0.221	1.551	-1.369	-2.168	0.058	1.059	746.094
4.770	3.429	2.168	2.024	2.073	-0.525	-1.942	-6.026	-4.402	-1.962	-1.163	0.031	3.203	3.093	7.913	0.848	2.282	2.038	1.911	1.393	3.034	1.415	-0.376	0.870	-1.866	-2.544	-0.565	0.778	750.000
5.114	3.896	2.690	2.367	2.185	-0.234	-2.169	-6.079	-4.454	-2.217	-1.348	-0.244	2.568	2.578	8.378	1.150	2.280	2.168	1.813	1.578	2.851	1.235	-0.450	0.263	-2.147	-2.630	-1.075	0.590	753.906
5.312	4.280	3.091	2.592	2.097	-0.123	-2.415	-6.055	-4.409	-2.415	-1.481	-0.456	1.903	2.016	8.653	1.359	2.252	2.325	1.717	1.646	2.584	1.107	-0.444	-0.221	-2.195	-2.417	-1.419	0.520	757.812
5.350	4.543	3.345	2.677	1.815	-0.194	-2.660	-5.940	-4.259	-2.534	-1.541	-0.572	1.256	1.435	8.730	1.445	2.197	2.510	1.621	1.582	2.242	1.011	-0.372	-0.560	-2.032	-1.949	-1.580	0.571	761.719
5.238	4.661	3.452	2.615	1.373	-0.426	-2.873	-5.731	-4.007	-2.556	-1.515	-0.572	0.677	0.876	8.630	1.398	2.111	2.712	1.520	1.391	1.847	0.923	-0.260	-0.753	-1.714	-1.312	-1.568	0.723	765.625
5.005	4.626	3.428	2.413	0.828	-0.773	-3.021	-5.437	-3.668	-2.463	-1.395	-0.459	0.211	0.380	8.395	1.227	1.989	2.916	1.411	1.098	1.433	0.829	-0.137	-0.822	-1.318	-0.615	-1.418	0.945	769.531
4.693	4.443	3.304	2.086	0.245	-1.179	-3.074	-5.085	-3.269	-2.247	-1.180	-0.247	-0.106	-0.016	8.080	0.959	1.825	3.100	1.292	0.740	1.040	0.721	-0.032	-0.798	-0.923	0.032	-1.175	1.200	773.438
4.350	4.131	3.119	1.654	-0.313	-1.589	-3.012	-4.707	-2.846	-1.908	-0.879	0.037	-0.250	-0.281	7.741	0.624	1.615	3.244	1.164	0.354	0.701	0.603	0.032	-0.719	-0.599	0.539	-0.887	1.453	777.344
4.018	3.718	2.909	1.140	-0.800	-1.959	-2.830	-4.341	-2.435	-1.459	-0.505	0.365	-0.218	-0.401	7.427	0.256	1.360	3.333	1.029	-0.027	0.439	0.484	0.042	-0.616	-0.389	0.851	-0.591	1.682	781.250
3.727	3.237	2.706	0.567	-1.190	-2.262	-2.541	-4.016	-2.062	-0.919	-0.076	0.707	-0.022	-0.380	7.170	-0.117	1.064	3.361	0.888	-0.383	0.261	0.376	-0.003	-0.516	-0.311	0.951	-0.312	1.873	785.156
3.493	2.718	2.529	-0.045	-1.485	-2.491	-2.166	-3.746	-1.743	-0.315	0.389	1.045	0.306	-0.241	6.985	-0.478	0.732	3.332	0.744	-0.704	0.158	0.285	-0.099	-0.433	-0.357	0.864	-0.061	2.025	789.062
3.312	2.188	2.384	-0.677	-1.704	-2.658	-1.735	-3.529	-1.472	0.328	0.872	1.367	0.718	-0.023	6.866	-0.817	0.376	3.260	0.599	-0.994	0.111	0.212	-0.230	-0.375	-0.494	0.641	0.160	2.147	792.969
3.168	1.665	2.268	-1.312	-1.881	-2.787	-1.282	-3.346	-1.234	0.984	1.359	1.671	1.162	0.228	6.792	-1.135	0.007	3.166	0.452	-1.261	0.090	0.152	-0.379	-0.340	-0.682	0.351	0.356	2.251	796.875
