FP1	F3	F7	FC3	C3	C5	P3	P7	PO7	PO3	O1	Oz	Pz	CPz	FP2	Fz	F4	F8	FC4	FCz	Cz	C4	C6	P4	P8	PO8	PO4	O2	time
-0.034	-0.026	-0.284	0.129	0.967	0.636	-0.182	-2.093	-1.880	-0.572	-0.501	-0.688	1.238	0.856	-0.540	0.192	2.282	0.696	-0.318	0.191	0.164	0.452	0.263	1.235	0.634	0.186	0.748	0.555	-199.219
-0.016	-0.006	-0.334	-0.053	0.672	0.450	-0.038	-1.710	-1.625	-0.349	-0.489	-0.725	1.424	1.068	-0.564	0.077	1.516	0.245	-0.129	0.295	0.438	0.802	0.243	1.541	0.734	0.275	0.942	0.472	-195.312
0.006	0.015	-0.369	-0.219	0.401	0.279	0.118	-1.335	-1.360	-0.113	-0.447	-0.736	1.596	1.269	-0.593	-0.026	0.804	-0.193	0.041	0.381	0.685	1.122	0.212	1.801	0.808	0.338	1.101	0.398	-191.406
0.027	0.032	-0.389	-0.355	0.176	0.133	0.301	-0.974	-1.073	0.145	-0.353	-0.700	1.738	1.450	-0.636	-0.108	0.190	-0.602	0.174	0.437	0.887	1.389	0.165	1.975	0.839	0.357	1.196	0.342	-187.500
0.040	0.035	-0.397	-0.452	0.010	0.021	0.515	-0.634	-0.760	0.429	-0.191	-0.605	1.838	1.600	-0.696	-0.168	-0.294	-0.961	0.255	0.453	1.027	1.582	0.103	2.040	0.819	0.324	1.212	0.311	-183.594
0.038	0.014	-0.402	-0.509	-0.088	-0.049	0.760	-0.317	-0.423	0.731	0.042	-0.451	1.889	1.713	-0.768	-0.205	-0.639	-1.249	0.271	0.426	1.099	1.682	0.033	1.984	0.748	0.241	1.143	0.306	-179.688
0.013	-0.037	-0.412	-0.529	-0.120	-0.077	1.024	-0.030	-0.073	1.033	0.333	-0.250	1.883	1.784	-0.843	-0.227	-0.852	-1.441	0.214	0.358	1.106	1.682	-0.036	1.817	0.636	0.119	0.997	0.327	-175.781
-0.037	-0.121	-0.438	-0.520	-0.093	-0.065	1.288	0.223	0.272	1.311	0.656	-0.025	1.818	1.810	-0.907	-0.240	-0.950	-1.524	0.091	0.261	1.061	1.584	-0.093	1.560	0.499	-0.022	0.792	0.367	-171.875
-0.111	-0.234	-0.483	-0.490	-0.023	-0.025	1.523	0.433	0.588	1.535	0.976	0.192	1.697	1.792	-0.942	-0.249	-0.955	-1.490	-0.077	0.153	0.985	1.411	-0.125	1.243	0.355	-0.160	0.552	0.416	-167.969
-0.197	-0.362	-0.548	-0.449	0.074	0.027	1.701	0.591	0.846	1.677	1.250	0.367	1.523	1.732	-0.934	-0.251	-0.890	-1.348	-0.255	0.061	0.904	1.196	-0.123	0.900	0.223	-0.279	0.301	0.459	-164.062
-0.280	-0.485	-0.623	-0.402	0.177	0.075	1.793	0.688	1.021	1.714	1.437	0.468	1.304	1.634	-0.868	-0.241	-0.772	-1.120	-0.400	0.011	0.843	0.984	-0.082	0.562	0.112	-0.367	0.059	0.483	-160.156
-0.340	-0.581	-0.694	-0.351	0.271	0.102	1.778	0.717	1.094	1.632	1.501	0.472	1.049	1.502	-0.737	-0.207	-0.614	-0.834	-0.471	0.025	0.821	0.816	0.000	0.254	0.028	-0.424	-0.161	0.471	-156.250
-0.359	-0.628	-0.744	-0.294	0.343	0.101	1.644	0.677	1.056	1.428	1.422	0.367	0.771	1.343	-0.538	-0.137	-0.424	-0.526	-0.441	0.115	0.845	0.721	0.118	-0.007	-0.032	-0.454	-0.354	0.411	-152.344
-0.324	-0.611	-0.754	-0.228	0.389	0.070	1.395	0.573	0.910	1.113	1.197	0.157	0.481	1.160	-0.278	-0.021	-0.210	-0.224	-0.303	0.280	0.911	0.708	0.259	-0.213	-0.075	-0.468	-0.518	0.296	-148.438
-0.234	-0.525	-0.715	-0.147	0.409	0.019	1.046	0.416	0.670	0.708	0.842	-0.141	0.196	0.959	0.025	0.140	0.017	0.049	-0.076	0.505	1.001	0.760	0.406	-0.361	-0.108	-0.473	-0.656	0.131	-144.531
-0.097	-0.377	-0.621	-0.045	0.407	-0.038	0.625	0.222	0.362	0.242	0.390	-0.498	-0.069	0.745	0.344	0.338	0.248	0.282	0.201	0.759	1.089	0.845	0.539	-0.453	-0.138	-0.473	-0.766	-0.072	-140.625
0.067	-0.184	-0.480	0.075	0.389	-0.084	0.172	0.008	0.014	-0.247	-0.114	-0.876	-0.299	0.524	0.645	0.552	0.465	0.472	0.471	1.003	1.142	0.916	0.642	-0.491	-0.164	-0.464	-0.842	-0.291	-136.719
0.228	0.023	-0.306	0.205	0.360	-0.103	-0.272	-0.207	-0.341	-0.719	-0.614	-1.234	-0.480	0.300	0.893	0.751	0.648	0.625	0.682	1.193	1.129	0.930	0.706	-0.478	-0.179	-0.436	-0.873	-0.494	-132.812
0.356	0.208	-0.118	0.329	0.322	-0.086	-0.664	-0.405	-0.672	-1.132	-1.057	-1.529	-0.602	0.076	1.055	0.903	0.771	0.747	0.788	1.287	1.027	0.857	0.730	-0.417	-0.174	-0.375	-0.845	-0.650	-128.906
0.420	0.334	0.060	0.423	0.271	-0.033	-0.968	-0.569	-0.950	-1.448	-1.391	-1.722	-0.660	-0.144	1.105	0.970	0.809	0.842	0.764	1.254	0.820	0.683	0.722	-0.313	-0.136	-0.267	-0.747	-0.727	-125.000
0.399	0.370	0.208	0.457	0.198	0.046	-1.160	-0.683	-1.151	-1.635	-1.578	-1.780	-0.656	-0.361	1.029	0.923	0.741	0.914	0.609	1.075	0.508	0.419	0.695	-0.173	-0.055	-0.104	-0.569	-0.704	-121.094
0.282	0.293	0.308	0.405	0.093	0.133	-1.229	-0.736	-1.258	-1.674	-1.594	-1.685	-0.600	-0.574	0.828	0.746	0.560	0.961	0.346	0.751	0.107	0.093	0.665	-0.007	0.073	0.117	-0.316	-0.571	-117.188
0.071	0.100	0.349	0.248	-0.057	0.202	-1.182	-0.723	-1.264	-1.559	-1.433	-1.430	-0.504	-0.783	0.517	0.441	0.278	0.981	0.016	0.306	-0.355	-0.253	0.646	0.167	0.244	0.386	-0.000	-0.332	-113.281
-0.217	-0.198	0.324	-0.015	-0.257	0.228	-1.040	-0.646	-1.171	-1.303	-1.113	-1.030	-0.386	-0.984	0.123	0.029	-0.071	0.969	-0.327	-0.218	-0.834	-0.573	0.648	0.331	0.446	0.684	0.355	-0.009	-109.375
-0.550	-0.567	0.237	-0.368	-0.506	0.190	-0.835	-0.518	-0.989	-0.937	-0.669	-0.517	-0.264	-1.169	-0.313	-0.444	-0.438	0.924	-0.629	-0.763	-1.284	-0.824	0.673	0.466	0.661	0.985	0.716	0.363	-105.469
-0.888	-0.960	0.101	-0.771	-0.790	0.076	-0.608	-0.357	-0.740	-0.505	-0.154	0.062	-0.157	-1.331	-0.743	-0.919	-0.765	0.846	-0.843	-1.263	-1.658	-0.978	0.715	0.553	0.865	1.258	1.047	0.744	-101.562
-1.184	-1.319	-0.064	-1.168	-1.081	-0.107	-0.400	-0.188	-0.453	-0.063	0.373	0.645	-0.081	-1.460	-1.121	-1.329	-1.000	0.740	-0.940	-1.657	-1.917	-1.023	0.760	0.576	1.032	1.474	1.311	1.085	-97.656
-1.395	-1.583	-0.227	-1.494	-1.343	-0.341	-0.245	-0.035	-0.160	0.332	0.848	1.170	-0.052	-1.548	-1.400	-1.612	-1.106	0.613	-0.915	-1.893	-2.039	-0.973	0.788	0.524	1.138	1.607	1.471	1.343	-93.750
-1.485	-1.699	-0.355	-1.685	-1.537	-0.591	-0.168	0.085	0.108	0.626	1.214	1.577	-0.081	-1.592	-1.544	-1.717	-1.072	0.474	-0.783	-1.944	-2.019	-0.857	0.774	0.389	1.160	1.638	1.504	1.483	-89.844
-1.431	-1.634	-0.415	-1.697	-1.628	-0.818	-0.178	0.161	0.325	0.782	1.428	1.819	-0.174	-1.593	-1.533	-1.623	-0.908	0.334	-0.575	-1.803	-1.869	-0.715	0.701	0.172	1.082	1.558	1.394	1.482	-85.938
-1.231	-1.382	-0.386	-1.509	-1.596	-0.981	-0.269	0.197	0.473	0.781	1.469	1.871	-0.331	-1.555	-1.362	-1.337	-0.643	0.203	-0.330	-1.496	-1.618	-0.590	0.556	-0.117	0.898	1.369	1.142	1.333	-82.031
-0.905	-0.965	-0.259	-1.141	-1.437	-1.052	-0.422	0.206	0.548	0.629	1.336	1.730	-0.544	-1.488	-1.047	-0.896	-0.322	0.091	-0.086	-1.066	-1.304	-0.510	0.345	-0.460	0.618	1.085	0.767	1.047	-78.125
-0.495	-0.439	-0.049	-0.640	-1.169	-1.017	-0.607	0.208	0.557	0.353	1.056	1.424	-0.797	-1.401	-0.621	-0.366	0.008	0.005	0.127	-0.577	-0.968	-0.491	0.086	-0.829	0.265	0.733	0.304	0.653	-74.219
-0.055	0.124	0.215	-0.082	-0.827	-0.879	-0.792	0.224	0.518	-0.002	0.673	0.999	-1.067	-1.300	-0.136	0.174	0.303	-0.048	0.293	-0.096	-0.649	-0.527	-0.189	-1.188	-0.122	0.351	-0.197	0.196	-70.312
0.354	0.643	0.492	0.452	-0.454	-0.657	-0.944	0.271	0.457	-0.380	0.241	0.517	-1.325	-1.193	0.351	0.643	0.526	-0.067	0.404	0.317	-0.372	-0.599	-0.440	-1.497	-0.498	-0.017	-0.680	-0.270	-66.406
0.680	1.045	0.739	0.888	-0.096	-0.384	-1.041	0.355	0.396	-0.725	-0.178	0.046	-1.543	-1.082	0.778	0.977	0.653	-0.059	0.467	0.615	-0.156	-0.678	-0.633	-1.720	-0.814	-0.329	-1.089	-0.690	-62.500
0.885	1.285	0.919	1.179	0.211	-0.096	-1.070	0.470	0.354	-0.991	-0.535	-0.355	-1.697	-0.964	1.097	1.140	0.676	-0.036	0.490	0.778	-0.002	-0.737	-0.741	-1.830	-1.032	-0.548	-1.378	-1.016	-58.594
0.958	1.351	1.013	1.308	0.442	0.170	-1.031	0.598	0.340	-1.147	-0.793	-0.644	-1.769	-0.840	1.274	1.132	0.605	-0.016	0.485	0.811	0.099	-0.757	-0.758	-1.816	-1.128	-0.656	-1.520	-1.215	-54.688
0.912	1.271	1.017	1.297	0.591	0.386	-0.936	0.713	0.350	-1.183	-0.937	-0.798	-1.754	-0.708	1.298	0.986	0.464	-0.016	0.464	0.742	0.160	-0.731	-0.697	-1.684	-1.099	-0.651	-1.511	-1.273	-50.781
0.785	1.096	0.947	1.189	0.665	0.534	-0.803	0.786	0.371	-1.109	-0.969	-0.815	-1.653	-0.569	1.185	0.758	0.289	-0.050	0.434	0.613	0.197	-0.667	-0.589	-1.457	-0.966	-0.553	-1.366	-1.201	-46.875
0.621	0.893	0.826	1.041	0.683	0.607	-0.650	0.795	0.390	-0.948	-0.906	-0.708	-1.477	-0.427	0.969	0.511	0.115	-0.120	0.396	0.464	0.221	-0.588	-0.476	-1.172	-0.765	-0.396	-1.122	-1.026	-42.969
0.466	0.721	0.682	0.902	0.666	0.611	-0.491	0.730	0.393	-0.727	-0.776	-0.502	-1.243	-0.288	0.703	0.299	-0.025	-0.214	0.350	0.326	0.235	-0.519	-0.398	-0.870	-0.546	-0.227	-0.826	-0.790	-39.062
0.355	0.616	0.537	0.804	0.634	0.559	-0.335	0.598	0.378	-0.476	-0.606	-0.224	-0.969	-0.159	0.441	0.153	-0.110	-0.311	0.290	0.212	0.234	-0.486	-0.385	-0.590	-0.359	-0.095	-0.528	-0.539	-35.156
0.304	0.585	0.405	0.756	0.599	0.471	-0.182	0.421	0.349	-0.220	-0.424	0.095	-0.674	-0.046	0.237	0.077	-0.132	-0.380	0.215	0.116	0.208	-0.503	-0.450	-0.365	-0.248	-0.043	-0.274	-0.319	-31.250
0.312	0.609	0.293	0.742	0.566	0.366	-0.028	0.231	0.321	0.021	-0.252	0.428	-0.380	0.044	0.129	0.053	-0.095	-0.396	0.130	0.021	0.145	-0.572	-0.585	-0.212	-0.239	-0.101	-0.101	-0.168	-27.344
0.362	0.651	0.198	0.735	0.535	0.264	0.130	0.064	0.308	0.234	-0.109	0.745	-0.104	0.107	0.136	0.050	-0.010	-0.341	0.045	-0.095	0.038	-0.679	-0.766	-0.136	-0.342	-0.281	-0.031	-0.110	-23.438
0.430	0.667	0.118	0.703	0.498	0.180	0.294	-0.047	0.324	0.408	-0.008	1.020	0.135	0.139	0.252	0.038	0.108	-0.217	-0.026	-0.244	-0.113	-0.802	-0.957	-0.129	-0.545	-0.569	-0.067	-0.153	-19.531
0.491	0.625	0.046	0.622	0.451	0.125	0.463	-0.077	0.378	0.538	0.045	1.228	0.324	0.143	0.447	-0.005	0.237	-0.044	-0.069	-0.428	-0.299	-0.916	-1.123	-0.173	-0.816	-0.934	-0.195	-0.289	-15.625
0.523	0.511	-0.018	0.482	0.389	0.100	0.630	-0.014	0.475	0.627	0.050	1.354	0.454	0.118	0.676	-0.085	0.357	0.142	-0.080	-0.636	-0.506	-0.998	-1.236	-0.246	-1.113	-1.325	-0.386	-0.493	-11.719
0.513	0.330	-0.076	0.287	0.309	0.103	0.790	0.144	0.615	0.683	0.015	1.388	0.524	0.069	0.885	-0.195	0.446	0.304	-0.065	-0.850	-0.718	-1.038	-1.285	-0.327	-1.388	-1.684	-0.600	-0.728	-7.812
0.456	0.104	-0.125	0.056	0.211	0.123	0.935	0.385	0.792	0.717	-0.045	1.334	0.541	0.000	1.030	-0.323	0.484	0.409	-0.041	-1.053	-0.920	-1.038	-1.270	-0.398	-1.598	-1.956	-0.798	-0.949	-3.906
0.356	-0.135	-0.164	-0.188	0.097	0.144	1.061	0.688	0.999	0.746	-0.114	1.204	0.516	-0.082	1.083	-0.452	0.458	0.441	-0.034	-1.231	-1.105	-1.009	-1.206	-0.450	-1.712	-2.094	-0.944	-1.117	0.000
0.226	-0.355	-0.194	-0.422	-0.034	0.153	1.163	1.024	1.225	0.783	-0.172	1.021	0.466	-0.173	1.038	-0.573	0.362	0.403	-0.067	-1.382	-1.269	-0.973	-1.114	-0.480	-1.717	-2.077	-1.015	-1.198	3.906
0.079	-0.531	-0.218	-0.628	-0.180	0.133	1.238	1.361	1.458	0.840	-0.201	0.818	0.404	-0.268	0.914	-0.685	0.202	0.315	-0.152	-1.512	-1.416	-0.950	-1.017	-0.495	-1.619	-1.907	-1.005	-1.175	7.812
-0.069	-0.652	-0.242	-0.798	-0.338	0.076	1.282	1.666	1.683	0.921	-0.185	0.627	0.343	-0.364	0.745	-0.789	-0.002	0.204	-0.288	-1.632	-1.553	-0.960	-0.933	-0.507	-1.441	-1.609	-0.927	-1.049	11.719
-0.206	-0.721	-0.270	-0.929	-0.503	-0.021	1.294	1.914	1.884	1.026	-0.112	0.484	0.287	-0.460	0.571	-0.892	-0.220	0.101	-0.455	-1.754	-1.687	-1.013	-0.874	-0.533	-1.217	-1.232	-0.806	-0.839	15.625
-0.323	-0.752	-0.306	-1.027	-0.666	-0.151	1.276	2.086	2.051	1.149	0.025	0.417	0.236	-0.558	0.428	-0.997	-0.420	0.032	-0.624	-1.887	-1.820	-1.113	-0.845	-0.592	-0.990	-0.832	-0.680	-0.575	19.531
-0.417	-0.769	-0.349	-1.098	-0.814	-0.298	1.230	2.180	2.176	1.280	0.227	0.449	0.181	-0.661	0.339	-1.102	-0.573	0.007	-0.765	-2.030	-1.952	-1.254	-0.845	-0.700	-0.797	-0.467	-0.582	-0.294	23.438
-0.487	-0.788	-0.391	-1.150	-0.935	-0.443	1.163	2.205	2.260	1.410	0.493	0.587	0.110	-0.773	0.307	-1.201	-0.664	0.023	-0.855	-2.175	-2.080	-1.429	-0.871	-0.863	-0.667	-0.181	-0.538	-0.032	27.344
-0.537	-0.823	-0.422	-1.184	-1.018	-0.563	1.083	2.181	2.311	1.531	0.811	0.825	0.011	-0.901	0.318	-1.285	-0.696	0.066	-0.886	-2.310	-2.199	-1.624	-0.918	-1.082	-0.615	0.001	-0.558	0.183	31.250
-0.573	-0.876	-0.428	-1.203	-1.058	-0.642	0.999	2.136	2.342	1.634	1.159	1.135	-0.127	-1.050	0.343	-1.346	-0.685	0.114	-0.867	-2.422	-2.304	-1.829	-0.981	-1.342	-0.637	0.079	-0.628	0.336	35.156
-0.605	-0.942	-0.395	-1.203	-1.057	-0.666	0.918	2.096	2.368	1.709	1.502	1.472	-0.309	-1.225	0.344	-1.381	-0.658	0.146	-0.817	-2.500	-2.393	-2.032	-1.053	-1.619	-0.711	0.080	-0.719	0.427	39.062
-0.644	-1.012	-0.316	-1.184	-1.027	-0.636	0.842	2.085	2.404	1.744	1.790	1.772	-0.538	-1.427	0.283	-1.392	-0.647	0.152	-0.765	-2.541	-2.469	-2.221	-1.124	-1.879	-0.798	0.053	-0.782	0.466	42.969
-0.708	-1.084	-0.195	-1.148	-0.983	-0.561	0.770	2.116	2.458	1.723	1.962	1.963	-0.809	-1.652	0.126	-1.391	-0.677	0.137	-0.733	-2.548	-2.533	-2.385	-1.181	-2.083	-0.848	0.062	-0.763	0.476	46.875
-0.817	-1.159	-0.052	-1.106	-0.948	-0.463	0.696	2.191	2.538	1.633	1.952	1.975	-1.113	-1.890	-0.149	-1.395	-0.761	0.112	-0.738	-2.532	-2.587	-2.509	-1.207	-2.190	-0.807	0.175	-0.610	0.486	50.781
-0.993	-1.253	0.078	-1.073	-0.943	-0.370	0.609	2.305	2.647	1.462	1.710	1.759	-1.436	-2.128	-0.556	-1.424	-0.900	0.098	-0.780	-2.507	-2.633	-2.576	-1.187	-2.167	-0.624	0.457	-0.279	0.529	54.688
-1.261	-1.387	0.146	-1.073	-0.986	-0.316	0.504	2.446	2.786	1.215	1.215	1.298	-1.756	-2.346	-1.108	-1.496	-1.082	0.106	-0.846	-2.486	-2.670	-2.574	-1.112	-1.987	-0.258	0.953	0.259	0.641	58.594
-1.644	-1.593	0.099	-1.130	-1.090	-0.332	0.381	2.597	2.959	0.914	0.495	0.627	-2.047	-2.527	-1.817	-1.626	-1.287	0.132	-0.920	-2.483	-2.695	-2.496	-0.985	-1.639	0.314	1.689	1.014	0.860	62.500
-2.162	-1.903	-0.115	-1.270	-1.261	-0.445	0.250	2.747	3.176	0.609	-0.364	-0.171	-2.280	-2.654	-2.703	-1.825	-1.493	0.156	-0.984	-2.514	-2.710	-2.348	-0.824	-1.126	1.097	2.664	1.981	1.223	66.406
-2.827	-2.345	-0.532	-1.512	-1.498	-0.669	0.136	2.888	3.451	0.371	-1.224	-0.962	-2.420	-2.718	-3.789	-2.100	-1.694	0.133	-1.034	-2.595	-2.722	-2.153	-0.663	-0.463	2.077	3.856	3.141	1.767	70.312
-3.642	-2.931	-1.166	-1.864	-1.792	-1.001	0.077	3.019	3.802	0.290	-1.909	-1.588	-2.438	-2.717	-5.100	-2.455	-1.896	0.009	-1.080	-2.740	-2.742	-1.946	-0.542	0.322	3.219	5.220	4.464	2.521	74.219
-4.591	-3.658	-2.002	-2.322	-2.128	-1.425	0.116	3.147	4.243	0.449	-2.242	-1.892	-2.308	-2.657	-6.644	-2.893	-2.129	-0.269	-1.150	-2.968	-2.790	-1.772	-0.505	1.194	4.476	6.699	5.907	3.498	78.125
-5.643	-4.495	-2.995	-2.862	-2.481	-1.906	0.293	3.281	4.780	0.914	-2.080	-1.757	-2.019	-2.551	-8.400	-3.411	-2.430	-0.738	-1.280	-3.289	-2.883	-1.677	-0.581	2.111	5.787	8.223	7.415	4.681	82.031
-6.742	-5.388	-4.074	-3.446	-2.820	-2.399	0.637	3.428	5.401	1.709	-1.351	-1.129	-1.571	-2.412	-10.306	-4.000	-2.840	-1.403	-1.506	-3.705	-3.034	-1.693	-0.784	3.029	7.077	9.708	8.919	6.019	85.938
-7.817	-6.266	-5.151	-4.021	-3.110	-2.853	1.151	3.589	6.070	2.807	-0.074	-0.036	-0.982	-2.250	-12.253	-4.639	-3.381	-2.230	-1.847	-4.204	-3.244	-1.836	-1.103	3.902	8.267	11.058	10.334	7.421	89.844
-8.782	-7.049	-6.133	-4.528	-3.315	-3.219	1.815	3.754	6.731	4.127	1.638	1.418	-0.283	-2.072	-14.095	-5.294	-4.049	-3.145	-2.298	-4.754	-3.497	-2.093	-1.503	4.682	9.268	12.168	11.566	8.764	93.750
-9.550	-7.665	-6.936	-4.911	-3.403	-3.462	2.581	3.898	7.311	5.550	3.596	3.070	0.483	-1.875	-15.664	-5.919	-4.800	-4.049	-2.820	-5.307	-3.762	-2.432	-1.939	5.326	9.995	12.931	12.522	9.916	97.656
-10.047	-8.058	-7.495	-5.129	-3.354	-3.563	3.385	3.992	7.736	6.940	5.579	4.737	1.273	-1.652	-16.804	-6.461	-5.558	-4.837	-3.349	-5.808	-3.999	-2.803	-2.360	5.796	10.379	13.257	13.120	10.756	101.562
-10.227	-8.206	-7.782	-5.162	-3.165	-3.530	4.153	4.003	7.946	8.164	7.372	6.249	2.043	-1.394	-17.400	-6.868	-6.223	-5.420	-3.805	-6.199	-4.164	-3.152	-2.723	6.065	10.379	13.095	13.310	11.199	105.469
-10.083	-8.118	-7.806	-5.016	-2.856	-3.395	4.819	3.906	7.912	9.122	8.808	7.479	2.755	-1.098	-17.410	-7.098	-6.691	-5.744	-4.113	-6.435	-4.227	-3.431	-2.999	6.124	10.002	12.451	13.087	11.221	109.375
-9.654	-7.840	-7.615	-4.726	-2.468	-3.209	5.329	3.697	7.647	9.762	9.797	8.365	3.380	-0.766	-16.880	-7.131	-6.884	-5.806	-4.216	-6.491	-4.172	-3.608	-3.182	5.980	9.303	11.403	12.498	10.866	113.281
-9.025	-7.440	-7.289	-4.351	-2.060	-3.032	5.655	3.396	7.210	10.085	10.339	8.912	3.893	-0.415	-15.938	-6.975	-6.765	-5.647	-4.095	-6.373	-4.009	-3.677	-3.279	5.664	8.392	10.098	11.641	10.240	117.188
-8.309	-6.999	-6.927	-3.962	-1.699	-2.923	5.789	3.054	6.701	10.141	10.514	9.185	4.275	-0.078	-14.777	-6.668	-6.357	-5.351	-3.769	-6.114	-3.774	-3.652	-3.319	5.217	7.409	8.734	10.650	9.495	121.094
-7.632	-6.594	-6.622	-3.634	-1.452	-2.927	5.748	2.741	6.244	10.013	10.458	9.287	4.509	0.201	-13.612	-6.272	-5.740	-5.015	-3.300	-5.775	-3.522	-3.569	-3.337	4.689	6.507	7.527	9.671	8.799	125.000
-7.107	-6.286	-6.450	-3.427	-1.371	-3.064	5.563	2.537	5.963	9.803	10.333	9.332	4.575	0.373	-12.644	-5.864	-5.036	-4.736	-2.776	-5.428	-3.314	-3.478	-3.369	4.128	5.821	6.675	8.840	8.303	128.906
-6.820	-6.113	-6.450	-3.381	-1.484	-3.329	5.272	2.510	5.959	9.600	10.286	9.424	4.458	0.389	-12.021	-5.523	-4.383	-4.586	-2.299	-5.150	-3.213	-3.432	-3.449	3.571	5.447	6.323	8.255	8.116	132.812
-6.812	-6.088	-6.623	-3.505	-1.791	-3.686	4.917	2.706	6.291	9.473	10.425	9.631	4.144	0.210	-11.819	-5.314	-3.904	-4.602	-1.960	-5.004	-3.262	-3.476	-3.597	3.039	5.429	6.541	7.968	8.290	136.719
-7.081	-6.201	-6.933	-3.786	-2.264	-4.087	4.529	3.134	6.962	9.456	10.802	9.983	3.627	-0.181	-12.039	-5.281	-3.685	-4.780	-1.822	-5.028	-3.485	-3.639	-3.820	2.542	5.754	7.318	7.976	8.814	140.625
-7.589	-6.432	-7.319	-4.187	-2.854	-4.472	4.135	3.768	7.930	9.548	11.413	10.474	2.914	-0.781	-12.619	-5.440	-3.754	-5.088	-1.912	-5.236	-3.878	-3.933	-4.114	2.075	6.363	8.573	8.233	9.626	144.531
-8.274	-6.755	-7.717	-4.662	-3.501	-4.790	3.751	4.550	9.111	9.724	12.208	11.072	2.029	-1.559	-13.461	-5.777	-4.089	-5.476	-2.213	-5.609	-4.414	-4.347	-4.463	1.629	7.169	10.169	8.667	10.635	148.438
-9.066	-7.147	-8.074	-5.165	-4.143	-5.009	3.388	5.408	10.405	9.949	13.114	11.735	1.015	-2.465	-14.458	-6.260	-4.622	-5.893	-2.674	-6.111	-5.048	-4.856	-4.847	1.198	8.071	11.948	9.198	11.743	152.344
-9.899	-7.592	-8.361	-5.655	-4.729	-5.116	3.053	6.265	11.710	10.187	14.054	12.428	-0.067	-3.435	-15.517	-6.839	-5.258	-6.303	-3.225	-6.689	-5.727	-5.424	-5.245	0.784	8.981	13.752	9.757	12.863	156.250
-10.724	-8.074	-8.576	-6.104	-5.222	-5.124	2.755	7.059	12.942	10.414	14.963	13.125	-1.144	-4.396	-16.574	-7.463	-5.903	-6.688	-3.789	-7.293	-6.397	-6.009	-5.639	0.398	9.830	15.450	10.297	13.935	160.156
-11.506	-8.583	-8.744	-6.495	-5.601	-5.065	2.505	7.746	14.042	10.622	15.801	13.817	-2.136	-5.283	-17.595	-8.086	-6.476	-7.053	-4.304	-7.877	-7.017	-6.574	-6.012	0.061	10.577	16.948	10.798	14.926	164.062
-12.228	-9.105	-8.904	-6.824	-5.863	-4.980	2.314	8.309	14.981	10.820	16.551	14.510	-2.972	-6.037	-18.570	-8.675	-6.926	-7.414	-4.727	-8.411	-7.556	-7.088	-6.354	-0.199	11.207	18.192	11.261	15.827	167.969
-12.882	-9.624	-9.096	-7.096	-6.016	-4.911	2.198	8.752	15.755	11.026	17.217	15.212	-3.590	-6.621	-19.497	-9.213	-7.239	-7.792	-5.043	-8.885	-7.999	-7.526	-6.656	-0.360	11.722	19.165	11.700	16.643	171.875
-13.463	-10.123	-9.347	-7.321	-6.077	-4.887	2.168	9.099	16.380	11.262	17.813	15.928	-3.954	-7.014	-20.370	-9.695	-7.429	-8.195	-5.258	-9.302	-8.344	-7.872	-6.911	-0.404	12.134	19.872	12.130	17.381	175.781
-13.968	-10.586	-9.669	-7.512	-6.065	-4.924	2.235	9.380	16.882	11.547	18.351	16.651	-4.051	-7.212	-21.172	-10.128	-7.534	-8.620	-5.394	-9.674	-8.599	-8.117	-7.115	-0.327	12.453	20.332	12.556	18.041	179.688
-14.390	-10.998	-10.049	-7.681	-5.997	-5.014	2.407	9.628	17.287	11.891	18.835	17.355	-3.890	-7.229	-21.871	-10.523	-7.596	-9.042	-5.480	-10.015	-8.775	-8.255	-7.265	-0.140	12.682	20.564	12.973	18.612	183.594
-14.720	-11.348	-10.462	-7.835	-5.885	-5.134	2.686	9.871	17.617	12.292	19.258	17.999	-3.505	-7.086	-22.429	-10.890	-7.656	-9.429	-5.546	-10.337	-8.882	-8.289	-7.363	0.138	12.814	20.582	13.359	19.069	187.500
-14.949	-11.631	-10.871	-7.974	-5.736	-5.246	3.070	10.125	17.882	12.736	19.599	18.530	-2.939	-6.809	-22.807	-11.230	-7.742	-9.740	-5.613	-10.643	-8.928	-8.226	-7.413	0.475	12.840	20.397	13.684	19.380	191.406
-15.069	-11.843	-11.239	-8.095	-5.548	-5.308	3.550	10.396	18.087	13.200	19.830	18.894	-2.247	-6.422	-22.976	-11.540	-7.863	-9.943	-5.692	-10.927	-8.915	-8.075	-7.423	0.842	12.746	20.015	13.913	19.512	195.312
-15.078	-11.982	-11.534	-8.192	-5.317	-5.282	4.115	10.677	18.223	13.652	19.922	19.046	-1.483	-5.947	-22.928	-11.810	-8.012	-10.016	-5.782	-11.178	-8.841	-7.851	-7.399	1.210	12.527	19.445	14.015	19.440	199.219
-14.976	-12.048	-11.735	-8.255	-5.039	-5.144	4.745	10.947	18.279	14.059	19.850	18.955	-0.696	-5.403	-22.670	-12.025	-8.169	-9.958	-5.866	-11.378	-8.704	-7.566	-7.343	1.554	12.184	18.704	13.971	19.151	203.125
-14.770	-12.039	-11.831	-8.272	-4.709	-4.887	5.415	11.178	18.237	14.385	19.595	18.606	0.068	-4.806	-22.226	-12.169	-8.302	-9.781	-5.918	-11.512	-8.500	-7.232	-7.251	1.860	11.732	17.816	13.771	18.645	207.031
-14.466	-11.952	-11.816	-8.233	-4.331	-4.523	6.091	11.338	18.078	14.597	19.153	18.007	0.771	-4.171	-21.631	-12.225	-8.378	-9.513	-5.902	-11.567	-8.228	-6.853	-7.109	2.119	11.196	16.816	13.422	17.939	210.938
-14.076	-11.787	-11.694	-8.132	-3.910	-4.081	6.736	11.394	17.787	14.666	18.528	17.177	1.381	-3.516	-20.920	-12.183	-8.367	-9.181	-5.782	-11.532	-7.890	-6.428	-6.898	2.329	10.610	15.745	12.942	17.062	214.844
-13.614	-11.546	-11.473	-7.966	-3.462	-3.600	7.308	11.320	17.354	14.572	17.738	16.155	1.874	-2.858	-20.129	-12.039	-8.251	-8.815	-5.530	-11.404	-7.491	-5.951	-6.596	2.493	10.013	14.653	12.362	16.053	218.750
-13.097	-11.243	-11.167	-7.741	-3.003	-3.127	7.771	11.099	16.780	14.306	16.815	14.988	2.232	-2.218	-19.293	-11.800	-8.022	-8.434	-5.130	-11.182	-7.037	-5.412	-6.186	2.617	9.443	13.591	11.720	14.964	222.656
-12.551	-10.898	-10.800	-7.473	-2.556	-2.704	8.095	10.733	16.083	13.877	15.805	13.738	2.451	-1.613	-18.444	-11.480	-7.691	-8.049	-4.590	-10.875	-6.536	-4.805	-5.662	2.711	8.936	12.607	11.055	13.850	226.562
-12.007	-10.544	-10.403	-7.183	-2.142	-2.368	8.270	10.241	15.296	13.314	14.763	12.471	2.536	-1.058	-17.616	-11.107	-7.282	-7.663	-3.938	-10.496	-6.000	-4.129	-5.035	2.787	8.520	11.740	10.407	12.768	230.469
-11.501	-10.218	-10.013	-6.899	-1.778	-2.142	8.301	9.659	14.469	12.664	13.754	11.259	2.507	-0.560	-16.841	-10.712	-6.828	-7.274	-3.221	-10.066	-5.443	-3.396	-4.330	2.858	8.211	11.018	9.812	11.772	234.375
-11.066	-9.955	-9.672	-6.648	-1.477	-2.033	8.215	9.036	13.663	11.988	12.841	10.168	2.395	-0.122	-16.152	-10.333	-6.372	-6.884	-2.501	-9.614	-4.883	-2.632	-3.590	2.932	8.012	10.453	9.297	10.903	238.281
-10.727	-9.779	-9.413	-6.453	-1.244	-2.036	8.055	8.430	12.941	11.354	12.079	9.254	2.238	0.260	-15.574	-10.002	-5.951	-6.498	-1.844	-9.171	-4.341	-1.873	-2.864	3.018	7.914	10.039	8.878	10.192	242.188
-10.497	-9.702	-9.263	-6.331	-1.079	-2.133	7.870	7.897	12.360	10.828	11.511	8.556	2.083	0.595	-15.125	-9.747	-5.594	-6.134	-1.306	-8.773	-3.841	-1.162	-2.204	3.120	7.899	9.758	8.562	9.652	246.094
-10.375	-9.715	-9.229	-6.290	-0.976	-2.298	7.712	7.484	11.958	10.463	11.159	8.089	1.974	0.894	-14.813	-9.583	-5.318	-5.816	-0.930	-8.448	-3.404	-0.539	-1.654	3.240	7.941	9.582	8.348	9.279	250.000
-10.345	-9.799	-9.303	-6.325	-0.922	-2.502	7.624	7.217	11.751	10.288	11.019	7.846	1.953	1.173	-14.633	-9.510	-5.129	-5.576	-0.731	-8.215	-3.043	-0.038	-1.245	3.382	8.013	9.479	8.230	9.055	253.906
-10.380	-9.926	-9.464	-6.425	-0.902	-2.716	7.633	7.101	11.726	10.310	11.068	7.797	2.054	1.448	-14.572	-9.518	-5.021	-5.442	-0.700	-8.077	-2.761	0.324	-0.991	3.547	8.094	9.418	8.199	8.952	257.812
-10.450	-10.067	-9.678	-6.565	-0.898	-2.918	7.749	7.116	11.842	10.508	11.258	7.895	2.297	1.735	-14.610	-9.583	-4.984	-5.435	-0.805	-8.021	-2.545	0.546	-0.888	3.740	8.166	9.372	8.242	8.937	261.719
-10.523	-10.194	-9.912	-6.715	-0.888	-3.088	7.962	7.221	12.040	10.836	11.531	8.081	2.687	2.051	-14.720	-9.676	-5.004	-5.559	-0.999	-8.017	-2.372	0.643	-0.917	3.962	8.221	9.322	8.347	8.974	265.625
-10.572	-10.287	-10.132	-6.841	-0.854	-3.217	8.246	7.362	12.250	11.235	11.819	8.292	3.213	2.407	-14.872	-9.765	-5.065	-5.801	-1.224	-8.025	-2.209	0.645	-1.048	4.216	8.254	9.253	8.499	9.029	269.531
-10.577	-10.331	-10.312	-6.907	-0.780	-3.301	8.563	7.478	12.401	11.636	12.056	8.471	3.846	2.807	-15.031	-9.819	-5.149	-6.126	-1.426	-8.001	-2.022	0.589	-1.239	4.499	8.266	9.156	8.678	9.072	273.438
-10.523	-10.316	-10.434	-6.887	-0.654	-3.338	8.870	7.516	12.433	11.974	12.185	8.571	4.541	3.247	-15.162	-9.817	-5.235	-6.483	-1.556	-7.912	-1.787	0.517	-1.450	4.801	8.258	9.026	8.861	9.075	277.344
-10.405	-10.239	-10.487	-6.764	-0.474	-3.332	9.127	7.438	12.306	12.191	12.163	8.558	5.243	3.710	-15.228	-9.747	-5.303	-6.813	-1.584	-7.738	-1.492	0.464	-1.639	5.106	8.231	8.861	9.022	9.018	281.250
-10.222	-10.097	-10.469	-6.533	-0.243	-3.284	9.300	7.224	12.001	12.249	11.971	8.419	5.894	4.172	-15.193	-9.607	-5.337	-7.055	-1.495	-7.478	-1.139	0.459	-1.775	5.391	8.181	8.661	9.130	8.889	285.156
-9.976	-9.890	-10.380	-6.203	0.029	-3.196	9.367	6.875	11.526	12.130	11.610	8.156	6.439	4.602	-15.028	-9.403	-5.325	-7.160	-1.300	-7.147	-0.750	0.516	-1.837	5.628	8.103	8.426	9.156	8.683	289.062
-9.671	-9.616	-10.224	-5.793	0.330	-3.068	9.322	6.413	10.911	11.834	11.102	7.786	6.836	4.973	-14.710	-9.147	-5.260	-7.097	-1.022	-6.772	-0.352	0.636	-1.818	5.789	7.988	8.157	9.075	8.401	292.969
-9.310	-9.271	-10.006	-5.327	0.647	-2.904	9.169	5.873	10.203	11.382	10.483	7.336	7.060	5.260	-14.228	-8.852	-5.142	-6.864	-0.697	-6.380	0.023	0.809	-1.725	5.848	7.824	7.852	8.868	8.050	296.875
-8.894	-8.853	-9.732	-4.832	0.968	-2.709	8.928	5.299	9.455	10.810	9.800	6.836	7.107	5.452	-13.590	-8.526	-4.967	-6.489	-0.361	-5.993	0.353	1.014	-1.575	5.792	7.602	7.507	8.527	7.640	300.781
-8.430	-8.361	-9.410	-4.333	1.281	-2.497	8.625	4.740	8.726	10.164	9.102	6.316	6.996	5.554	-12.823	-8.175	-4.730	-6.024	-0.043	-5.622	0.623	1.230	-1.396	5.619	7.316	7.122	8.061	7.187	304.688
-7.927	-7.803	-9.057	-3.852	1.578	-2.282	8.297	4.240	8.069	9.497	8.436	5.806	6.766	5.581	-11.977	-7.800	-4.427	-5.542	0.239	-5.265	0.838	1.437	-1.212	5.346	6.973	6.699	7.494	6.710	308.594
-7.408	-7.200	-8.702	-3.410	1.850	-2.085	7.982	3.839	7.530	8.866	7.847	5.331	6.470	5.563	-11.124	-7.410	-4.058	-5.118	0.478	-4.918	1.009	1.620	-1.049	5.008	6.591	6.250	6.866	6.232	312.500
-6.908	-6.589	-8.382	-3.025	2.091	-1.926	7.721	3.570	7.144	8.326	7.372	4.919	6.168	5.534	-10.347	-7.018	-3.636	-4.818	0.673	-4.574	1.157	1.771	-0.922	4.651	6.203	5.797	6.234	5.784	316.406
-6.475	-6.025	-8.146	-2.718	2.296	-1.820	7.553	3.456	6.935	7.930	7.046	4.596	5.915	5.527	-9.737	-6.648	-3.193	-4.688	0.827	-4.239	1.301	1.890	-0.837	4.331	5.854	5.375	5.661	5.404	320.312
-6.164	-5.572	-8.041	-2.507	2.462	-1.777	7.512	3.510	6.918	7.720	6.894	4.387	5.761	5.567	-9.376	-6.337	-2.776	-4.747	0.944	-3.928	1.452	1.976	-0.791	4.102	5.590	5.027	5.211	5.129	324.219
-6.028	-5.295	-8.108	-2.409	2.591	-1.799	7.626	3.733	7.096	7.728	6.932	4.316	5.738	5.669	-9.326	-6.126	-2.446	-4.984	1.023	-3.669	1.609	2.034	-0.781	4.003	5.456	4.795	4.939	4.994	328.125
-6.106	-5.250	-8.367	-2.434	2.686	-1.878	7.912	4.118	7.462	7.968	7.167	4.399	5.859	5.838	-9.620	-6.052	-2.262	-5.364	1.058	-3.491	1.765	2.063	-0.798	4.058	5.479	4.712	4.880	5.024	332.031
-6.413	-5.462	-8.812	-2.579	2.757	-1.995	8.374	4.645	7.999	8.436	7.589	4.641	6.121	6.065	-10.251	-6.138	-2.275	-5.839	1.043	-3.421	1.902	2.060	-0.843	4.267	5.666	4.791	5.042	5.223	335.938
-6.931	-5.918	-9.410	-2.829	2.820	-2.123	9.003	5.287	8.679	9.107	8.172	5.023	6.504	6.339	-11.176	-6.386	-2.506	-6.361	0.972	-3.470	2.008	2.018	-0.919	4.606	5.997	5.022	5.404	5.570	339.844
-7.604	-6.560	-10.098	-3.148	2.895	-2.230	9.776	6.006	9.460	9.934	8.867	5.509	6.978	6.643	-12.311	-6.766	-2.946	-6.888	0.841	-3.627	2.076	1.932	-1.039	5.030	6.425	5.364	5.913	6.018	343.750
-8.350	-7.295	-10.796	-3.488	3.001	-2.282	10.655	6.762	10.294	10.853	9.609	6.038	7.506	6.963	-13.547	-7.228	-3.546	-7.392	0.655	-3.860	2.106	1.793	-1.215	5.485	6.882	5.754	6.491	6.497	347.656
-9.067	-8.005	-11.418	-3.794	3.158	-2.252	11.590	7.505	11.121	11.787	10.319	6.536	8.050	7.289	-14.758	-7.703	-4.230	-7.859	0.419	-4.125	2.115	1.601	-1.458	5.913	7.295	6.116	7.052	6.924	351.562
-9.654	-8.574	-11.884	-4.010	3.379	-2.120	12.524	8.188	11.876	12.657	10.913	6.925	8.578	7.611	-15.816	-8.119	-4.908	-8.284	0.148	-4.367	2.121	1.361	-1.767	6.264	7.594	6.378	7.507	7.219	355.469
-10.032	-8.912	-12.138	-4.101	3.661	-1.886	13.394	8.766	12.500	13.388	11.316	7.135	9.064	7.925	-16.613	-8.417	-5.497	-8.663	-0.146	-4.543	2.147	1.086	-2.130	6.505	7.729	6.482	7.790	7.318	359.375
-10.152	-8.971	-12.153	-4.050	3.989	-1.566	14.141	9.205	12.945	13.923	11.472	7.116	9.493	8.225	-17.076	-8.562	-5.937	-8.993	-0.451	-4.625	2.209	0.798	-2.518	6.624	7.682	6.405	7.867	7.189	363.281
-10.017	-8.761	-11.941	-3.876	4.334	-1.196	14.717	9.485	13.181	14.230	11.358	6.852	9.857	8.504	-17.182	-8.554	-6.205	-9.267	-0.758	-4.608	2.311	0.523	-2.892	6.636	7.469	6.162	7.744	6.841	367.188
-9.674	-8.344	-11.553	-3.622	4.654	-0.823	15.089	9.604	13.206	14.308	10.989	6.367	10.156	8.752	-16.964	-8.423	-6.313	-9.475	-1.061	-4.514	2.448	0.288	-3.210	6.575	7.141	5.804	7.468	6.326	371.094
-9.208	-7.825	-11.064	-3.351	4.905	-0.502	15.247	9.577	13.046	14.186	10.422	5.724	10.395	8.954	-16.508	-8.226	-6.300	-9.608	-1.352	-4.381	2.600	0.115	-3.430	6.488	6.771	5.409	7.119	5.730	375.000
-8.723	-7.325	-10.562	-3.132	5.049	-0.282	15.203	9.434	12.745	13.918	9.743	5.022	10.576	9.098	-15.930	-8.028	-6.223	-9.662	-1.624	-4.257	2.741	0.024	-3.524	6.421	6.438	5.062	6.784	5.156	378.906
-8.319	-6.954	-10.133	-3.023	5.063	-0.197	14.994	9.213	12.363	13.573	9.063	4.378	10.703	9.170	-15.357	-7.889	-6.135	-9.637	-1.862	-4.184	2.844	0.021	-3.477	6.411	6.211	4.829	6.543	4.705	382.812
-8.067	-6.790	-9.838	-3.058	4.945	-0.258	14.668	8.951	11.958	13.222	8.493	3.912	10.774	9.161	-14.890	-7.847	-6.074	-9.540	-2.050	-4.190	2.887	0.109	-3.292	6.474	6.124	4.745	6.441	4.454	386.719
-8.000	-6.864	-9.708	-3.242	4.714	-0.454	14.281	8.680	11.582	12.924	8.131	3.723	10.782	9.069	-14.591	-7.914	-6.054	-9.385	-2.166	-4.281	2.860	0.280	-2.990	6.600	6.177	4.798	6.481	4.443	390.625
-8.103	-7.153	-9.740	-3.548	4.408	-0.751	13.879	8.423	11.268	12.714	8.045	3.872	10.719	8.898	-14.463	-8.070	-6.066	-9.185	-2.192	-4.440	2.765	0.523	-2.601	6.757	6.326	4.933	6.620	4.662	394.531
-8.324	-7.590	-9.897	-3.924	4.075	-1.097	13.500	8.195	11.030	12.599	8.254	4.367	10.573	8.658	-14.457	-8.273	-6.087	-8.949	-2.116	-4.633	2.617	0.824	-2.162	6.897	6.501	5.062	6.779	5.056	398.438
-8.583	-8.078	-10.125	-4.299	3.770	-1.429	13.158	8.000	10.861	12.555	8.727	5.152	10.338	8.366	-14.480	-8.468	-6.085	-8.685	-1.934	-4.813	2.441	1.168	-1.707	6.968	6.615	5.085	6.862	5.531	402.344
-8.789	-8.512	-10.354	-4.601	3.544	-1.688	12.851	7.837	10.739	12.534	9.382	6.115	10.008	8.044	-14.416	-8.596	-6.030	-8.390	-1.654	-4.932	2.272	1.543	-1.266	6.921	6.584	4.905	6.772	5.970	406.250
-8.857	-8.794	-10.515	-4.765	3.436	-1.819	12.563	7.699	10.627	12.472	10.097	7.100	9.584	7.715	-14.150	-8.608	-5.900	-8.061	-1.290	-4.948	2.145	1.936	-0.859	6.723	6.337	4.451	6.432	6.251	410.156
-8.722	-8.853	-10.547	-4.740	3.474	-1.785	12.264	7.573	10.484	12.299	10.727	7.932	9.072	7.404	-13.589	-8.471	-5.679	-7.688	-0.860	-4.831	2.093	2.341	-0.496	6.356	5.838	3.688	5.798	6.268	414.062
-8.351	-8.653	-10.404	-4.504	3.664	-1.567	11.923	7.443	10.264	11.950	11.125	8.448	8.484	7.132	-12.679	-8.175	-5.364	-7.268	-0.385	-4.567	2.142	2.748	-0.178	5.825	5.083	2.631	4.865	5.950	417.969
-7.744	-8.199	-10.059	-4.058	3.998	-1.174	11.513	7.292	9.934	11.379	11.172	8.527	7.837	6.915	-11.423	-7.731	-4.962	-6.799	0.114	-4.163	2.307	3.148	0.097	5.154	4.113	1.341	3.677	5.275	421.875
-6.940	-7.537	-9.510	-3.436	4.448	-0.635	11.020	7.102	9.472	10.573	10.794	8.112	7.155	6.763	-9.881	-7.176	-4.495	-6.289	0.610	-3.642	2.585	3.530	0.336	4.386	3.001	-0.075	2.318	4.277	425.781
-6.007	-6.741	-8.781	-2.693	4.971	-0.004	10.444	6.862	8.879	9.552	9.983	7.221	6.470	6.676	-8.164	-6.560	-3.999	-5.758	1.080	-3.046	2.960	3.882	0.545	3.582	1.849	-1.483	0.907	3.045	429.688
-5.033	-5.902	-7.920	-1.905	5.515	0.655	9.802	6.565	8.179	8.377	8.795	5.949	5.816	6.647	-6.420	-5.944	-3.519	-5.236	1.495	-2.426	3.398	4.188	0.730	2.807	0.770	-2.742	-0.420	1.704	433.594
-4.112	-5.112	-6.993	-1.149	6.021	1.270	9.129	6.212	7.414	7.140	7.348	4.446	5.231	6.667	-4.811	-5.388	-3.105	-4.759	1.835	-1.837	3.858	4.437	0.891	2.130	-0.129	-3.725	-1.531	0.402	437.500
-3.326	-4.445	-6.074	-0.498	6.437	1.775	8.466	5.813	6.641	5.948	5.802	2.890	4.747	6.717	-3.484	-4.939	-2.800	-4.363	2.085	-1.325	4.293	4.622	1.028	1.610	-0.766	-4.345	-2.317	-0.724	441.406
-2.731	-3.947	-5.234	-0.004	6.721	2.121	7.859	5.382	5.917	4.909	4.329	1.459	4.391	6.782	-2.545	-4.627	-2.631	-4.077	2.240	-0.925	4.666	4.741	1.135	1.286	-1.096	-4.567	-2.715	-1.566	445.312
-2.352	-3.632	-4.529	0.308	6.849	2.281	7.345	4.938	5.293	4.112	3.088	0.299	4.177	6.844	-2.043	-4.461	-2.599	-3.917	2.310	-0.650	4.946	4.804	1.206	1.171	-1.124	-4.420	-2.716	-2.068	449.219
-2.177	-3.483	-3.992	0.442	6.821	2.254	6.946	4.500	4.802	3.610	2.197	-0.494	4.102	6.888	-1.961	-4.427	-2.680	-3.883	2.321	-0.494	5.120	4.822	1.233	1.248	-0.901	-3.987	-2.373	-2.230	453.125
-2.165	-3.459	-3.626	0.432	6.654	2.061	6.666	4.086	4.456	3.412	1.721	-0.883	4.151	6.903	-2.221	-4.493	-2.828	-3.958	2.305	-0.432	5.192	4.813	1.207	1.471	-0.516	-3.395	-1.789	-2.106	457.031
-2.246	-3.501	-3.405	0.326	6.384	1.744	6.489	3.708	4.241	3.482	1.660	-0.889	4.293	6.879	-2.695	-4.616	-2.983	-4.111	2.303	-0.427	5.177	4.795	1.125	1.773	-0.082	-2.789	-1.098	-1.792	460.938
-2.344	-3.548	-3.281	0.184	6.053	1.353	6.379	3.369	4.124	3.745	1.954	-0.579	4.487	6.808	-3.225	-4.745	-3.084	-4.304	2.353	-0.440	5.100	4.780	0.988	2.074	0.285	-2.309	-0.447	-1.402	464.844
-2.377	-3.542	-3.187	0.061	5.704	0.943	6.290	3.068	4.058	4.102	2.498	-0.054	4.689	6.687	-3.651	-4.833	-3.081	-4.493	2.479	-0.435	4.986	4.772	0.803	2.299	0.486	-2.061	0.035	-1.047	468.750
-2.283	-3.437	-3.056	-0.001	5.372	0.561	6.174	2.796	3.993	4.447	3.158	0.575	4.854	6.511	-3.833	-4.839	-2.951	-4.635	2.686	-0.390	4.855	4.767	0.580	2.383	0.456	-2.102	0.254	-0.816	472.656
-2.020	-3.209	-2.833	0.020	5.081	0.245	5.987	2.541	3.884	4.685	3.796	1.196	4.942	6.283	-3.670	-4.740	-2.698	-4.690	2.957	-0.300	4.721	4.753	0.335	2.288	0.173	-2.431	0.171	-0.758	476.562
-1.581	-2.852	-2.483	0.127	4.841	0.016	5.696	2.289	3.701	4.738	4.288	1.713	4.921	6.004	-3.121	-4.530	-2.355	-4.628	3.253	-0.175	4.585	4.709	0.085	2.005	-0.335	-2.985	-0.200	-0.879	480.469
-0.988	-2.378	-2.000	0.303	4.648	-0.117	5.283	2.032	3.432	4.563	4.540	2.050	4.767	5.677	-2.203	-4.218	-1.968	-4.427	3.522	-0.035	4.441	4.618	-0.154	1.554	-1.003	-3.662	-0.797	-1.144	484.375
-0.290	-1.815	-1.406	0.523	4.492	-0.160	4.748	1.763	3.078	4.143	4.492	2.155	4.462	5.307	-0.992	-3.826	-1.580	-4.080	3.719	0.093	4.277	4.465	-0.367	0.977	-1.738	-4.333	-1.523	-1.494	488.281
0.450	-1.193	-0.743	0.759	4.357	-0.127	4.100	1.480	2.658	3.493	4.129	2.002	3.999	4.897	0.392	-3.382	-1.219	-3.599	3.815	0.190	4.082	4.248	-0.541	0.329	-2.440	-4.877	-2.269	-1.856	492.188
1.165	-0.545	-0.065	0.986	4.230	-0.041	3.366	1.187	2.196	2.649	3.474	1.591	3.378	4.448	1.807	-2.913	-0.888	-3.012	3.811	0.245	3.849	3.976	-0.667	-0.331	-3.018	-5.197	-2.933	-2.165	496.094
1.794	0.100	0.572	1.188	4.100	0.077	2.578	0.891	1.723	1.669	2.585	0.951	2.610	3.963	3.112	-2.440	-0.569	-2.365	3.733	0.262	3.580	3.674	-0.739	-0.953	-3.407	-5.240	-3.434	-2.372	500.000
2.296	0.716	1.117	1.360	3.967	0.207	1.778	0.605	1.268	0.623	1.552	0.134	1.719	3.447	4.184	-1.982	-0.231	-1.714	3.629	0.254	3.285	3.371	-0.753	-1.496	-3.577	-5.005	-3.726	-2.455	503.906
2.645	1.281	1.536	1.501	3.836	0.337	1.014	0.344	0.860	-0.409	0.483	-0.780	0.745	2.913	4.940	-1.555	0.149	-1.120	3.548	0.236	2.979	3.098	-0.711	-1.934	-3.530	-4.535	-3.798	-2.413	507.812
2.834	1.772	1.808	1.618	3.720	0.462	0.339	0.125	0.527	-1.344	-0.502	-1.694	-0.255	2.377	5.338	-1.174	0.573	-0.641	3.524	0.223	2.683	2.882	-0.618	-2.256	-3.302	-3.911	-3.670	-2.266	511.719
2.873	2.169	1.931	1.716	3.634	0.587	-0.198	-0.031	0.293	-2.105	-1.290	-2.503	-1.213	1.867	5.379	-0.859	1.022	-0.320	3.569	0.218	2.412	2.735	-0.484	-2.461	-2.950	-3.230	-3.388	-2.047	515.625
2.779	2.448	1.916	1.796	3.592	0.724	-0.551	-0.103	0.177	-2.623	-1.788	-3.109	-2.057	1.413	5.107	-0.629	1.451	-0.178	3.666	0.212	2.180	2.657	-0.322	-2.561	-2.543	-2.594	-3.013	-1.794	519.531
2.579	2.587	1.788	1.856	3.603	0.884	-0.689	-0.071	0.197	-2.852	-1.942	-3.442	-2.719	1.043	4.597	-0.507	1.806	-0.209	3.777	0.187	1.991	2.635	-0.148	-2.573	-2.149	-2.088	-2.616	-1.548	523.438
2.301	2.574	1.575	1.887	3.663	1.078	-0.597	0.081	0.359	-2.775	-1.741	-3.468	-3.148	0.784	3.943	-0.508	2.037	-0.380	3.855	0.117	1.846	2.649	0.025	-2.520	-1.828	-1.776	-2.265	-1.343	527.344
1.975	2.404	1.308	1.879	3.763	1.310	-0.286	0.358	0.657	-2.406	-1.224	-3.200	-3.316	0.649	3.248	-0.640	2.110	-0.636	3.858	-0.020	1.739	2.676	0.189	-2.430	-1.621	-1.686	-2.015	-1.206	531.250
1.627	2.091	1.013	1.823	3.885	1.574	0.210	0.753	1.071	-1.794	-0.475	-2.691	-3.223	0.641	2.607	-0.897	2.020	-0.912	3.762	-0.235	1.660	2.695	0.339	-2.326	-1.546	-1.811	-1.903	-1.152	535.156
1.283	1.662	0.707	1.712	4.007	1.852	0.836	1.244	1.565	-1.015	0.395	-2.028	-2.897	0.753	2.093	-1.260	1.787	-1.147	3.566	-0.524	1.604	2.693	0.476	-2.227	-1.596	-2.112	-1.938	-1.183	539.062
0.962	1.161	0.403	1.550	4.109	2.118	1.520	1.791	2.085	-0.164	1.261	-1.315	-2.389	0.962	1.755	-1.699	1.452	-1.291	3.290	-0.868	1.567	2.666	0.604	-2.146	-1.744	-2.528	-2.107	-1.288	542.969
0.682	0.639	0.110	1.349	4.177	2.343	2.185	2.340	2.569	0.655	2.003	-0.655	-1.765	1.241	1.608	-2.173	1.067	-1.313	2.966	-1.235	1.545	2.620	0.731	-2.082	-1.947	-2.986	-2.369	-1.448	546.875
0.452	0.144	-0.165	1.128	4.203	2.498	2.757	2.831	2.950	1.347	2.523	-0.128	-1.096	1.556	1.640	-2.638	0.680	-1.207	2.632	-1.586	1.539	2.565	0.867	-2.026	-2.155	-3.412	-2.670	-1.634	550.781
0.277	-0.283	-0.410	0.908	4.185	2.563	3.175	3.202	3.170	1.836	2.763	0.213	-0.448	1.874	1.812	-3.055	0.326	-0.983	2.321	-1.887	1.548	2.514	1.019	-1.960	-2.320	-3.739	-2.947	-1.813	554.688
0.151	-0.623	-0.614	0.705	4.126	2.526	3.402	3.407	3.191	2.078	2.708	0.360	0.125	2.164	2.066	-3.397	0.023	-0.668	2.052	-2.117	1.566	2.479	1.193	-1.864	-2.403	-3.922	-3.142	-1.952	558.594
0.059	-0.875	-0.767	0.527	4.027	2.390	3.424	3.418	3.006	2.066	2.395	0.339	0.587	2.398	2.337	-3.654	-0.232	-0.298	1.831	-2.273	1.583	2.467	1.392	-1.719	-2.375	-3.930	-3.206	-2.014	562.500
-0.018	-1.059	-0.863	0.368	3.889	2.168	3.259	3.238	2.637	1.831	1.902	0.209	0.918	2.557	2.559	-3.829	-0.447	0.096	1.649	-2.370	1.584	2.481	1.611	-1.519	-2.228	-3.760	-3.112	-1.972	566.406
-0.102	-1.205	-0.901	0.213	3.710	1.880	2.944	2.894	2.136	1.434	1.331	0.042	1.117	2.627	2.682	-3.940	-0.634	0.485	1.493	-2.436	1.555	2.514	1.843	-1.268	-1.971	-3.429	-2.860	-1.809	570.312
-0.208	-1.339	-0.882	0.047	3.489	1.555	2.534	2.437	1.571	0.952	0.791	-0.095	1.193	2.603	2.678	-4.009	-0.795	0.852	1.347	-2.501	1.481	2.558	2.074	-0.986	-1.631	-2.978	-2.475	-1.527	574.219
-0.336	-1.478	-0.810	-0.143	3.232	1.226	2.087	1.931	1.017	0.462	0.374	-0.153	1.158	2.487	2.556	-4.051	-0.921	1.192	1.201	-2.590	1.358	2.600	2.289	-0.710	-1.255	-2.464	-2.009	-1.152	578.125
-0.472	-1.615	-0.685	-0.351	2.950	0.925	1.653	1.441	0.537	0.021	0.136	-0.119	1.027	2.288	2.354	-4.073	-0.988	1.502	1.054	-2.709	1.189	2.629	2.468	-0.482	-0.898	-1.959	-1.533	-0.728	582.031
-0.580	-1.718	-0.506	-0.553	2.667	0.685	1.270	1.022	0.172	-0.338	0.088	-0.010	0.812	2.021	2.140	-4.066	-0.967	1.784	0.913	-2.846	0.987	2.633	2.593	-0.350	-0.622	-1.534	-1.127	-0.320	585.938
-0.615	-1.736	-0.262	-0.708	2.412	0.535	0.955	0.713	-0.062	-0.620	0.196	0.122	0.515	1.705	2.000	-4.007	-0.831	2.036	0.794	-2.971	0.774	2.604	2.649	-0.352	-0.480	-1.255	-0.865	0.000	589.844
-0.526	-1.607	0.057	-0.764	2.223	0.498	0.705	0.532	-0.178	-0.855	0.391	0.211	0.137	1.360	2.016	-3.867	-0.562	2.254	0.715	-3.044	0.575	2.537	2.629	-0.514	-0.512	-1.166	-0.810	0.168	593.750
-0.273	-1.274	0.464	-0.669	2.130	0.587	0.502	0.475	-0.205	-1.095	0.582	0.185	-0.326	1.005	2.255	-3.616	-0.164	2.431	0.694	-3.027	0.415	2.430	2.535	-0.844	-0.736	-1.285	-0.995	0.133	597.656
0.165	-0.707	0.966	-0.386	2.154	0.803	0.315	0.523	-0.186	-1.395	0.680	-0.014	-0.878	0.655	2.753	-3.238	0.337	2.563	0.742	-2.891	0.313	2.287	2.379	-1.327	-1.143	-1.600	-1.424	-0.130	601.562
0.782	0.094	1.561	0.097	2.299	1.132	0.114	0.642	-0.163	-1.802	0.614	-0.422	-1.519	0.322	3.509	-2.734	0.902	2.649	0.862	-2.629	0.278	2.114	2.184	-1.933	-1.696	-2.069	-2.067	-0.614	605.469
1.543	1.086	2.235	0.759	2.545	1.543	-0.130	0.795	-0.169	-2.339	0.339	-1.041	-2.244	0.010	4.481	-2.124	1.485	2.700	1.047	-2.255	0.308	1.923	1.978	-2.613	-2.341	-2.628	-2.866	-1.282	609.375
2.393	2.198	2.960	1.547	2.856	1.997	-0.433	0.941	-0.226	-3.007	-0.153	-1.844	-3.036	-0.280	5.600	-1.447	2.045	2.735	1.282	-1.802	0.391	1.730	1.790	-3.316	-3.012	-3.205	-3.745	-2.078	613.281
3.265	3.338	3.701	2.387	3.183	2.444	-0.794	1.044	-0.342	-3.772	-0.837	-2.776	-3.869	-0.551	6.777	-0.750	2.556	2.779	1.549	-1.316	0.507	1.551	1.646	-3.986	-3.646	-3.732	-4.620	-2.929	617.188
4.092	4.414	4.418	3.191	3.475	2.837	-1.197	1.078	-0.510	-4.579	-1.659	-3.767	-4.703	-0.805	7.921	-0.087	3.010	2.856	1.829	-0.850	0.632	1.402	1.564	-4.575	-4.186	-4.155	-5.413	-3.763	621.094
4.820	5.349	5.072	3.878	3.688	3.136	-1.609	1.027	-0.718	-5.358	-2.552	-4.739	-5.489	-1.038	8.953	0.496	3.408	2.986	2.105	-0.447	0.742	1.296	1.553	-5.044	-4.599	-4.449	-6.060	-4.515	625.000
5.413	6.093	5.630	4.385	3.791	3.314	-1.988	0.884	-0.949	-6.032	-3.439	-5.617	-6.169	-1.245	9.815	0.963	3.758	3.179	2.357	-0.144	0.820	1.237	1.610	-5.371	-4.871	-4.613	-6.523	-5.140	628.906
5.858	6.624	6.070	4.677	3.776	3.364	-2.289	0.658	-1.186	-6.536	-4.250	-6.342	-6.687	-1.417	10.480	1.292	4.061	3.438	2.565	0.041	0.850	1.221	1.723	-5.545	-5.012	-4.673	-6.789	-5.611	632.812
6.163	6.948	6.384	4.749	3.648	3.293	-2.476	0.364	-1.416	-6.821	-4.927	-6.871	-6.997	-1.539	10.950	1.479	4.313	3.753	2.708	0.105	0.830	1.235	1.871	-5.572	-5.052	-4.671	-6.869	-5.924	636.719
6.348	7.090	6.573	4.625	3.429	3.123	-2.524	0.028	-1.631	-6.866	-5.428	-7.182	-7.066	-1.604	11.251	1.536	4.499	4.107	2.766	0.061	0.759	1.257	2.026	-5.471	-5.028	-4.656	-6.794	-6.089	640.625
6.443	7.090	6.651	4.352	3.146	2.889	-2.434	-0.323	-1.825	-6.679	-5.727	-7.270	-6.887	-1.605	11.422	1.484	4.603	4.474	2.725	-0.071	0.645	1.263	2.162	-5.268	-4.980	-4.668	-6.606	-6.127	644.531
6.475	6.987	6.638	3.985	2.829	2.625	-2.224	-0.658	-1.994	-6.292	-5.819	-7.147	-6.479	-1.547	11.503	1.349	4.610	4.824	2.579	-0.261	0.499	1.226	2.251	-4.997	-4.942	-4.730	-6.347	-6.061	648.438
6.468	6.815	6.562	3.582	2.506	2.369	-1.933	-0.950	-2.136	-5.763	-5.715	-6.838	-5.888	-1.443	11.527	1.162	4.511	5.128	2.333	-0.483	0.333	1.125	2.273	-4.693	-4.933	-4.845	-6.057	-5.910	652.344
6.435	6.605	6.450	3.191	2.199	2.153	-1.615	-1.179	-2.250	-5.162	-5.438	-6.377	-5.181	-1.316	11.521	0.950	4.306	5.359	2.009	-0.711	0.157	0.946	2.216	-4.396	-4.959	-4.993	-5.764	-5.690	656.250
6.389	6.378	6.330	2.849	1.925	1.999	-1.327	-1.334	-2.336	-4.567	-5.029	-5.809	-4.441	-1.196	11.502	0.740	4.012	5.500	1.635	-0.925	-0.023	0.685	2.079	-4.142	-5.019	-5.147	-5.495	-5.414	660.156
6.337	6.155	6.226	2.576	1.693	1.920	-1.127	-1.413	-2.402	-4.056	-4.540	-5.184	-3.757	-1.114	11.489	0.556	3.661	5.546	1.252	-1.110	-0.202	0.350	1.871	-3.966	-5.103	-5.274	-5.270	-5.096	664.062
6.290	5.957	6.158	2.378	1.504	1.918	-1.062	-1.426	-2.457	-3.696	-4.027	-4.556	-3.213	-1.102	11.503	0.422	3.306	5.509	0.901	-1.256	-0.381	-0.042	1.613	-3.901	-5.208	-5.353	-5.111	-4.759	667.969
6.264	5.806	6.143	2.251	1.354	1.981	-1.164	-1.390	-2.516	-3.540	-3.553	-3.979	-2.880	-1.185	11.575	0.359	3.005	5.420	0.621	-1.353	-0.561	-0.464	1.329	-3.973	-5.331	-5.376	-5.041	-4.428	671.875
6.278	5.726	6.190	2.182	1.234	2.092	-1.447	-1.328	-2.596	-3.623	-3.174	-3.501	-2.806	-1.379	11.742	0.386	2.816	5.323	0.440	-1.395	-0.741	-0.883	1.050	-4.198	-5.481	-5.354	-5.087	-4.141	675.781
6.351	5.736	6.305	2.161	1.131	2.227	-1.903	-1.262	-2.710	-3.952	-2.938	-3.164	-3.014	-1.685	12.046	0.518	2.782	5.275	0.373	-1.374	-0.917	-1.262	0.805	-4.580	-5.668	-5.315	-5.273	-3.934	679.688
6.500	5.849	6.486	2.177	1.034	2.360	-2.507	-1.217	-2.873	-4.514	-2.878	-2.998	-3.497	-2.088	12.522	0.763	2.925	5.332	0.425	-1.280	-1.076	-1.566	0.624	-5.105	-5.905	-5.292	-5.615	-3.842	683.594
6.738	6.067	6.728	2.224	0.933	2.468	-3.222	-1.218	-3.097	-5.274	-3.011	-3.020	-4.224	-2.561	13.190	1.122	3.243	5.540	0.590	-1.106	-1.205	-1.761	0.528	-5.747	-6.200	-5.322	-6.118	-3.891	687.500
7.067	6.383	7.020	2.303	0.824	2.535	-4.000	-1.289	-3.390	-6.181	-3.336	-3.236	-5.141	-3.069	14.048	1.585	3.715	5.916	0.856	-0.849	-1.283	-1.822	0.535	-6.464	-6.552	-5.432	-6.766	-4.093	691.406
7.480	6.784	7.351	2.418	0.707	2.549	-4.798	-1.450	-3.760	-7.177	-3.834	-3.633	-6.177	-3.572	15.062	2.135	4.308	6.451	1.211	-0.508	-1.294	-1.736	0.649	-7.206	-6.948	-5.634	-7.525	-4.441	695.312
7.958	7.247	7.703	2.578	0.589	2.512	-5.568	-1.716	-4.203	-8.193	-4.468	-4.181	-7.253	-4.033	16.166	2.745	4.981	7.102	1.639	-0.096	-1.230	-1.510	0.863	-7.918	-7.363	-5.922	-8.339	-4.909	699.219
8.469	7.745	8.059	2.786	0.483	2.429	-6.269	-2.085	-4.708	-9.163	-5.186	-4.829	-8.287	-4.421	17.267	3.377	5.688	7.798	2.114	0.366	-1.092	-1.173	1.156	-8.545	-7.763	-6.267	-9.135	-5.452	703.125
8.970	8.246	8.393	3.041	0.404	2.318	-6.862	-2.540	-5.248	-10.018	-5.920	-5.511	-9.201	-4.717	18.254	3.988	6.376	8.458	2.602	0.845	-0.895	-0.775	1.492	-9.043	-8.105	-6.625	-9.833	-6.009	707.031
9.408	8.711	8.680	3.330	0.368	2.199	-7.310	-3.040	-5.777	-10.695	-6.595	-6.145	-9.928	-4.912	19.012	4.526	6.986	8.998	3.053	1.299	-0.665	-0.381	1.824	-9.375	-8.349	-6.937	-10.357	-6.510	710.938
9.732	9.095	8.891	3.628	0.385	2.094	-7.581	-3.529	-6.241	-11.141	-7.132	-6.653	-10.414	-5.008	19.445	4.943	7.456	9.348	3.411	1.682	-0.435	-0.065	2.103	-9.524	-8.459	-7.146	-10.641	-6.887	714.844
9.895	9.352	8.999	3.898	0.456	2.019	-7.653	-3.945	-6.580	-11.316	-7.468	-6.965	-10.631	-5.014	19.489	5.200	7.732	9.465	3.621	1.955	-0.240	0.108	2.281	-9.488	-8.415	-7.202	-10.649	-7.083	718.750
9.865	9.443	8.980	4.099	0.573	1.982	-7.515	-4.229	-6.743	-11.201	-7.554	-7.038	-10.572	-4.945	19.126	5.273	7.778	9.341	3.643	2.089	-0.109	0.092	2.324	-9.284	-8.213	-7.077	-10.374	-7.064	722.656
9.634	9.345	8.823	4.189	0.713	1.979	-7.176	-4.341	-6.701	-10.803	-7.375	-6.859	-10.250	-4.815	18.394	5.159	7.584	9.003	3.457	2.071	-0.058	-0.131	2.214	-8.940	-7.872	-6.771	-9.841	-6.824	726.562
9.221	9.053	8.524	4.133	0.843	1.992	-6.663	-4.273	-6.452	-10.151	-6.943	-6.442	-9.699	-4.636	17.373	4.878	7.170	8.509	3.073	1.908	-0.090	-0.542	1.958	-8.493	-7.424	-6.314	-9.104	-6.384	730.469
8.667	8.588	8.096	3.913	0.926	1.994	-6.019	-4.045	-6.028	-9.293	-6.298	-5.829	-8.961	-4.417	16.178	4.465	6.589	7.926	2.528	1.621	-0.197	-1.094	1.582	-7.976	-6.914	-5.756	-8.232	-5.789	734.375
8.031	7.989	7.563	3.524	0.921	1.953	-5.302	-3.705	-5.483	-8.293	-5.498	-5.068	-8.083	-4.164	14.932	3.966	5.911	7.323	1.883	1.240	-0.361	-1.718	1.129	-7.419	-6.391	-5.164	-7.297	-5.093	738.281
7.375	7.310	6.961	2.984	0.796	1.837	-4.573	-3.319	-4.888	-7.218	-4.607	-4.211	-7.113	-3.884	13.748	3.427	5.212	6.751	1.206	0.798	-0.564	-2.337	0.648	-6.841	-5.896	-4.602	-6.365	-4.350	742.188
6.759	6.606	6.332	2.324	0.532	1.625	-3.893	-2.957	-4.318	-6.133	-3.688	-3.301	-6.100	-3.583	12.713	2.886	4.560	6.246	0.564	0.324	-0.787	-2.879	0.189	-6.254	-5.459	-4.118	-5.484	-3.605	746.094
6.225	5.927	5.722	1.589	0.125	1.308	-3.315	-2.678	-3.834	-5.099	-2.791	-2.365	-5.089	-3.276	11.879	2.369	3.999	5.821	0.004	-0.159	-1.021	-3.295	-0.205	-5.666	-5.094	-3.739	-4.682	-2.887	750.000
5.798	5.311	5.171	0.831	-0.406	0.893	-2.881	-2.523	-3.478	-4.166	-1.954	-1.424	-4.127	-2.982	11.263	1.892	3.547	5.480	-0.447	-0.632	-1.256	-3.561	-0.508	-5.089	-4.803	-3.469	-3.973	-2.213	753.906
5.485	4.782	4.711	0.107	-1.021	0.408	-2.614	-2.506	-3.268	-3.375	-1.200	-0.498	-3.263	-2.723	10.857	1.464	3.201	5.222	-0.786	-1.077	-1.486	-3.681	-0.706	-4.541	-4.576	-3.291	-3.362	-1.590	757.812
5.278	4.356	4.358	-0.528	-1.665	-0.107	-2.523	-2.618	-3.199	-2.757	-0.549	0.390	-2.544	-2.522	10.635	1.098	2.943	5.043	-1.021	-1.468	-1.698	-3.680	-0.801	-4.052	-4.404	-3.178	-2.852	-1.027	761.719
5.161	4.042	4.116	-1.024	-2.271	-0.603	-2.599	-2.830	-3.250	-2.336	-0.021	1.199	-2.014	-2.400	10.564	0.817	2.763	4.937	-1.165	-1.772	-1.876	-3.596	-0.808	-3.658	-4.275	-3.104	-2.455	-0.538	765.625
5.121	3.848	3.973	-1.342	-2.775	-1.030	-2.823	-3.098	-3.388	-2.127	0.364	1.875	-1.712	-2.372	10.609	0.650	2.659	4.897	-1.222	-1.946	-1.999	-3.469	-0.743	-3.403	-4.186	-3.053	-2.188	-0.149	769.531
5.143	3.784	3.910	-1.456	-3.123	-1.347	-3.164	-3.377	-3.577	-2.133	0.580	2.357	-1.663	-2.445	10.736	0.632	2.645	4.914	-1.186	-1.948	-2.044	-3.332	-0.627	-3.327	-4.139	-3.020	-2.076	0.107	773.438
5.215	3.857	3.900	-1.357	-3.280	-1.525	-3.588	-3.621	-3.785	-2.351	0.609	2.590	-1.877	-2.618	10.915	0.795	2.747	4.976	-1.043	-1.743	-1.992	-3.205	-0.475	-3.457	-4.139	-3.012	-2.141	0.197	777.344
5.328	4.068	3.915	-1.055	-3.236	-1.557	-4.060	-3.799	-3.985	-2.762	0.439	2.535	-2.344	-2.882	11.119	1.157	2.990	5.067	-0.774	-1.311	-1.832	-3.093	-0.298	-3.802	-4.189	-3.041	-2.394	0.100	781.250
5.473	4.407	3.931	-0.579	-3.005	-1.452	-4.552	-3.894	-4.159	-3.336	0.078	2.190	-3.034	-3.221	11.325	1.716	3.389	5.172	-0.367	-0.657	-1.566	-2.992	-0.102	-4.351	-4.290	-3.118	-2.832	-0.189	785.156
5.640	4.853	3.929	0.029	-2.625	-1.239	-5.044	-3.906	-4.300	-4.033	-0.447	1.590	-3.899	-3.614	11.517	2.448	3.939	5.280	0.173	0.189	-1.209	-2.896	0.108	-5.068	-4.437	-3.246	-3.428	-0.649	789.062
5.819	5.372	3.901	0.718	-2.148	-0.957	-5.525	-3.851	-4.412	-4.806	-1.085	0.805	-4.877	-4.040	11.691	3.304	4.607	5.383	0.816	1.173	-0.785	-2.796	0.328	-5.901	-4.618	-3.418	-4.137	-1.235	792.969
6.001	5.922	3.849	1.433	-1.633	-0.648	-5.992	-3.760	-4.503	-5.604	-1.775	-0.068	-5.896	-4.475	11.849	4.222	5.340	5.478	1.515	2.222	-0.330	-2.693	0.549	-6.785	-4.815	-3.616	-4.899	-1.881	796.875
