FP1	F3	F7	FC3	C3	C5	P3	P7	PO7	PO3	O1	Oz	Pz	CPz	FP2	Fz	F4	F8	FC4	FCz	Cz	C4	C6	P4	P8	PO8	PO4	O2	time
-0.802	-0.820	-0.353	-1.840	-2.539	-1.898	-1.093	-1.647	-1.152	0.026	0.064	0.776	0.707	-0.522	-0.691	-0.955	0.634	2.161	-0.076	-0.280	-0.519	0.300	0.845	0.124	1.296	1.767	1.633	1.500	-199.219
-0.461	-0.578	-0.353	-1.326	-1.851	-1.480	-0.861	-1.573	-1.076	0.041	-0.038	0.428	0.836	-0.041	-0.105	-0.779	0.453	1.816	0.047	-0.043	-0.062	0.460	0.696	0.120	0.919	1.195	1.040	0.996	-195.312
-0.138	-0.342	-0.329	-0.851	-1.205	-1.074	-0.630	-1.494	-1.002	0.060	-0.130	0.118	0.954	0.410	0.426	-0.619	0.294	1.464	0.147	0.153	0.347	0.584	0.553	0.124	0.576	0.677	0.503	0.540	-191.406
0.146	-0.121	-0.269	-0.443	-0.632	-0.689	-0.401	-1.400	-0.928	0.082	-0.204	-0.121	1.047	0.799	0.850	-0.491	0.155	1.100	0.195	0.276	0.669	0.648	0.420	0.142	0.298	0.264	0.073	0.176	-187.500
0.370	0.076	-0.163	-0.117	-0.157	-0.328	-0.179	-1.276	-0.847	0.109	-0.255	-0.269	1.104	1.101	1.121	-0.406	0.023	0.725	0.172	0.310	0.880	0.630	0.299	0.172	0.106	-0.006	-0.212	-0.063	-183.594
0.518	0.243	-0.010	0.126	0.208	0.014	0.027	-1.110	-0.753	0.136	-0.280	-0.319	1.113	1.296	1.213	-0.366	-0.121	0.344	0.063	0.257	0.972	0.523	0.186	0.208	0.008	-0.118	-0.339	-0.168	-179.688
0.585	0.375	0.185	0.304	0.465	0.343	0.209	-0.893	-0.638	0.158	-0.284	-0.284	1.064	1.373	1.122	-0.365	-0.296	-0.028	-0.130	0.137	0.955	0.330	0.072	0.236	-0.001	-0.075	-0.316	-0.147	-175.781
0.572	0.473	0.411	0.441	0.628	0.665	0.353	-0.626	-0.501	0.166	-0.274	-0.189	0.949	1.329	0.869	-0.388	-0.511	-0.374	-0.395	-0.016	0.852	0.071	-0.048	0.239	0.057	0.094	-0.173	-0.025	-171.875
0.497	0.545	0.653	0.567	0.716	0.980	0.445	-0.318	-0.347	0.146	-0.263	-0.069	0.764	1.173	0.498	-0.414	-0.760	-0.671	-0.699	-0.163	0.694	-0.221	-0.180	0.199	0.155	0.348	0.041	0.157	-167.969
0.384	0.607	0.894	0.703	0.752	1.277	0.470	0.008	-0.192	0.089	-0.263	0.039	0.508	0.921	0.075	-0.423	-1.022	-0.898	-1.000	-0.266	0.514	-0.503	-0.317	0.106	0.261	0.633	0.269	0.356	-164.062
0.267	0.676	1.116	0.859	0.755	1.538	0.418	0.317	-0.056	-0.015	-0.286	0.104	0.188	0.596	-0.323	-0.394	-1.263	-1.036	-1.246	-0.298	0.339	-0.728	-0.446	-0.046	0.345	0.898	0.457	0.528	-160.156
0.180	0.772	1.304	1.032	0.738	1.738	0.282	0.570	0.036	-0.172	-0.338	0.107	-0.184	0.224	-0.619	-0.314	-1.440	-1.075	-1.386	-0.247	0.188	-0.853	-0.547	-0.253	0.385	1.098	0.558	0.639	-156.250
0.155	0.908	1.451	1.205	0.703	1.853	0.064	0.729	0.062	-0.378	-0.420	0.041	-0.595	-0.169	-0.751	-0.179	-1.511	-1.011	-1.382	-0.120	0.064	-0.853	-0.595	-0.502	0.366	1.198	0.541	0.665	-152.344
0.212	1.089	1.554	1.353	0.646	1.862	-0.225	0.765	0.010	-0.626	-0.529	-0.088	-1.023	-0.560	-0.677	0.012	-1.440	-0.850	-1.215	0.065	-0.037	-0.722	-0.574	-0.776	0.283	1.181	0.396	0.595	-148.438
0.358	1.311	1.622	1.453	0.559	1.760	-0.562	0.670	-0.121	-0.897	-0.654	-0.267	-1.449	-0.930	-0.392	0.247	-1.213	-0.605	-0.896	0.277	-0.128	-0.481	-0.477	-1.053	0.138	1.043	0.131	0.429	-144.531
0.584	1.554	1.665	1.483	0.438	1.556	-0.914	0.455	-0.314	-1.169	-0.780	-0.475	-1.850	-1.262	0.078	0.510	-0.838	-0.297	-0.462	0.484	-0.223	-0.171	-0.312	-1.314	-0.062	0.795	-0.229	0.181	-140.625
0.863	1.791	1.693	1.436	0.286	1.272	-1.243	0.156	-0.541	-1.415	-0.891	-0.687	-2.203	-1.545	0.673	0.780	-0.351	0.049	0.029	0.658	-0.328	0.156	-0.102	-1.537	-0.302	0.461	-0.648	-0.130	-136.719
1.155	1.987	1.710	1.316	0.115	0.942	-1.509	-0.175	-0.764	-1.609	-0.973	-0.881	-2.488	-1.764	1.308	1.034	0.192	0.405	0.510	0.781	-0.444	0.445	0.119	-1.708	-0.565	0.070	-1.079	-0.477	-132.812
1.414	2.108	1.710	1.139	-0.053	0.602	-1.678	-0.481	-0.944	-1.729	-1.011	-1.035	-2.686	-1.910	1.891	1.249	0.726	0.740	0.920	0.847	-0.560	0.654	0.315	-1.814	-0.829	-0.342	-1.480	-0.827	-128.906
1.598	2.128	1.677	0.931	-0.192	0.285	-1.730	-0.711	-1.050	-1.760	-1.001	-1.132	-2.783	-1.973	2.338	1.410	1.191	1.025	1.216	0.863	-0.658	0.760	0.458	-1.847	-1.069	-0.736	-1.809	-1.147	-125.000
1.672	2.035	1.587	0.718	-0.281	0.014	-1.657	-0.830	-1.065	-1.701	-0.941	-1.160	-2.771	-1.946	2.584	1.509	1.541	1.235	1.381	0.845	-0.718	0.762	0.527	-1.802	-1.258	-1.077	-2.033	-1.406	-121.094
1.620	1.829	1.416	0.521	-0.303	-0.199	-1.474	-0.827	-0.989	-1.557	-0.839	-1.113	-2.646	-1.827	2.598	1.542	1.750	1.355	1.420	0.809	-0.723	0.679	0.522	-1.678	-1.369	-1.333	-2.127	-1.574	-117.188
1.441	1.528	1.146	0.350	-0.261	-0.358	-1.209	-0.717	-0.838	-1.345	-0.707	-0.994	-2.414	-1.621	2.384	1.515	1.815	1.380	1.357	0.769	-0.666	0.541	0.453	-1.476	-1.384	-1.478	-2.079	-1.629	-113.281
1.155	1.158	0.774	0.204	-0.168	-0.476	-0.899	-0.531	-0.640	-1.090	-0.559	-0.810	-2.085	-1.343	1.980	1.433	1.751	1.315	1.224	0.733	-0.552	0.383	0.344	-1.204	-1.291	-1.495	-1.889	-1.560	-109.375
0.794	0.750	0.318	0.074	-0.050	-0.571	-0.589	-0.315	-0.431	-0.817	-0.413	-0.575	-1.680	-1.012	1.449	1.304	1.589	1.181	1.049	0.698	-0.395	0.234	0.220	-0.873	-1.093	-1.384	-1.572	-1.370	-105.469
0.397	0.335	-0.186	-0.054	0.058	-0.661	-0.317	-0.117	-0.242	-0.555	-0.283	-0.309	-1.222	-0.652	0.866	1.135	1.364	1.001	0.857	0.655	-0.216	0.112	0.107	-0.505	-0.806	-1.155	-1.155	-1.075	-101.562
0.007	-0.062	-0.687	-0.192	0.127	-0.759	-0.112	0.025	-0.100	-0.329	-0.184	-0.035	-0.740	-0.292	0.308	0.933	1.118	0.806	0.663	0.592	-0.042	0.025	0.022	-0.121	-0.460	-0.836	-0.680	-0.710	-97.656
-0.336	-0.419	-1.126	-0.347	0.132	-0.870	0.009	0.085	-0.021	-0.159	-0.124	0.219	-0.267	0.047	-0.161	0.707	0.887	0.623	0.475	0.499	0.108	-0.026	-0.026	0.250	-0.094	-0.465	-0.191	-0.317	-93.750
-0.603	-0.718	-1.455	-0.519	0.060	-0.992	0.044	0.056	-0.007	-0.054	-0.110	0.431	0.170	0.344	-0.496	0.468	0.699	0.475	0.301	0.373	0.219	-0.049	-0.035	0.583	0.250	-0.089	0.265	0.057	-89.844
-0.775	-0.950	-1.636	-0.700	-0.085	-1.117	0.009	-0.051	-0.048	-0.015	-0.138	0.581	0.544	0.587	-0.680	0.228	0.572	0.372	0.146	0.218	0.284	-0.051	-0.013	0.856	0.535	0.249	0.647	0.369	-85.938
-0.847	-1.107	-1.660	-0.875	-0.285	-1.231	-0.071	-0.207	-0.123	-0.028	-0.196	0.660	0.843	0.771	-0.722	0.001	0.505	0.312	0.015	0.046	0.308	-0.039	0.028	1.056	0.733	0.511	0.929	0.590	-82.031
-0.832	-1.192	-1.541	-1.028	-0.508	-1.319	-0.160	-0.373	-0.200	-0.068	-0.260	0.671	1.062	0.899	-0.657	-0.201	0.481	0.277	-0.090	-0.127	0.298	-0.020	0.073	1.179	0.832	0.672	1.101	0.709	-78.125
-0.754	-1.213	-1.318	-1.140	-0.715	-1.364	-0.218	-0.504	-0.244	-0.101	-0.298	0.629	1.212	0.982	-0.538	-0.370	0.466	0.235	-0.172	-0.285	0.267	-0.003	0.104	1.231	0.836	0.724	1.170	0.732	-74.219
-0.646	-1.185	-1.045	-1.197	-0.862	-1.352	-0.206	-0.556	-0.220	-0.086	-0.276	0.560	1.311	1.029	-0.427	-0.505	0.416	0.151	-0.239	-0.416	0.229	0.002	0.105	1.228	0.761	0.676	1.157	0.685	-70.312
-0.541	-1.126	-0.779	-1.190	-0.914	-1.270	-0.097	-0.493	-0.099	0.010	-0.161	0.496	1.384	1.053	-0.378	-0.609	0.291	-0.004	-0.307	-0.512	0.193	-0.016	0.062	1.185	0.631	0.547	1.092	0.601	-66.406
-0.470	-1.054	-0.569	-1.117	-0.847	-1.109	0.123	-0.298	0.132	0.209	0.062	0.463	1.450	1.061	-0.432	-0.689	0.066	-0.246	-0.392	-0.574	0.164	-0.067	-0.036	1.120	0.473	0.364	1.004	0.513	-62.500
-0.452	-0.983	-0.445	-0.979	-0.659	-0.870	0.447	0.026	0.467	0.514	0.391	0.481	1.518	1.055	-0.608	-0.754	-0.259	-0.572	-0.503	-0.606	0.140	-0.160	-0.189	1.044	0.308	0.154	0.919	0.446	-58.594
-0.491	-0.921	-0.415	-0.789	-0.367	-0.563	0.846	0.453	0.881	0.903	0.799	0.554	1.589	1.031	-0.895	-0.812	-0.652	-0.954	-0.642	-0.616	0.116	-0.292	-0.390	0.964	0.154	-0.059	0.851	0.412	-54.688
-0.580	-0.874	-0.466	-0.564	-0.007	-0.208	1.275	0.937	1.328	1.334	1.239	0.672	1.649	0.980	-1.259	-0.864	-1.061	-1.345	-0.798	-0.617	0.085	-0.454	-0.615	0.881	0.021	-0.256	0.801	0.410	-50.781
-0.701	-0.843	-0.569	-0.328	0.369	0.161	1.679	1.416	1.752	1.753	1.653	0.813	1.677	0.893	-1.643	-0.911	-1.421	-1.688	-0.946	-0.617	0.036	-0.625	-0.833	0.791	-0.086	-0.422	0.762	0.426	-46.875
-0.830	-0.829	-0.686	-0.111	0.705	0.505	1.999	1.828	2.099	2.100	1.983	0.944	1.651	0.762	-1.984	-0.946	-1.668	-1.927	-1.059	-0.628	-0.037	-0.779	-1.005	0.694	-0.164	-0.544	0.722	0.443	-42.969
-0.942	-0.833	-0.786	0.060	0.950	0.783	2.191	2.117	2.317	2.323	2.179	1.034	1.554	0.586	-2.219	-0.964	-1.759	-2.016	-1.107	-0.655	-0.136	-0.889	-1.095	0.592	-0.209	-0.616	0.668	0.444	-39.062
-1.016	-0.853	-0.842	0.161	1.069	0.957	2.224	2.243	2.374	2.386	2.212	1.054	1.379	0.372	-2.302	-0.955	-1.673	-1.934	-1.067	-0.699	-0.258	-0.934	-1.076	0.488	-0.222	-0.632	0.589	0.417	-35.156
-1.038	-0.887	-0.847	0.178	1.047	1.003	2.090	2.187	2.258	2.274	2.073	0.982	1.132	0.136	-2.208	-0.912	-1.416	-1.687	-0.923	-0.753	-0.388	-0.896	-0.936	0.394	-0.202	-0.595	0.483	0.356	-31.250
-1.006	-0.930	-0.806	0.112	0.895	0.915	1.805	1.952	1.977	1.995	1.778	0.811	0.830	-0.094	-1.948	-0.829	-1.017	-1.314	-0.670	-0.801	-0.505	-0.770	-0.683	0.320	-0.149	-0.512	0.353	0.264	-27.344
-0.922	-0.975	-0.739	-0.020	0.646	0.704	1.400	1.558	1.556	1.575	1.359	0.543	0.502	-0.291	-1.558	-0.701	-0.522	-0.873	-0.313	-0.821	-0.580	-0.553	-0.343	0.278	-0.067	-0.398	0.211	0.149	-23.438
-0.800	-1.010	-0.673	-0.184	0.354	0.398	0.922	1.042	1.033	1.055	0.861	0.195	0.178	-0.422	-1.099	-0.526	0.016	-0.435	0.135	-0.782	-0.583	-0.256	0.044	0.275	0.038	-0.271	0.072	0.019	-19.531
-0.655	-1.023	-0.634	-0.336	0.078	0.038	0.418	0.447	0.452	0.484	0.331	-0.209	-0.110	-0.466	-0.642	-0.301	0.545	-0.067	0.652	-0.659	-0.488	0.110	0.433	0.314	0.157	-0.155	-0.051	-0.117	-15.625
-0.501	-0.998	-0.643	-0.431	-0.125	-0.329	-0.064	-0.180	-0.142	-0.092	-0.189	-0.637	-0.342	-0.411	-0.251	-0.028	1.022	0.182	1.211	-0.430	-0.282	0.524	0.780	0.390	0.278	-0.071	-0.149	-0.257	-11.719
-0.351	-0.924	-0.707	-0.431	-0.210	-0.660	-0.486	-0.795	-0.708	-0.631	-0.663	-1.056	-0.505	-0.263	0.023	0.291	1.414	0.288	1.778	-0.091	0.030	0.959	1.049	0.491	0.390	-0.034	-0.218	-0.398	-7.812
-0.215	-0.796	-0.820	-0.316	-0.158	-0.919	-0.817	-1.353	-1.208	-1.095	-1.063	-1.430	-0.594	-0.040	0.157	0.644	1.703	0.254	2.311	0.343	0.424	1.385	1.217	0.603	0.479	-0.055	-0.261	-0.539	-3.906
-0.100	-0.621	-0.968	-0.092	0.026	-1.084	-1.037	-1.813	-1.607	-1.453	-1.365	-1.728	-0.614	0.225	0.149	1.011	1.881	0.105	2.763	0.831	0.857	1.763	1.277	0.709	0.539	-0.129	-0.281	-0.676	0.000
-0.017	-0.423	-1.132	0.210	0.311	-1.149	-1.135	-2.137	-1.874	-1.680	-1.548	-1.917	-0.569	0.497	0.018	1.357	1.949	-0.120	3.089	1.313	1.272	2.058	1.235	0.796	0.564	-0.243	-0.283	-0.798	3.906
0.025	-0.238	-1.291	0.535	0.645	-1.121	-1.108	-2.293	-1.982	-1.755	-1.592	-1.973	-0.467	0.738	-0.205	1.642	1.915	-0.380	3.251	1.718	1.608	2.236	1.105	0.855	0.557	-0.376	-0.269	-0.887	7.812
0.012	-0.109	-1.433	0.820	0.967	-1.023	-0.964	-2.258	-1.911	-1.667	-1.480	-1.878	-0.316	0.920	-0.486	1.817	1.789	-0.637	3.225	1.976	1.812	2.274	0.907	0.882	0.525	-0.499	-0.238	-0.922	11.719
-0.067	-0.077	-1.550	1.002	1.220	-0.882	-0.717	-2.026	-1.652	-1.414	-1.203	-1.629	-0.124	1.025	-0.800	1.842	1.585	-0.869	3.015	2.034	1.848	2.162	0.665	0.879	0.477	-0.585	-0.187	-0.881	15.625
-0.220	-0.171	-1.644	1.040	1.361	-0.728	-0.392	-1.609	-1.214	-1.009	-0.767	-1.237	0.100	1.047	-1.127	1.692	1.319	-1.070	2.649	1.870	1.706	1.909	0.397	0.855	0.428	-0.615	-0.111	-0.748	19.531
-0.446	-0.400	-1.718	0.918	1.376	-0.588	-0.018	-1.042	-0.624	-0.479	-0.194	-0.729	0.346	0.995	-1.460	1.366	1.010	-1.248	2.181	1.499	1.405	1.540	0.123	0.819	0.389	-0.578	-0.008	-0.520	23.438
-0.733	-0.751	-1.781	0.654	1.273	-0.479	0.376	-0.378	0.071	0.137	0.474	-0.149	0.601	0.889	-1.800	0.895	0.677	-1.422	1.682	0.971	0.988	1.095	-0.147	0.780	0.368	-0.478	0.122	-0.211	27.344
-1.060	-1.188	-1.840	0.291	1.090	-0.406	0.763	0.318	0.815	0.790	1.183	0.444	0.852	0.752	-2.151	0.333	0.342	-1.612	1.222	0.364	0.513	0.615	-0.405	0.748	0.371	-0.328	0.276	0.152	31.250
-1.402	-1.660	-1.903	-0.107	0.876	-0.367	1.127	0.982	1.543	1.434	1.866	0.987	1.088	0.613	-2.522	-0.245	0.029	-1.831	0.858	-0.232	0.046	0.142	-0.647	0.728	0.402	-0.145	0.452	0.527	35.156
-1.735	-2.115	-1.979	-0.476	0.683	-0.353	1.459	1.556	2.202	2.027	2.460	1.418	1.297	0.493	-2.923	-0.768	-0.239	-2.079	0.618	-0.736	-0.361	-0.291	-0.872	0.726	0.464	0.053	0.649	0.876	39.062
-2.040	-2.505	-2.076	-0.761	0.551	-0.355	1.761	2.003	2.752	2.539	2.908	1.683	1.475	0.408	-3.363	-1.175	-0.446	-2.340	0.498	-1.095	-0.669	-0.664	-1.081	0.750	0.563	0.262	0.875	1.165	42.969
-2.313	-2.797	-2.202	-0.930	0.502	-0.363	2.040	2.308	3.176	2.953	3.167	1.745	1.618	0.365	-3.853	-1.435	-0.587	-2.590	0.465	-1.288	-0.865	-0.971	-1.273	0.810	0.711	0.486	1.147	1.377	46.875
-2.558	-2.979	-2.361	-0.976	0.533	-0.376	2.305	2.479	3.473	3.261	3.211	1.587	1.729	0.362	-4.400	-1.549	-0.674	-2.799	0.464	-1.334	-0.961	-1.212	-1.444	0.922	0.925	0.747	1.490	1.519	50.781
-2.794	-3.062	-2.556	-0.920	0.627	-0.391	2.559	2.540	3.664	3.466	3.037	1.218	1.813	0.393	-5.015	-1.550	-0.737	-2.948	0.438	-1.281	-0.981	-1.392	-1.588	1.104	1.224	1.078	1.938	1.620	54.688
-3.045	-3.075	-2.786	-0.797	0.750	-0.410	2.803	2.528	3.776	3.580	2.662	0.672	1.878	0.447	-5.707	-1.496	-0.821	-3.033	0.336	-1.195	-0.962	-1.517	-1.697	1.380	1.631	1.519	2.525	1.733	58.594
-3.342	-3.061	-3.051	-0.655	0.868	-0.436	3.031	2.479	3.843	3.620	2.127	0.008	1.936	0.516	-6.495	-1.458	-0.981	-3.072	0.128	-1.143	-0.937	-1.593	-1.767	1.769	2.169	2.112	3.285	1.921	62.500
-3.719	-3.078	-3.356	-0.543	0.950	-0.472	3.235	2.422	3.896	3.614	1.495	-0.696	2.000	0.592	-7.402	-1.507	-1.266	-3.100	-0.193	-1.181	-0.932	-1.621	-1.796	2.289	2.859	2.895	4.247	2.256	66.406
-4.211	-3.183	-3.712	-0.504	0.970	-0.526	3.408	2.377	3.963	3.594	0.846	-1.348	2.083	0.673	-8.462	-1.699	-1.708	-3.171	-0.606	-1.342	-0.963	-1.602	-1.786	2.948	3.721	3.898	5.428	2.800	70.312
-4.843	-3.429	-4.140	-0.571	0.911	-0.611	3.548	2.350	4.067	3.602	0.269	-1.859	2.195	0.756	-9.708	-2.068	-2.313	-3.337	-1.074	-1.634	-1.033	-1.538	-1.743	3.745	4.767	5.139	6.826	3.600	74.219
-5.633	-3.854	-4.658	-0.765	0.762	-0.748	3.658	2.335	4.224	3.681	-0.149	-2.147	2.344	0.837	-11.169	-2.616	-3.053	-3.640	-1.543	-2.042	-1.142	-1.433	-1.678	4.663	5.998	6.616	8.422	4.673	78.125
-6.582	-4.472	-5.286	-1.097	0.515	-0.961	3.749	2.329	4.453	3.872	-0.334	-2.156	2.530	0.908	-12.850	-3.316	-3.872	-4.098	-1.962	-2.532	-1.283	-1.294	-1.600	5.669	7.398	8.308	10.168	6.005	82.031
-7.668	-5.274	-6.027	-1.563	0.167	-1.273	3.833	2.328	4.769	4.207	-0.235	-1.859	2.749	0.957	-14.727	-4.120	-4.700	-4.699	-2.293	-3.065	-1.455	-1.141	-1.523	6.715	8.931	10.167	11.993	7.542	85.938
-8.855	-6.223	-6.870	-2.152	-0.283	-1.696	3.926	2.347	5.190	4.706	0.170	-1.261	2.988	0.968	-16.741	-4.966	-5.469	-5.402	-2.523	-3.602	-1.661	-0.999	-1.461	7.742	10.540	12.128	13.807	9.206	89.844
-10.086	-7.259	-7.780	-2.839	-0.827	-2.226	4.045	2.413	5.736	5.368	0.869	-0.399	3.234	0.921	-18.798	-5.796	-6.130	-6.145	-2.670	-4.121	-1.911	-0.904	-1.433	8.683	12.146	14.105	15.511	10.896	93.750
-11.294	-8.309	-8.706	-3.589	-1.445	-2.834	4.199	2.565	6.420	6.173	1.820	0.665	3.472	0.802	-20.781	-6.566	-6.663	-6.855	-2.779	-4.612	-2.218	-0.896	-1.462	9.477	13.656	16.000	17.005	12.505	97.656
-12.410	-9.293	-9.582	-4.358	-2.102	-3.471	4.395	2.845	7.241	7.080	2.958	1.858	3.687	0.603	-22.564	-7.244	-7.077	-7.472	-2.912	-5.080	-2.595	-1.014	-1.570	10.067	14.975	17.713	18.205	13.936	101.562
-13.367	-10.137	-10.341	-5.092	-2.752	-4.073	4.632	3.285	8.181	8.034	4.202	3.100	3.870	0.329	-24.034	-7.820	-7.402	-7.955	-3.125	-5.537	-3.045	-1.280	-1.776	10.417	16.016	19.151	19.049	15.108	105.469
-14.115	-10.786	-10.926	-5.740	-3.337	-4.573	4.906	3.893	9.200	8.973	5.469	4.318	4.016	-0.004	-25.109	-8.295	-7.674	-8.294	-3.449	-5.991	-3.557	-1.698	-2.089	10.511	16.714	20.238	19.504	15.970	109.375
-14.620	-11.210	-11.301	-6.252	-3.801	-4.910	5.207	4.650	10.238	9.836	6.681	5.449	4.126	-0.365	-25.750	-8.674	-7.923	-8.508	-3.878	-6.440	-4.104	-2.242	-2.499	10.353	17.035	20.922	19.574	16.498	113.281
-14.876	-11.409	-11.458	-6.593	-4.096	-5.050	5.523	5.505	11.224	10.577	7.778	6.444	4.205	-0.713	-25.966	-8.966	-8.156	-8.637	-4.364	-6.865	-4.640	-2.864	-2.985	9.968	16.982	21.181	19.293	16.704	117.188
-14.903	-11.415	-11.421	-6.750	-4.192	-4.983	5.838	6.388	12.090	11.166	8.723	7.278	4.259	-1.009	-25.813	-9.176	-8.365	-8.729	-4.835	-7.236	-5.112	-3.496	-3.510	9.401	16.594	21.030	18.724	16.625	121.094
-14.745	-11.284	-11.237	-6.735	-4.090	-4.736	6.134	7.221	12.782	11.599	9.511	7.949	4.294	-1.219	-25.386	-9.311	-8.526	-8.824	-5.212	-7.518	-5.471	-4.073	-4.035	8.703	15.945	20.525	17.953	16.329	125.000
-14.468	-11.088	-10.972	-6.586	-3.822	-4.362	6.393	7.935	13.279	11.901	10.170	8.484	4.312	-1.330	-24.801	-9.380	-8.626	-8.953	-5.437	-7.686	-5.685	-4.545	-4.525	7.933	15.129	19.760	17.081	15.907	128.906
-14.147	-10.904	-10.691	-6.362	-3.448	-3.933	6.597	8.486	13.596	12.115	10.756	8.933	4.309	-1.347	-24.186	-9.405	-8.665	-9.126	-5.493	-7.735	-5.752	-4.893	-4.961	7.149	14.258	18.858	16.216	15.467	132.812
-13.862	-10.797	-10.452	-6.133	-3.045	-3.529	6.735	8.862	13.786	12.301	11.345	9.365	4.278	-1.303	-23.659	-9.415	-8.675	-9.341	-5.412	-7.690	-5.703	-5.131	-5.339	6.404	13.439	17.964	15.460	15.119	136.719
-13.678	-10.810	-10.295	-5.968	-2.697	-3.222	6.799	9.085	13.922	12.518	12.010	9.850	4.207	-1.246	-23.318	-9.446	-8.705	-9.584	-5.267	-7.601	-5.598	-5.304	-5.671	5.739	12.769	17.220	14.902	14.964	140.625
-13.643	-10.960	-10.236	-5.920	-2.477	-3.065	6.789	9.200	14.086	12.817	12.809	10.447	4.082	-1.235	-23.230	-9.536	-8.811	-9.840	-5.149	-7.535	-5.514	-5.469	-5.974	5.187	12.317	16.744	14.605	15.076	144.531
-13.777	-11.232	-10.273	-6.021	-2.437	-3.087	6.710	9.262	14.345	13.223	13.766	11.191	3.891	-1.323	-23.420	-9.711	-9.033	-10.094	-5.145	-7.558	-5.526	-5.681	-6.265	4.762	12.121	16.615	14.597	15.489	148.438
-14.074	-11.588	-10.395	-6.272	-2.599	-3.287	6.571	9.319	14.734	13.732	14.864	12.080	3.628	-1.546	-23.879	-9.980	-9.379	-10.337	-5.306	-7.720	-5.688	-5.969	-6.550	4.469	12.186	16.854	14.868	16.190	152.344
-14.502	-11.981	-10.584	-6.648	-2.952	-3.641	6.386	9.400	15.250	14.310	16.045	13.077	3.295	-1.913	-24.559	-10.330	-9.819	-10.564	-5.636	-8.035	-6.019	-6.332	-6.819	4.304	12.484	17.426	15.375	17.121	156.250
-15.018	-12.367	-10.829	-7.103	-3.453	-4.102	6.168	9.507	15.846	14.903	17.221	14.114	2.909	-2.400	-25.389	-10.729	-10.287	-10.772	-6.089	-8.482	-6.493	-6.728	-7.048	4.257	12.961	18.242	16.050	18.191	160.156
-15.567	-12.713	-11.122	-7.579	-4.037	-4.617	5.932	9.619	16.447	15.441	18.289	15.104	2.498	-2.954	-26.283	-11.128	-10.701	-10.955	-6.577	-9.003	-7.048	-7.091	-7.205	4.315	13.550	19.180	16.808	19.284	164.062
-16.093	-13.002	-11.458	-8.019	-4.627	-5.127	5.691	9.696	16.962	15.858	19.147	15.955	2.099	-3.502	-27.148	-11.475	-10.983	-11.101	-6.995	-9.521	-7.596	-7.344	-7.258	4.465	14.171	20.098	17.561	20.285	167.969
-16.547	-13.227	-11.824	-8.376	-5.149	-5.580	5.457	9.696	17.304	16.097	19.713	16.589	1.754	-3.966	-27.891	-11.722	-11.082	-11.194	-7.245	-9.951	-8.042	-7.415	-7.186	4.694	14.744	20.859	18.230	21.090	171.875
-16.883	-13.391	-12.198	-8.618	-5.541	-5.935	5.240	9.587	17.406	16.124	19.933	16.947	1.501	-4.276	-28.425	-11.839	-10.980	-11.209	-7.260	-10.224	-8.308	-7.263	-6.985	4.983	15.197	21.348	18.746	21.619	175.781
-17.061	-13.492	-12.542	-8.729	-5.760	-6.161	5.048	9.358	17.237	15.927	19.787	17.000	1.367	-4.386	-28.676	-11.811	-10.697	-11.124	-7.013	-10.300	-8.344	-6.879	-6.669	5.309	15.466	21.483	19.060	21.822	179.688
-17.051	-13.524	-12.805	-8.710	-5.788	-6.242	4.888	9.019	16.801	15.523	19.290	16.746	1.361	-4.280	-28.588	-11.645	-10.276	-10.922	-6.527	-10.173	-8.143	-6.295	-6.269	5.643	15.504	21.227	19.138	21.680	183.594
-16.834	-13.469	-12.932	-8.568	-5.628	-6.173	4.765	8.604	16.136	14.945	18.483	16.205	1.477	-3.975	-28.129	-11.364	-9.771	-10.601	-5.859	-9.870	-7.734	-5.570	-5.826	5.952	15.287	20.583	18.965	21.203	187.500
-16.403	-13.304	-12.876	-8.316	-5.300	-5.959	4.687	8.159	15.307	14.243	17.430	15.415	1.690	-3.514	-27.297	-10.997	-9.231	-10.171	-5.089	-9.441	-7.176	-4.783	-5.384	6.200	14.813	19.595	18.542	20.422	191.406
-15.768	-13.008	-12.608	-7.966	-4.834	-5.612	4.662	7.735	14.393	13.471	16.204	14.425	1.963	-2.957	-26.129	-10.576	-8.690	-9.661	-4.306	-8.947	-6.541	-4.013	-4.981	6.356	14.105	18.337	17.888	19.389	195.312
-14.960	-12.569	-12.126	-7.532	-4.261	-5.151	4.699	7.380	13.475	12.686	14.884	13.287	2.258	-2.368	-24.696	-10.131	-8.170	-9.111	-3.586	-8.445	-5.900	-3.328	-4.647	6.395	13.210	16.902	17.038	18.165	199.219
-14.030	-11.995	-11.462	-7.029	-3.613	-4.598	4.808	7.128	12.626	11.937	13.548	12.063	2.537	-1.801	-23.102	-9.689	-7.680	-8.569	-2.986	-7.981	-5.311	-2.774	-4.397	6.312	12.193	15.393	16.042	16.820	203.125
-13.046	-11.319	-10.678	-6.478	-2.916	-3.981	4.999	6.997	11.903	11.267	12.267	10.809	2.774	-1.293	-21.469	-9.271	-7.226	-8.082	-2.536	-7.582	-4.807	-2.371	-4.230	6.114	11.130	13.909	14.959	15.428	207.031
-12.084	-10.595	-9.854	-5.909	-2.197	-3.329	5.277	6.989	11.348	10.710	11.104	9.587	2.956	-0.861	-19.926	-8.898	-6.818	-7.691	-2.242	-7.265	-4.401	-2.111	-4.130	5.830	10.104	12.539	13.859	14.062	210.938
-11.224	-9.897	-9.078	-5.359	-1.482	-2.675	5.642	7.094	10.982	10.288	10.112	8.453	3.082	-0.500	-18.589	-8.589	-6.469	-7.422	-2.087	-7.032	-4.087	-1.966	-4.073	5.502	9.191	11.357	12.814	12.791	214.844
-10.538	-9.303	-8.434	-4.874	-0.798	-2.050	6.088	7.294	10.812	10.016	9.333	7.458	3.165	-0.194	-17.552	-8.368	-6.195	-7.290	-2.046	-6.885	-3.846	-1.893	-4.028	5.183	8.457	10.417	11.892	11.677	218.750
-10.082	-8.891	-7.988	-4.500	-0.176	-1.488	6.602	7.569	10.834	9.901	8.792	6.644	3.223	0.082	-16.880	-8.258	-6.020	-7.287	-2.085	-6.826	-3.659	-1.844	-3.963	4.931	7.953	9.755	11.154	10.772	222.656
-9.894	-8.719	-7.785	-4.276	0.351	-1.017	7.169	7.903	11.038	9.943	8.505	6.045	3.281	0.350	-16.603	-8.282	-5.965	-7.396	-2.177	-6.860	-3.510	-1.773	-3.853	4.794	7.709	9.389	10.646	10.113	226.562
-9.990	-8.823	-7.838	-4.227	0.756	-0.659	7.770	8.286	11.410	10.138	8.469	5.678	3.358	0.627	-16.719	-8.455	-6.052	-7.587	-2.299	-6.996	-3.391	-1.645	-3.683	4.812	7.734	9.316	10.395	9.720	230.469
-10.359	-9.206	-8.135	-4.362	1.019	-0.428	8.388	8.715	11.935	10.475	8.670	5.547	3.473	0.921	-17.201	-8.787	-6.293	-7.830	-2.436	-7.239	-3.298	-1.437	-3.449	5.004	8.015	9.516	10.408	9.595	234.375
-10.968	-9.841	-8.640	-4.665	1.132	-0.324	9.010	9.192	12.592	10.940	9.080	5.641	3.636	1.231	-17.996	-9.271	-6.693	-8.096	-2.580	-7.588	-3.234	-1.143	-3.160	5.367	8.517	9.951	10.667	9.717	238.281
-11.763	-10.670	-9.303	-5.104	1.109	-0.340	9.626	9.714	13.356	11.514	9.659	5.930	3.856	1.553	-19.034	-9.884	-7.237	-8.365	-2.727	-8.026	-3.198	-0.771	-2.835	5.880	9.191	10.569	11.134	10.049	242.188
-12.676	-11.613	-10.065	-5.630	0.975	-0.457	10.231	10.273	14.193	12.174	10.359	6.375	4.135	1.881	-20.232	-10.592	-7.895	-8.622	-2.874	-8.526	-3.186	-0.344	-2.498	6.504	9.976	11.305	11.754	10.538	246.094
-13.631	-12.581	-10.872	-6.187	0.770	-0.654	10.819	10.851	15.061	12.894	11.124	6.923	4.477	2.213	-21.501	-11.344	-8.614	-8.868	-3.016	-9.046	-3.183	0.107	-2.180	7.189	10.805	12.090	12.464	11.122	250.000
-14.548	-13.483	-11.671	-6.719	0.544	-0.904	11.384	11.416	15.909	13.643	11.899	7.521	4.881	2.548	-22.753	-12.086	-9.332	-9.105	-3.147	-9.537	-3.172	0.547	-1.907	7.885	11.617	12.856	13.197	11.738	253.906
-15.355	-14.241	-12.418	-7.180	0.341	-1.183	11.918	11.929	16.683	14.389	12.630	8.118	5.352	2.893	-23.901	-12.764	-9.978	-9.346	-3.258	-9.953	-3.131	0.942	-1.703	8.544	12.354	13.542	13.896	12.327	257.812
-15.995	-14.802	-13.077	-7.536	0.201	-1.468	12.408	12.348	17.333	15.096	13.270	8.669	5.890	3.255	-24.873	-13.331	-10.490	-9.601	-3.340	-10.255	-3.041	1.264	-1.585	9.130	12.971	14.097	14.514	12.840	261.719
-16.427	-15.141	-13.618	-7.773	0.149	-1.738	12.841	12.633	17.813	15.732	13.780	9.142	6.497	3.644	-25.612	-13.754	-10.825	-9.878	-3.387	-10.422	-2.886	1.495	-1.558	9.619	13.439	14.488	15.019	13.244	265.625
-16.634	-15.264	-14.021	-7.893	0.196	-1.976	13.202	12.753	18.092	16.264	14.132	9.517	7.169	4.065	-26.084	-14.021	-10.968	-10.181	-3.397	-10.446	-2.660	1.634	-1.615	10.005	13.742	14.697	15.398	13.521	269.531
-16.626	-15.205	-14.278	-7.909	0.334	-2.169	13.478	12.690	18.156	16.666	14.314	9.784	7.894	4.521	-26.279	-14.134	-10.934	-10.497	-3.372	-10.340	-2.364	1.689	-1.740	10.294	13.881	14.727	15.651	13.667	273.438
-16.434	-15.021	-14.389	-7.846	0.546	-2.312	13.659	12.440	18.005	16.918	14.323	9.942	8.656	5.007	-26.217	-14.110	-10.760	-10.806	-3.316	-10.122	-2.009	1.687	-1.906	10.503	13.872	14.592	15.789	13.694	277.344
-16.104	-14.775	-14.372	-7.726	0.803	-2.406	13.739	12.015	17.654	17.010	14.170	10.000	9.426	5.513	-25.937	-13.974	-10.499	-11.077	-3.230	-9.819	-1.607	1.659	-2.083	10.654	13.741	14.319	15.830	13.618	281.250
-15.690	-14.520	-14.253	-7.572	1.076	-2.457	13.717	11.438	17.131	16.941	13.877	9.966	10.170	6.021	-25.494	-13.753	-10.201	-11.274	-3.115	-9.453	-1.176	1.640	-2.239	10.768	13.520	13.938	15.790	13.460	285.156
-15.242	-14.296	-14.067	-7.394	1.337	-2.476	13.603	10.746	16.472	16.724	13.469	9.850	10.850	6.514	-24.945	-13.471	-9.910	-11.367	-2.968	-9.043	-0.732	1.658	-2.350	10.858	13.239	13.481	15.682	13.236	289.062
-14.802	-14.114	-13.851	-7.199	1.569	-2.473	13.410	9.984	15.719	16.380	12.978	9.662	11.431	6.972	-24.343	-13.148	-9.652	-11.337	-2.789	-8.603	-0.288	1.731	-2.401	10.932	12.926	12.976	15.512	12.960	292.969
-14.393	-13.967	-13.640	-6.985	1.763	-2.456	13.165	9.204	14.922	15.942	12.436	9.408	11.884	7.382	-23.730	-12.798	-9.438	-11.183	-2.580	-8.144	0.144	1.861	-2.388	10.987	12.600	12.445	15.283	12.639	296.875
-14.028	-13.832	-13.460	-6.751	1.924	-2.429	12.897	8.458	14.132	15.450	11.874	9.096	12.194	7.737	-23.136	-12.436	-9.258	-10.928	-2.347	-7.677	0.558	2.043	-2.313	11.021	12.275	11.905	14.994	12.277	300.781
-13.709	-13.688	-13.325	-6.500	2.063	-2.395	12.644	7.796	13.399	14.949	11.324	8.735	12.364	8.036	-22.581	-12.074	-9.095	-10.609	-2.101	-7.217	0.948	2.260	-2.186	11.028	11.962	11.372	14.648	11.878	304.688
-13.435	-13.522	-13.245	-6.239	2.195	-2.353	12.439	7.260	12.770	14.486	10.812	8.338	12.410	8.287	-22.082	-11.732	-8.923	-10.274	-1.856	-6.786	1.309	2.495	-2.017	11.008	11.672	10.860	14.254	11.452	308.594
-13.209	-13.339	-13.220	-5.987	2.337	-2.305	12.313	6.878	12.285	14.105	10.367	7.924	12.362	8.503	-21.657	-11.431	-8.723	-9.968	-1.624	-6.410	1.636	2.732	-1.815	10.968	11.419	10.391	13.831	11.012	312.500
-13.042	-13.162	-13.254	-5.764	2.499	-2.254	12.290	6.668	11.972	13.841	10.012	7.515	12.259	8.695	-21.330	-11.199	-8.485	-9.727	-1.418	-6.116	1.924	2.961	-1.588	10.919	11.220	9.987	13.406	10.582	316.406
-12.952	-13.028	-13.348	-5.592	2.684	-2.207	12.380	6.633	11.846	13.720	9.770	7.142	12.136	8.874	-21.129	-11.060	-8.217	-9.571	-1.245	-5.926	2.166	3.176	-1.347	10.876	11.096	9.678	13.014	10.191	320.312
-12.961	-12.975	-13.510	-5.492	2.885	-2.174	12.585	6.761	11.910	13.756	9.661	6.833	12.026	9.044	-21.087	-11.035	-7.939	-9.507	-1.107	-5.851	2.357	3.375	-1.106	10.858	11.068	9.493	12.691	9.871	324.219
-13.089	-13.033	-13.742	-5.472	3.090	-2.165	12.892	7.032	12.153	13.946	9.697	6.619	11.949	9.204	-21.231	-11.131	-7.684	-9.530	-1.006	-5.892	2.495	3.555	-0.880	10.878	11.151	9.456	12.467	9.653	328.125
-13.344	-13.216	-14.045	-5.536	3.279	-2.191	13.279	7.414	12.551	14.277	9.886	6.521	11.915	9.348	-21.575	-11.345	-7.493	-9.626	-0.941	-6.033	2.579	3.713	-0.688	10.945	11.354	9.586	12.369	9.561	332.031
-13.721	-13.518	-14.409	-5.674	3.429	-2.261	13.720	7.872	13.074	14.724	10.227	6.553	11.924	9.467	-22.115	-11.659	-7.405	-9.780	-0.916	-6.252	2.608	3.840	-0.545	11.060	11.676	9.886	12.405	9.611	335.938
-14.202	-13.914	-14.818	-5.874	3.521	-2.375	14.184	8.369	13.685	15.255	10.710	6.720	11.968	9.547	-22.823	-12.044	-7.457	-9.976	-0.942	-6.522	2.584	3.926	-0.465	11.221	12.101	10.349	12.575	9.803	339.844
-14.755	-14.372	-15.250	-6.117	3.538	-2.529	14.641	8.872	14.347	15.834	11.313	7.010	12.033	9.579	-23.655	-12.467	-7.668	-10.196	-1.032	-6.816	2.508	3.959	-0.454	11.414	12.606	10.948	12.859	10.123	343.750
-15.343	-14.851	-15.680	-6.384	3.473	-2.712	15.068	9.356	15.025	16.426	12.005	7.400	12.108	9.557	-24.549	-12.893	-8.040	-10.423	-1.198	-7.112	2.380	3.931	-0.513	11.624	13.155	11.648	13.225	10.541	347.656
-15.926	-15.318	-16.082	-6.658	3.329	-2.906	15.442	9.805	15.687	16.996	12.741	7.849	12.181	9.478	-25.432	-13.289	-8.549	-10.640	-1.442	-7.393	2.206	3.840	-0.632	11.830	13.710	12.397	13.630	11.016	351.562
-16.463	-15.739	-16.436	-6.920	3.118	-3.093	15.751	10.212	16.303	17.511	13.464	8.303	12.244	9.347	-26.237	-13.628	-9.146	-10.832	-1.752	-7.645	1.992	3.692	-0.797	12.012	14.229	13.143	14.026	11.496	355.469
-16.919	-16.092	-16.723	-7.154	2.861	-3.252	15.986	10.573	16.846	17.938	14.108	8.700	12.295	9.177	-26.900	-13.889	-9.763	-10.991	-2.100	-7.855	1.753	3.504	-0.988	12.151	14.676	13.831	14.366	11.925	359.375
-17.267	-16.355	-16.928	-7.343	2.586	-3.370	16.144	10.890	17.292	18.251	14.603	8.973	12.335	8.986	-27.381	-14.060	-10.321	-11.116	-2.444	-8.008	1.510	3.300	-1.185	12.237	15.027	14.419	14.618	12.255	363.281
-17.491	-16.518	-17.046	-7.474	2.319	-3.442	16.225	11.158	17.621	18.428	14.884	9.064	12.372	8.794	-27.663	-14.135	-10.749	-11.214	-2.738	-8.091	1.290	3.106	-1.368	12.270	15.271	14.881	14.766	12.450	367.188
-17.589	-16.576	-17.076	-7.534	2.089	-3.467	16.236	11.372	17.816	18.456	14.906	8.939	12.413	8.626	-27.761	-14.118	-10.999	-11.297	-2.945	-8.092	1.120	2.948	-1.523	12.262	15.416	15.213	14.816	12.494	371.094
-17.572	-16.533	-17.026	-7.519	1.916	-3.454	16.185	11.521	17.870	18.335	14.649	8.592	12.469	8.503	-27.713	-14.021	-11.054	-11.383	-3.044	-8.007	1.024	2.848	-1.643	12.233	15.484	15.428	14.795	12.394	375.000
-17.461	-16.401	-16.909	-7.426	1.813	-3.414	16.086	11.589	17.785	18.080	14.134	8.057	12.550	8.442	-27.574	-13.859	-10.936	-11.490	-3.035	-7.837	1.019	2.818	-1.726	12.209	15.505	15.552	14.738	12.179	378.906
-17.284	-16.200	-16.744	-7.262	1.788	-3.357	15.951	11.565	17.572	17.717	13.421	7.407	12.659	8.451	-27.400	-13.654	-10.699	-11.632	-2.941	-7.596	1.109	2.860	-1.775	12.213	15.505	15.616	14.679	11.894	382.812
-17.069	-15.950	-16.552	-7.038	1.839	-3.293	15.794	11.438	17.255	17.288	12.609	6.745	12.795	8.528	-27.236	-13.425	-10.417	-11.817	-2.795	-7.302	1.285	2.969	-1.796	12.258	15.506	15.639	14.640	11.593	386.719
-16.839	-15.672	-16.354	-6.767	1.960	-3.227	15.628	11.208	16.863	16.838	11.811	6.180	12.947	8.662	-27.104	-13.186	-10.161	-12.041	-2.633	-6.978	1.530	3.128	-1.795	12.341	15.510	15.629	14.620	11.321	390.625
-16.603	-15.381	-16.163	-6.465	2.140	-3.157	15.456	10.883	16.427	16.404	11.140	5.804	13.092	8.831	-26.996	-12.941	-9.977	-12.286	-2.481	-6.641	1.822	3.318	-1.776	12.440	15.503	15.573	14.591	11.106	394.531
-16.357	-15.079	-15.983	-6.140	2.371	-3.082	15.274	10.482	15.974	16.010	10.671	5.666	13.196	9.004	-26.876	-12.683	-9.875	-12.516	-2.350	-6.296	2.136	3.519	-1.739	12.518	15.457	15.443	14.505	10.948	398.438
-16.083	-14.754	-15.805	-5.794	2.640	-2.993	15.068	10.029	15.520	15.652	10.428	5.753	13.218	9.152	-26.679	-12.388	-9.829	-12.686	-2.228	-5.937	2.456	3.715	-1.681	12.530	15.331	15.201	14.301	10.811	402.344
-15.748	-14.381	-15.605	-5.423	2.939	-2.882	14.815	9.551	15.065	15.302	10.367	5.990	13.117	9.246	-26.327	-12.023	-9.789	-12.743	-2.092	-5.542	2.773	3.897	-1.595	12.430	15.084	14.809	13.915	10.632	406.250
-15.319	-13.930	-15.352	-5.015	3.261	-2.738	14.489	9.078	14.599	14.909	10.394	6.255	12.859	9.265	-25.744	-11.558	-9.694	-12.644	-1.911	-5.084	3.085	4.065	-1.473	12.180	14.680	14.236	13.301	10.336	410.156
-14.763	-13.375	-15.009	-4.558	3.600	-2.552	14.068	8.634	14.105	14.418	10.383	6.411	12.424	9.201	-24.872	-10.971	-9.498	-12.361	-1.660	-4.544	3.398	4.223	-1.313	11.761	14.099	13.472	12.437	9.856	414.062
-14.068	-12.703	-14.548	-4.046	3.949	-2.316	13.540	8.241	13.567	13.782	10.219	6.346	11.813	9.057	-23.690	-10.263	-9.178	-11.897	-1.332	-3.915	3.715	4.378	-1.119	11.178	13.342	12.528	11.337	9.155	417.969
-13.243	-11.925	-13.955	-3.483	4.299	-2.029	12.911	7.911	12.981	12.989	9.829	6.003	11.055	8.848	-22.228	-9.465	-8.744	-11.288	-0.943	-3.218	4.037	4.530	-0.906	10.455	12.433	11.444	10.055	8.244	421.875
-12.324	-11.077	-13.239	-2.890	4.637	-1.698	12.211	7.652	12.361	12.064	9.206	5.398	10.201	8.594	-20.570	-8.632	-8.237	-10.598	-0.532	-2.498	4.351	4.673	-0.700	9.641	11.422	10.284	8.679	7.185	425.781
-11.376	-10.218	-12.434	-2.297	4.949	-1.338	11.489	7.462	11.741	11.079	8.415	4.615	9.322	8.320	-18.849	-7.846	-7.715	-9.910	-0.154	-1.821	4.636	4.793	-0.534	8.799	10.379	9.133	7.325	6.085	429.688
-10.480	-9.424	-11.599	-1.748	5.216	-0.970	10.810	7.338	11.170	10.136	7.573	3.786	8.497	8.051	-17.229	-7.191	-7.246	-9.311	0.132	-1.263	4.864	4.872	-0.437	8.002	9.387	8.082	6.116	5.070	433.594
-9.720	-8.768	-10.808	-1.288	5.425	-0.621	10.244	7.271	10.702	9.350	6.821	3.056	7.805	7.810	-15.878	-6.745	-6.887	-8.879	0.283	-0.890	5.008	4.891	-0.433	7.320	8.533	7.221	5.166	4.265	437.500
-9.173	-8.312	-10.138	-0.954	5.563	-0.321	9.850	7.251	10.383	8.823	6.286	2.551	7.311	7.614	-14.938	-6.558	-6.675	-8.663	0.276	-0.742	5.049	4.841	-0.527	6.813	7.891	6.620	4.563	3.767	441.406
-8.885	-8.094	-9.653	-0.771	5.624	-0.097	9.664	7.265	10.242	8.619	6.051	2.343	7.055	7.475	-14.500	-6.647	-6.625	-8.681	0.122	-0.830	4.982	4.724	-0.707	6.522	7.518	6.323	4.353	3.622	445.312
-8.871	-8.117	-9.394	-0.746	5.611	0.031	9.694	7.297	10.279	8.752	6.136	2.446	7.050	7.398	-14.584	-6.986	-6.724	-8.915	-0.140	-1.123	4.820	4.556	-0.944	6.464	7.435	6.338	4.533	3.822	449.219
-9.102	-8.350	-9.366	-0.865	5.530	0.052	9.914	7.329	10.466	9.179	6.499	2.814	7.280	7.382	-15.132	-7.513	-6.946	-9.317	-0.456	-1.560	4.592	4.365	-1.201	6.628	7.628	6.633	5.051	4.308	453.125
-9.514	-8.732	-9.537	-1.097	5.399	-0.031	10.272	7.343	10.748	9.812	7.050	3.357	7.701	7.417	-16.021	-8.141	-7.254	-9.816	-0.764	-2.062	4.335	4.184	-1.441	6.977	8.046	7.145	5.817	4.983	457.031
-10.018	-9.180	-9.843	-1.398	5.235	-0.204	10.694	7.318	11.056	10.538	7.677	3.967	8.252	7.489	-17.083	-8.772	-7.613	-10.334	-1.018	-2.546	4.087	4.041	-1.636	7.451	8.608	7.782	6.713	5.731	460.938
-10.510	-9.603	-10.196	-1.718	5.060	-0.438	11.104	7.239	11.319	11.235	8.269	4.545	8.859	7.578	-18.133	-9.314	-7.985	-10.803	-1.190	-2.941	3.881	3.952	-1.774	7.979	9.216	8.443	7.617	6.441	464.844
-10.892	-9.914	-10.498	-2.012	4.890	-0.700	11.429	7.094	11.473	11.800	8.742	5.017	9.449	7.660	-19.000	-9.695	-8.340	-11.171	-1.284	-3.204	3.733	3.920	-1.864	8.484	9.768	9.032	8.415	7.028	468.750
-11.086	-10.044	-10.663	-2.241	4.736	-0.954	11.615	6.877	11.478	12.163	9.049	5.348	9.956	7.709	-19.555	-9.870	-8.646	-11.415	-1.323	-3.321	3.641	3.925	-1.926	8.900	10.180	9.474	9.025	7.444	472.656
-11.045	-9.953	-10.622	-2.384	4.605	-1.164	11.630	6.593	11.319	12.296	9.191	5.547	10.325	7.701	-19.726	-9.830	-8.881	-11.534	-1.348	-3.312	3.584	3.936	-1.993	9.174	10.393	9.727	9.397	7.683	476.562
-10.761	-9.632	-10.343	-2.434	4.491	-1.305	11.467	6.256	11.013	12.208	9.200	5.648	10.519	7.613	-19.505	-9.600	-9.029	-11.550	-1.404	-3.223	3.528	3.912	-2.095	9.275	10.385	9.788	9.527	7.774	480.469
-10.261	-9.104	-9.826	-2.399	4.384	-1.361	11.140	5.888	10.597	11.939	9.131	5.699	10.518	7.425	-18.940	-9.226	-9.085	-11.490	-1.528	-3.112	3.433	3.812	-2.253	9.196	10.170	9.687	9.440	7.771	484.375
-9.604	-8.416	-9.109	-2.300	4.269	-1.331	10.676	5.516	10.123	11.547	9.039	5.742	10.315	7.126	-18.119	-8.773	-9.052	-11.378	-1.739	-3.038	3.259	3.609	-2.471	8.950	9.795	9.484	9.191	7.733	488.281
-8.865	-7.633	-8.256	-2.165	4.127	-1.231	10.112	5.165	9.644	11.086	8.961	5.795	9.920	6.712	-17.150	-8.302	-8.936	-11.222	-2.029	-3.046	2.982	3.299	-2.730	8.570	9.328	9.251	8.844	7.706	492.188
-8.126	-6.831	-7.347	-2.024	3.939	-1.087	9.482	4.856	9.205	10.597	8.911	5.849	9.350	6.193	-16.143	-7.867	-8.739	-11.015	-2.362	-3.160	2.595	2.903	-2.991	8.099	8.847	9.057	8.462	7.718	496.094
-7.463	-6.083	-6.467	-1.908	3.691	-0.933	8.819	4.605	8.836	10.104	8.872	5.871	8.633	5.586	-15.190	-7.504	-8.461	-10.739	-2.684	-3.377	2.113	2.465	-3.202	7.587	8.422	8.959	8.096	7.766	500.000
-6.935	-5.456	-5.692	-1.840	3.379	-0.802	8.146	4.414	8.548	9.607	8.806	5.810	7.805	4.925	-14.361	-7.225	-8.097	-10.370	-2.928	-3.667	1.573	2.049	-3.307	7.085	8.111	8.987	7.779	7.825	503.906
-6.580	-5.002	-5.085	-1.836	3.009	-0.722	7.487	4.285	8.340	9.095	8.667	5.619	6.908	4.250	-13.694	-7.027	-7.648	-9.895	-3.036	-3.987	1.027	1.724	-3.258	6.634	7.944	9.139	7.523	7.853	507.812
-6.409	-4.747	-4.679	-1.898	2.602	-0.703	6.863	4.211	8.199	8.551	8.416	5.266	5.988	3.605	-13.199	-6.889	-7.121	-9.317	-2.965	-4.283	0.533	1.548	-3.026	6.264	7.923	9.385	7.318	7.806	511.719
-6.407	-4.691	-4.484	-2.017	2.192	-0.740	6.296	4.186	8.107	7.967	8.031	4.748	5.092	3.035	-12.865	-6.789	-6.537	-8.659	-2.706	-4.507	0.144	1.557	-2.609	5.989	8.023	9.670	7.142	7.648	515.625
-6.539	-4.807	-4.476	-2.168	1.820	-0.811	5.813	4.203	8.048	7.350	7.522	4.099	4.268	2.575	-12.668	-6.704	-5.930	-7.966	-2.281	-4.625	-0.103	1.756	-2.033	5.806	8.197	9.928	6.965	7.364	519.531
-6.757	-5.045	-4.610	-2.317	1.530	-0.881	5.440	4.257	8.011	6.725	6.925	3.383	3.559	2.250	-12.576	-6.617	-5.343	-7.294	-1.744	-4.621	-0.189	2.115	-1.353	5.696	8.386	10.092	6.758	6.958	523.438
-7.006	-5.345	-4.823	-2.428	1.364	-0.912	5.198	4.342	7.987	6.138	6.303	2.686	2.997	2.068	-12.559	-6.523	-4.821	-6.704	-1.169	-4.500	-0.122	2.578	-0.643	5.630	8.529	10.106	6.499	6.459	527.344
-7.235	-5.645	-5.046	-2.466	1.349	-0.868	5.106	4.451	7.973	5.641	5.733	2.100	2.607	2.023	-12.594	-6.423	-4.398	-6.250	-0.633	-4.283	0.072	3.073	0.020	5.575	8.575	9.937	6.180	5.911	531.250
-7.404	-5.892	-5.218	-2.411	1.496	-0.727	5.166	4.573	7.969	5.290	5.289	1.703	2.398	2.095	-12.661	-6.328	-4.095	-5.968	-0.202	-4.006	0.352	3.530	0.566	5.502	8.493	9.576	5.806	5.368	535.156
-7.486	-6.052	-5.296	-2.252	1.794	-0.482	5.371	4.694	7.971	5.126	5.029	1.545	2.372	2.255	-12.748	-6.247	-3.915	-5.875	0.082	-3.706	0.672	3.889	0.945	5.395	8.275	9.045	5.398	4.883	539.062
-7.475	-6.110	-5.264	-1.998	2.212	-0.144	5.694	4.795	7.974	5.166	4.983	1.643	2.516	2.472	-12.848	-6.190	-3.850	-5.961	0.206	-3.420	0.986	4.116	1.137	5.251	7.941	8.391	4.990	4.499	542.969
-7.380	-6.070	-5.134	-1.671	2.706	0.259	6.100	4.859	7.969	5.405	5.150	1.974	2.811	2.718	-12.954	-6.167	-3.890	-6.198	0.179	-3.180	1.258	4.201	1.146	5.084	7.531	7.680	4.621	4.250	546.875
-7.223	-5.951	-4.935	-1.301	3.221	0.690	6.544	4.867	7.946	5.807	5.496	2.484	3.232	2.967	-13.059	-6.182	-4.024	-6.539	0.027	-3.010	1.467	4.156	1.002	4.919	7.098	6.986	4.331	4.149	550.781
-7.031	-5.780	-4.710	-0.923	3.707	1.111	6.977	4.810	7.891	6.313	5.964	3.101	3.750	3.203	-13.149	-6.236	-4.245	-6.927	-0.219	-2.921	1.604	4.009	0.748	4.785	6.698	6.379	4.150	4.193	554.688
-6.828	-5.582	-4.496	-0.571	4.120	1.490	7.355	4.682	7.793	6.853	6.478	3.741	4.330	3.416	-13.204	-6.326	-4.540	-7.300	-0.526	-2.917	1.672	3.795	0.435	4.709	6.372	5.908	4.093	4.356	558.594
-6.628	-5.374	-4.314	-0.269	4.434	1.804	7.640	4.488	7.641	7.347	6.957	4.322	4.931	3.601	-13.194	-6.441	-4.889	-7.596	-0.866	-2.985	1.687	3.550	0.115	4.704	6.140	5.594	4.150	4.594	562.500
-6.429	-5.162	-4.165	-0.027	4.640	2.042	7.803	4.237	7.425	7.721	7.321	4.773	5.510	3.757	-13.082	-6.561	-5.254	-7.763	-1.212	-3.102	1.669	3.307	-0.169	4.765	5.997	5.424	4.289	4.851	566.406
-6.216	-4.939	-4.028	0.158	4.748	2.205	7.829	3.940	7.135	7.915	7.505	5.038	6.025	3.884	-12.828	-6.655	-5.580	-7.765	-1.539	-3.236	1.642	3.094	-0.385	4.874	5.915	5.356	4.455	5.062	570.312
-5.965	-4.691	-3.871	0.302	4.780	2.302	7.715	3.614	6.768	7.890	7.465	5.084	6.434	3.985	-12.405	-6.689	-5.808	-7.590	-1.821	-3.346	1.631	2.931	-0.512	4.998	5.848	5.328	4.584	5.168	574.219
-5.653	-4.404	-3.663	0.429	4.765	2.348	7.476	3.274	6.331	7.636	7.188	4.903	6.710	4.067	-11.803	-6.626	-5.877	-7.256	-2.028	-3.392	1.657	2.833	-0.546	5.103	5.752	5.272	4.615	5.123	578.125
-5.269	-4.071	-3.387	0.562	4.733	2.355	7.139	2.942	5.839	7.171	6.690	4.512	6.838	4.136	-11.042	-6.440	-5.750	-6.810	-2.135	-3.344	1.735	2.806	-0.498	5.158	5.589	5.135	4.502	4.909	582.031
-4.817	-3.696	-3.043	0.721	4.708	2.337	6.742	2.638	5.323	6.543	6.018	3.952	6.822	4.201	-10.171	-6.122	-5.419	-6.321	-2.126	-3.183	1.875	2.848	-0.391	5.143	5.342	4.886	4.227	4.532	585.938
-4.317	-3.294	-2.652	0.913	4.706	2.303	6.330	2.385	4.821	5.815	5.239	3.278	6.679	4.269	-9.260	-5.682	-4.911	-5.869	-2.000	-2.909	2.073	2.951	-0.256	5.054	5.013	4.524	3.799	4.024	589.844
-3.803	-2.886	-2.243	1.134	4.732	2.260	5.942	2.206	4.376	5.062	4.431	2.552	6.434	4.342	-8.384	-5.149	-4.288	-5.521	-1.775	-2.544	2.318	3.095	-0.127	4.899	4.626	4.078	3.256	3.435	593.750
-3.310	-2.495	-1.847	1.367	4.777	2.214	5.609	2.117	4.027	4.346	3.664	1.830	6.113	4.415	-7.609	-4.569	-3.628	-5.320	-1.488	-2.124	2.585	3.254	-0.030	4.696	4.216	3.597	2.652	2.818	597.656
-2.872	-2.136	-1.490	1.592	4.828	2.170	5.341	2.125	3.798	3.715	2.993	1.155	5.734	4.472	-6.977	-3.991	-3.006	-5.272	-1.185	-1.695	2.845	3.403	0.018	4.463	3.822	3.141	2.043	2.222	601.562
-2.508	-1.816	-1.183	1.785	4.864	2.133	5.130	2.227	3.700	3.189	2.451	0.551	5.303	4.492	-6.495	-3.460	-2.482	-5.346	-0.912	-1.301	3.065	3.516	0.017	4.217	3.476	2.765	1.474	1.680	605.469
-2.225	-1.532	-0.927	1.926	4.866	2.108	4.951	2.407	3.720	2.761	2.042	0.017	4.813	4.447	-6.134	-3.009	-2.078	-5.475	-0.702	-0.981	3.216	3.578	-0.019	3.966	3.200	2.504	0.972	1.209	609.375
-2.009	-1.268	-0.706	2.005	4.819	2.101	4.768	2.638	3.829	2.403	1.746	-0.462	4.250	4.312	-5.840	-2.652	-1.785	-5.577	-0.568	-0.754	3.279	3.583	-0.065	3.709	2.996	2.372	0.541	0.803	613.281
-1.834	-1.002	-0.495	2.026	4.715	2.115	4.548	2.886	3.984	2.076	1.528	-0.917	3.602	4.068	-5.541	-2.381	-1.564	-5.569	-0.502	-0.621	3.246	3.535	-0.092	3.434	2.850	2.353	0.167	0.443	617.188
-1.665	-0.711	-0.266	2.003	4.559	2.155	4.268	3.116	4.138	1.744	1.343	-1.377	2.865	3.712	-5.171	-2.174	-1.364	-5.392	-0.480	-0.568	3.126	3.451	-0.075	3.129	2.733	2.405	-0.178	0.102	621.094
-1.466	-0.374	0.008	1.959	4.363	2.222	3.924	3.298	4.248	1.387	1.157	-1.859	2.055	3.256	-4.683	-1.999	-1.139	-5.020	-0.473	-0.564	2.941	3.348	0.001	2.783	2.608	2.469	-0.521	-0.246	625.000
-1.212	0.015	0.340	1.922	4.143	2.315	3.532	3.414	4.283	1.005	0.947	-2.367	1.211	2.732	-4.062	-1.828	-0.861	-4.467	-0.453	-0.578	2.720	3.249	0.134	2.397	2.440	2.482	-0.879	-0.616	628.906
-0.891	0.448	0.731	1.913	3.919	2.431	3.129	3.455	4.227	0.622	0.710	-2.882	0.390	2.185	-3.324	-1.640	-0.533	-3.786	-0.409	-0.583	2.496	3.171	0.309	1.984	2.203	2.390	-1.255	-1.010	632.812
-0.510	0.899	1.163	1.944	3.708	2.561	2.757	3.425	4.081	0.274	0.458	-3.369	-0.337	1.668	-2.512	-1.432	-0.182	-3.055	-0.341	-0.563	2.300	3.127	0.503	1.572	1.885	2.157	-1.634	-1.415	636.719
-0.087	1.331	1.610	2.013	3.521	2.695	2.456	3.334	3.854	0.001	0.218	-3.789	-0.904	1.228	-1.678	-1.214	0.147	-2.354	-0.262	-0.519	2.150	3.121	0.687	1.192	1.489	1.771	-1.990	-1.807	640.625
0.352	1.709	2.042	2.107	3.365	2.824	2.253	3.194	3.564	-0.169	0.013	-4.103	-1.260	0.902	-0.873	-1.006	0.409	-1.755	-0.193	-0.460	2.053	3.150	0.836	0.876	1.032	1.246	-2.297	-2.159	644.531
0.781	2.006	2.431	2.207	3.245	2.941	2.154	3.015	3.228	-0.226	-0.138	-4.289	-1.382	0.706	-0.133	-0.829	0.574	-1.299	-0.152	-0.407	2.002	3.198	0.932	0.644	0.538	0.616	-2.536	-2.450	648.438
1.181	2.211	2.761	2.297	3.162	3.042	2.146	2.803	2.864	-0.188	-0.231	-4.340	-1.282	0.633	0.526	-0.698	0.641	-0.997	-0.150	-0.377	1.980	3.243	0.968	0.500	0.035	-0.067	-2.703	-2.666	652.344
1.540	2.334	3.029	2.366	3.119	3.128	2.197	2.564	2.487	-0.092	-0.277	-4.273	-1.006	0.658	1.103	-0.616	0.638	-0.832	-0.183	-0.381	1.966	3.260	0.942	0.426	-0.449	-0.747	-2.807	-2.807	656.250
1.856	2.400	3.239	2.416	3.120	3.204	2.267	2.302	2.110	0.013	-0.300	-4.116	-0.622	0.738	1.607	-0.573	0.613	-0.767	-0.232	-0.417	1.940	3.229	0.861	0.392	-0.889	-1.368	-2.873	-2.878	660.156
2.133	2.446	3.405	2.459	3.164	3.277	2.319	2.024	1.747	0.075	-0.326	-3.911	-0.210	0.831	2.051	-0.545	0.622	-0.762	-0.272	-0.469	1.892	3.136	0.735	0.360	-1.269	-1.884	-2.933	-2.897	664.062
2.381	2.512	3.544	2.513	3.251	3.354	2.322	1.737	1.407	0.052	-0.383	-3.700	0.154	0.898	2.449	-0.501	0.709	-0.780	-0.277	-0.510	1.824	2.979	0.576	0.294	-1.579	-2.268	-3.017	-2.881	667.969
2.613	2.634	3.675	2.601	3.374	3.438	2.257	1.449	1.093	-0.081	-0.492	-3.525	0.412	0.914	2.812	-0.408	0.894	-0.796	-0.229	-0.508	1.748	2.775	0.398	0.170	-1.816	-2.507	-3.148	-2.850	671.875
2.846	2.838	3.813	2.741	3.521	3.526	2.118	1.162	0.804	-0.330	-0.662	-3.419	0.527	0.872	3.151	-0.240	1.174	-0.800	-0.126	-0.435	1.686	2.551	0.216	-0.017	-1.985	-2.612	-3.335	-2.825	675.781
3.094	3.134	3.970	2.940	3.673	3.610	1.908	0.873	0.529	-0.684	-0.895	-3.405	0.495	0.781	3.478	0.019	1.521	-0.794	0.020	-0.271	1.660	2.346	0.047	-0.254	-2.095	-2.607	-3.571	-2.820	679.688
3.363	3.514	4.151	3.193	3.811	3.678	1.638	0.570	0.252	-1.117	-1.177	-3.493	0.336	0.665	3.799	0.366	1.902	-0.781	0.188	-0.016	1.688	2.199	-0.091	-0.508	-2.152	-2.521	-3.833	-2.844	683.594
3.653	3.948	4.349	3.479	3.915	3.712	1.323	0.241	-0.045	-1.593	-1.491	-3.674	0.091	0.554	4.114	0.781	2.280	-0.768	0.354	0.311	1.777	2.145	-0.180	-0.737	-2.163	-2.388	-4.088	-2.896	687.500
3.944	4.392	4.542	3.765	3.971	3.699	0.984	-0.124	-0.371	-2.072	-1.807	-3.924	-0.184	0.478	4.411	1.224	2.628	-0.757	0.495	0.675	1.922	2.202	-0.206	-0.897	-2.127	-2.232	-4.294	-2.967	691.406
4.209	4.789	4.701	4.011	3.969	3.628	0.646	-0.521	-0.722	-2.511	-2.098	-4.200	-0.432	0.464	4.665	1.643	2.926	-0.747	0.599	1.028	2.105	2.372	-0.166	-0.947	-2.043	-2.070	-4.411	-3.039	695.312
4.410	5.081	4.792	4.177	3.910	3.497	0.339	-0.932	-1.078	-2.869	-2.330	-4.451	-0.600	0.526	4.843	1.982	3.155	-0.732	0.660	1.319	2.300	2.632	-0.063	-0.864	-1.908	-1.908	-4.411	-3.087	699.219
4.510	5.223	4.784	4.232	3.799	3.315	0.094	-1.321	-1.405	-3.112	-2.478	-4.627	-0.648	0.666	4.912	2.191	3.295	-0.709	0.673	1.505	2.478	2.940	0.084	-0.647	-1.722	-1.747	-4.277	-3.089	703.125
4.483	5.185	4.662	4.154	3.646	3.098	-0.059	-1.640	-1.660	-3.212	-2.520	-4.683	-0.558	0.872	4.850	2.236	3.322	-0.674	0.637	1.561	2.610	3.244	0.245	-0.317	-1.497	-1.585	-4.015	-3.027	707.031
4.322	4.966	4.430	3.944	3.461	2.867	-0.097	-1.840	-1.798	-3.157	-2.447	-4.592	-0.334	1.120	4.654	2.107	3.210	-0.629	0.544	1.481	2.675	3.485	0.384	0.080	-1.252	-1.424	-3.652	-2.892	710.938
4.042	4.596	4.112	3.622	3.256	2.646	-0.009	-1.885	-1.788	-2.945	-2.259	-4.352	-0.002	1.377	4.345	1.823	2.944	-0.581	0.386	1.286	2.664	3.609	0.464	0.485	-1.020	-1.274	-3.234	-2.690	714.844
3.684	4.128	3.752	3.226	3.040	2.456	0.202	-1.756	-1.616	-2.593	-1.972	-3.982	0.394	1.606	3.968	1.433	2.528	-0.542	0.158	1.019	2.579	3.578	0.454	0.830	-0.839	-1.153	-2.820	-2.442	718.750
3.306	3.636	3.406	2.813	2.824	2.312	0.513	-1.463	-1.290	-2.132	-1.609	-3.522	0.800	1.774	3.584	1.003	1.994	-0.526	-0.137	0.735	2.436	3.374	0.337	1.051	-0.747	-1.085	-2.471	-2.177	722.656
2.973	3.196	3.127	2.441	2.617	2.221	0.887	-1.043	-0.840	-1.603	-1.203	-3.026	1.161	1.853	3.255	0.608	1.405	-0.545	-0.483	0.490	2.254	3.007	0.113	1.101	-0.773	-1.096	-2.242	-1.931	726.562
2.739	2.874	2.960	2.162	2.428	2.180	1.272	-0.554	-0.317	-1.058	-0.788	-2.549	1.430	1.823	3.039	0.315	0.841	-0.608	-0.852	0.329	2.058	2.507	-0.195	0.958	-0.931	-1.202	-2.170	-1.731	730.469
2.641	2.710	2.925	2.007	2.261	2.180	1.615	-0.065	0.219	-0.546	-0.394	-2.134	1.572	1.680	2.968	0.165	0.386	-0.711	-1.203	0.276	1.865	1.926	-0.549	0.632	-1.209	-1.402	-2.263	-1.593	734.375
2.684	2.710	3.018	1.981	2.114	2.205	1.863	0.357	0.708	-0.112	-0.045	-1.810	1.572	1.429	3.052	0.168	0.101	-0.840	-1.498	0.324	1.685	1.327	-0.898	0.162	-1.570	-1.669	-2.496	-1.510	738.281
2.843	2.843	3.213	2.058	1.974	2.238	1.975	0.656	1.096	0.209	0.245	-1.579	1.436	1.087	3.268	0.292	0.006	-0.967	-1.704	0.441	1.516	0.779	-1.191	-0.387	-1.959	-1.956	-2.816	-1.458	742.188
3.066	3.053	3.463	2.186	1.828	2.258	1.929	0.798	1.346	0.399	0.473	-1.429	1.189	0.680	3.574	0.482	0.082	-1.062	-1.808	0.575	1.349	0.340	-1.383	-0.933	-2.307	-2.199	-3.149	-1.399	746.094
3.292	3.266	3.715	2.307	1.656	2.252	1.721	0.772	1.438	0.456	0.641	-1.330	0.871	0.241	3.911	0.664	0.267	-1.097	-1.813	0.666	1.168	0.054	-1.446	-1.393	-2.545	-2.330	-3.414	-1.289	750.000
3.460	3.414	3.918	2.361	1.445	2.209	1.372	0.592	1.373	0.392	0.759	-1.254	0.530	-0.195	4.222	0.771	0.481	-1.055	-1.737	0.666	0.963	-0.054	-1.370	-1.696	-2.622	-2.295	-3.541	-1.094	753.906
3.525	3.448	4.033	2.308	1.187	2.124	0.917	0.287	1.171	0.230	0.835	-1.176	0.211	-0.596	4.458	0.760	0.645	-0.932	-1.609	0.548	0.728	0.012	-1.171	-1.796	-2.510	-2.067	-3.484	-0.799	757.812
3.468	3.347	4.039	2.131	0.885	1.995	0.403	-0.102	0.861	0.003	0.876	-1.082	-0.048	-0.932	4.589	0.618	0.701	-0.740	-1.460	0.314	0.470	0.226	-0.879	-1.680	-2.214	-1.648	-3.232	-0.413	761.719
3.297	3.120	3.932	1.838	0.551	1.822	-0.121	-0.536	0.482	-0.256	0.887	-0.970	-0.222	-1.185	4.607	0.368	0.631	-0.498	-1.314	-0.005	0.208	0.544	-0.534	-1.367	-1.764	-1.079	-2.806	0.033	765.625
3.038	2.801	3.723	1.455	0.199	1.606	-0.608	-0.978	0.073	-0.517	0.871	-0.843	-0.298	-1.345	4.521	0.062	0.461	-0.230	-1.186	-0.356	-0.033	0.909	-0.182	-0.902	-1.215	-0.418	-2.253	0.494	769.531
2.730	2.434	3.431	1.015	-0.159	1.341	-1.025	-1.402	-0.328	-0.752	0.834	-0.710	-0.279	-1.411	4.350	-0.236	0.251	0.046	-1.079	-0.675	-0.222	1.263	0.138	-0.344	-0.624	0.264	-1.634	0.922	773.438
2.412	2.062	3.077	0.551	-0.514	1.022	-1.349	-1.793	-0.692	-0.942	0.783	-0.577	-0.173	-1.389	4.121	-0.462	0.080	0.316	-0.989	-0.903	-0.335	1.556	0.397	0.248	-0.046	0.904	-1.004	1.278	777.344
2.116	1.718	2.682	0.088	-0.868	0.640	-1.575	-2.150	-1.001	-1.077	0.727	-0.447	0.003	-1.294	3.855	-0.571	0.021	0.577	-0.906	-1.000	-0.354	1.755	0.582	0.824	0.480	1.459	-0.409	1.541	781.250
1.859	1.419	2.259	-0.361	-1.223	0.192	-1.712	-2.478	-1.248	-1.157	0.675	-0.319	0.233	-1.140	3.573	-0.539	0.125	0.829	-0.820	-0.948	-0.276	1.848	0.693	1.355	0.937	1.909	0.129	1.710	785.156
1.646	1.168	1.823	-0.792	-1.587	-0.319	-1.781	-2.788	-1.439	-1.190	0.635	-0.192	0.497	-0.948	3.286	-0.372	0.404	1.077	-0.722	-0.757	-0.112	1.841	0.741	1.829	1.325	2.261	0.606	1.799	789.062
1.472	0.956	1.383	-1.207	-1.963	-0.881	-1.810	-3.093	-1.590	-1.191	0.608	-0.064	0.778	-0.738	3.003	-0.101	0.835	1.323	-0.608	-0.461	0.114	1.761	0.749	2.254	1.660	2.538	1.032	1.834	792.969
1.324	0.771	0.946	-1.611	-2.349	-1.473	-1.828	-3.404	-1.724	-1.180	0.589	0.065	1.058	-0.526	2.730	0.232	1.362	1.572	-0.480	-0.107	0.371	1.642	0.741	2.645	1.966	2.775	1.428	1.843	796.875
