FP1	F3	F7	FC3	C3	C5	P3	P7	PO7	PO3	O1	Oz	Pz	CPz	FP2	Fz	F4	F8	FC4	FCz	Cz	C4	C6	P4	P8	PO8	PO4	O2	time
-0.203	-0.645	0.967	-1.038	-1.913	-0.661	-1.299	-0.484	-0.635	-0.808	-0.278	-0.996	-0.184	-1.050	0.265	-0.199	0.404	1.394	0.380	-0.573	-1.399	-0.060	1.433	0.229	0.698	1.100	0.406	0.326	-199.219
-0.153	-0.382	0.908	-1.138	-2.206	-0.780	-1.641	-0.502	-0.663	-0.960	-0.249	-0.913	-0.517	-1.466	0.475	-0.203	0.310	1.556	0.111	-0.675	-1.603	-0.289	1.521	0.172	0.829	1.387	0.648	0.602	-195.312
-0.075	-0.094	0.882	-1.163	-2.428	-0.853	-1.967	-0.546	-0.711	-1.118	-0.234	-0.846	-0.846	-1.844	0.692	-0.177	0.224	1.687	-0.137	-0.726	-1.755	-0.495	1.596	0.093	0.927	1.622	0.838	0.829	-191.406
0.054	0.238	0.913	-1.058	-2.518	-0.847	-2.261	-0.638	-0.794	-1.282	-0.248	-0.812	-1.161	-2.144	0.917	-0.096	0.160	1.767	-0.347	-0.690	-1.813	-0.658	1.645	-0.021	0.964	1.760	0.933	0.965	-187.500
0.245	0.617	1.013	-0.799	-2.440	-0.744	-2.505	-0.787	-0.921	-1.454	-0.305	-0.824	-1.450	-2.336	1.155	0.049	0.131	1.783	-0.505	-0.543	-1.749	-0.762	1.657	-0.174	0.922	1.771	0.907	0.981	-183.594
0.499	1.035	1.182	-0.391	-2.187	-0.544	-2.685	-0.987	-1.092	-1.629	-0.417	-0.889	-1.701	-2.402	1.403	0.257	0.141	1.730	-0.602	-0.286	-1.556	-0.797	1.628	-0.360	0.793	1.640	0.755	0.866	-179.688
0.801	1.467	1.405	0.129	-1.777	-0.267	-2.787	-1.219	-1.296	-1.797	-0.585	-1.009	-1.898	-2.336	1.653	0.512	0.190	1.613	-0.639	0.063	-1.245	-0.762	1.555	-0.560	0.586	1.376	0.492	0.628	-175.781
1.124	1.875	1.652	0.700	-1.250	0.054	-2.798	-1.452	-1.511	-1.942	-0.803	-1.177	-2.020	-2.140	1.890	0.787	0.265	1.446	-0.620	0.465	-0.843	-0.664	1.440	-0.746	0.320	1.004	0.153	0.295	-171.875
1.430	2.216	1.881	1.248	-0.662	0.378	-2.706	-1.652	-1.710	-2.041	-1.052	-1.377	-2.048	-1.825	2.089	1.046	0.345	1.246	-0.559	0.873	-0.389	-0.519	1.287	-0.886	0.027	0.569	-0.212	-0.092	-167.969
1.678	2.449	2.044	1.703	-0.069	0.662	-2.506	-1.789	-1.865	-2.070	-1.299	-1.584	-1.963	-1.408	2.220	1.254	0.406	1.031	-0.469	1.237	0.077	-0.345	1.102	-0.948	-0.254	0.123	-0.549	-0.482	-164.062
1.827	2.538	2.096	2.009	0.470	0.866	-2.199	-1.840	-1.948	-2.010	-1.510	-1.770	-1.753	-0.911	2.249	1.377	0.426	0.816	-0.364	1.512	0.515	-0.159	0.894	-0.907	-0.481	-0.280	-0.807	-0.822	-160.156
1.849	2.464	2.003	2.130	0.912	0.964	-1.797	-1.795	-1.943	-1.849	-1.648	-1.902	-1.419	-0.365	2.150	1.395	0.391	0.608	-0.256	1.668	0.893	0.024	0.678	-0.751	-0.620	-0.591	-0.945	-1.067	-156.250
1.731	2.227	1.751	2.062	1.227	0.944	-1.323	-1.659	-1.843	-1.586	-1.684	-1.955	-0.974	0.200	1.907	1.302	0.302	0.408	-0.149	1.694	1.191	0.194	0.470	-0.484	-0.647	-0.779	-0.942	-1.189	-152.344
1.479	1.847	1.352	1.827	1.405	0.811	-0.806	-1.450	-1.654	-1.234	-1.605	-1.912	-0.446	0.749	1.523	1.109	0.170	0.213	-0.045	1.600	1.398	0.349	0.288	-0.124	-0.557	-0.833	-0.796	-1.180	-148.438
1.121	1.366	0.843	1.472	1.455	0.589	-0.282	-1.194	-1.395	-0.820	-1.413	-1.769	0.128	1.251	1.021	0.844	0.012	0.016	0.057	1.413	1.519	0.491	0.147	0.298	-0.364	-0.765	-0.528	-1.053	-144.531
0.702	0.836	0.279	1.058	1.404	0.315	0.216	-0.918	-1.092	-0.376	-1.128	-1.539	0.704	1.680	0.442	0.541	-0.153	-0.188	0.156	1.173	1.567	0.622	0.058	0.742	-0.097	-0.608	-0.179	-0.843	-140.625
0.272	0.317	-0.276	0.650	1.289	0.035	0.661	-0.650	-0.778	0.061	-0.785	-1.244	1.239	2.018	-0.160	0.242	-0.310	-0.403	0.250	0.922	1.562	0.749	0.027	1.164	0.202	-0.407	0.202	-0.592	-136.719
-0.119	-0.138	-0.762	0.304	1.150	-0.205	1.032	-0.412	-0.482	0.455	-0.425	-0.914	1.697	2.258	-0.731	-0.016	-0.450	-0.624	0.336	0.700	1.527	0.873	0.048	1.527	0.488	-0.211	0.561	-0.346	-132.812
-0.431	-0.488	-1.134	0.058	1.021	-0.368	1.316	-0.218	-0.231	0.775	-0.089	-0.580	2.049	2.399	-1.217	-0.208	-0.565	-0.845	0.413	0.534	1.481	0.995	0.110	1.799	0.721	-0.063	0.853	-0.146	-128.906
-0.638	-0.708	-1.368	-0.071	0.927	-0.431	1.509	-0.074	-0.041	1.002	0.189	-0.269	2.277	2.448	-1.580	-0.316	-0.650	-1.049	0.479	0.439	1.437	1.107	0.192	1.961	0.868	0.009	1.042	-0.016	-125.000
-0.730	-0.794	-1.461	-0.089	0.874	-0.389	1.610	0.021	0.080	1.126	0.385	0.001	2.373	2.412	-1.790	-0.336	-0.695	-1.221	0.537	0.411	1.399	1.199	0.272	2.003	0.914	-0.007	1.108	0.031	-121.094
-0.711	-0.752	-1.425	-0.021	0.856	-0.257	1.627	0.074	0.135	1.148	0.493	0.223	2.339	2.299	-1.837	-0.277	-0.691	-1.340	0.588	0.436	1.362	1.253	0.324	1.922	0.853	-0.108	1.048	0.002	-117.188
-0.595	-0.602	-1.284	0.103	0.854	-0.060	1.570	0.098	0.136	1.083	0.521	0.395	2.181	2.114	-1.722	-0.152	-0.628	-1.388	0.633	0.491	1.313	1.249	0.326	1.724	0.693	-0.273	0.872	-0.089	-113.281
-0.401	-0.368	-1.061	0.246	0.844	0.164	1.455	0.105	0.103	0.953	0.491	0.523	1.915	1.861	-1.463	0.018	-0.504	-1.356	0.669	0.550	1.233	1.167	0.263	1.421	0.452	-0.477	0.604	-0.217	-109.375
-0.158	-0.081	-0.784	0.378	0.804	0.380	1.303	0.111	0.061	0.788	0.432	0.619	1.560	1.547	-1.092	0.207	-0.330	-1.240	0.686	0.589	1.107	0.992	0.127	1.031	0.153	-0.686	0.277	-0.353	-105.469
0.101	0.223	-0.478	0.477	0.719	0.555	1.135	0.130	0.037	0.622	0.377	0.692	1.146	1.179	-0.660	0.390	-0.127	-1.051	0.666	0.589	0.924	0.719	-0.079	0.580	-0.169	-0.866	-0.068	-0.470	-101.562
0.340	0.501	-0.168	0.527	0.586	0.665	0.973	0.173	0.056	0.487	0.357	0.756	0.704	0.772	-0.228	0.536	0.068	-0.809	0.592	0.537	0.682	0.355	-0.340	0.101	-0.480	-0.984	-0.388	-0.539	-97.656
0.518	0.708	0.119	0.522	0.412	0.698	0.838	0.247	0.137	0.410	0.391	0.821	0.271	0.347	0.138	0.618	0.215	-0.544	0.448	0.428	0.391	-0.077	-0.631	-0.367	-0.739	-1.012	-0.637	-0.539	-93.750
0.601	0.801	0.359	0.458	0.214	0.655	0.741	0.352	0.286	0.405	0.486	0.895	-0.118	-0.069	0.380	0.612	0.277	-0.286	0.230	0.263	0.069	-0.541	-0.918	-0.781	-0.910	-0.929	-0.780	-0.455	-89.844
0.562	0.746	0.525	0.335	0.014	0.549	0.688	0.482	0.499	0.474	0.632	0.980	-0.434	-0.448	0.457	0.504	0.229	-0.063	-0.052	0.045	-0.261	-0.991	-1.167	-1.102	-0.964	-0.725	-0.793	-0.280	-85.938
0.393	0.531	0.599	0.158	-0.167	0.398	0.674	0.624	0.757	0.604	0.810	1.076	-0.659	-0.766	0.355	0.289	0.069	0.102	-0.371	-0.213	-0.572	-1.381	-1.344	-1.302	-0.887	-0.405	-0.671	-0.024	-82.031
0.105	0.168	0.571	-0.063	-0.311	0.226	0.685	0.764	1.031	0.767	0.990	1.177	-0.787	-1.007	0.092	-0.018	-0.183	0.202	-0.692	-0.499	-0.845	-1.670	-1.427	-1.369	-0.681	0.012	-0.427	0.297	-78.125
-0.272	-0.303	0.442	-0.314	-0.410	0.054	0.701	0.884	1.284	0.928	1.142	1.274	-0.829	-1.163	-0.288	-0.390	-0.482	0.239	-0.972	-0.793	-1.065	-1.832	-1.406	-1.310	-0.369	0.489	-0.095	0.650	-74.219
-0.691	-0.820	0.227	-0.572	-0.464	-0.101	0.702	0.971	1.483	1.052	1.238	1.353	-0.804	-1.240	-0.718	-0.783	-0.772	0.232	-1.171	-1.072	-1.224	-1.853	-1.284	-1.150	0.008	0.978	0.276	0.997	-70.312
-1.096	-1.313	-0.048	-0.813	-0.479	-0.231	0.668	1.016	1.601	1.105	1.260	1.403	-0.740	-1.251	-1.128	-1.149	-0.994	0.201	-1.261	-1.312	-1.322	-1.739	-1.077	-0.926	0.400	1.421	0.633	1.297	-66.406
-1.435	-1.715	-0.350	-1.014	-0.471	-0.332	0.586	1.014	1.619	1.069	1.199	1.413	-0.664	-1.216	-1.449	-1.440	-1.102	0.173	-1.226	-1.490	-1.360	-1.504	-0.810	-0.681	0.751	1.765	0.920	1.512	-62.500
-1.666	-1.978	-0.642	-1.158	-0.453	-0.407	0.455	0.968	1.538	0.941	1.061	1.378	-0.598	-1.150	-1.631	-1.620	-1.070	0.165	-1.066	-1.588	-1.344	-1.173	-0.514	-0.456	1.012	1.962	1.093	1.614	-58.594
-1.765	-2.081	-0.893	-1.239	-0.438	-0.459	0.283	0.889	1.372	0.736	0.865	1.299	-0.553	-1.067	-1.649	-1.667	-0.898	0.185	-0.800	-1.597	-1.278	-0.774	-0.222	-0.282	1.147	1.981	1.123	1.588	-54.688
-1.729	-2.032	-1.082	-1.259	-0.431	-0.491	0.091	0.792	1.148	0.485	0.640	1.183	-0.528	-0.972	-1.506	-1.580	-0.614	0.229	-0.460	-1.517	-1.167	-0.341	0.034	-0.176	1.136	1.814	1.002	1.438	-50.781
-1.573	-1.862	-1.197	-1.225	-0.427	-0.502	-0.089	0.697	0.903	0.231	0.417	1.045	-0.511	-0.860	-1.230	-1.377	-0.262	0.278	-0.090	-1.361	-1.015	0.091	0.225	-0.140	0.980	1.469	0.742	1.181	-46.875
-1.328	-1.615	-1.242	-1.147	-0.413	-0.487	-0.225	0.621	0.675	0.016	0.229	0.898	-0.482	-0.723	-0.868	-1.091	0.107	0.306	0.267	-1.146	-0.827	0.485	0.325	-0.160	0.698	0.980	0.374	0.845	-42.969
-1.031	-1.338	-1.227	-1.034	-0.370	-0.443	-0.283	0.578	0.494	-0.124	0.094	0.757	-0.419	-0.547	-0.479	-0.762	0.446	0.286	0.570	-0.898	-0.606	0.808	0.317	-0.214	0.323	0.391	-0.057	0.464	-39.062
-0.717	-1.066	-1.165	-0.891	-0.278	-0.366	-0.239	0.573	0.381	-0.167	0.022	0.630	-0.303	-0.322	-0.119	-0.432	0.721	0.194	0.794	-0.640	-0.357	1.035	0.197	-0.276	-0.102	-0.243	-0.500	0.073	-35.156
-0.418	-0.824	-1.074	-0.723	-0.124	-0.261	-0.086	0.602	0.340	-0.110	0.004	0.523	-0.126	-0.042	0.164	-0.135	0.909	0.021	0.930	-0.394	-0.088	1.154	-0.026	-0.318	-0.528	-0.862	-0.903	-0.297	-31.250
-0.157	-0.622	-0.966	-0.535	0.095	-0.138	0.170	0.652	0.365	0.036	0.023	0.437	0.110	0.287	0.335	0.101	1.004	-0.225	0.981	-0.174	0.192	1.165	-0.328	-0.318	-0.911	-1.414	-1.219	-0.623	-27.344
0.048	-0.461	-0.854	-0.330	0.364	-0.013	0.505	0.709	0.441	0.244	0.058	0.372	0.389	0.646	0.376	0.264	1.008	-0.524	0.964	0.008	0.468	1.082	-0.672	-0.266	-1.213	-1.853	-1.417	-0.883	-23.438
0.187	-0.336	-0.747	-0.119	0.661	0.095	0.885	0.759	0.553	0.488	0.089	0.330	0.684	1.005	0.282	0.349	0.933	-0.843	0.895	0.147	0.719	0.928	-1.016	-0.160	-1.405	-2.145	-1.479	-1.062	-19.531
0.254	-0.241	-0.652	0.090	0.950	0.167	1.273	0.799	0.693	0.740	0.110	0.315	0.962	1.322	0.061	0.363	0.792	-1.145	0.793	0.237	0.920	0.722	-1.320	-0.016	-1.474	-2.274	-1.406	-1.150	-15.625
0.247	-0.169	-0.571	0.282	1.196	0.193	1.633	0.836	0.858	0.982	0.123	0.337	1.190	1.556	-0.268	0.318	0.598	-1.402	0.664	0.272	1.042	0.479	-1.557	0.143	-1.423	-2.237	-1.217	-1.138	-11.719
0.170	-0.120	-0.506	0.444	1.373	0.174	1.940	0.887	1.056	1.205	0.147	0.404	1.340	1.666	-0.678	0.224	0.365	-1.596	0.508	0.245	1.055	0.202	-1.716	0.286	-1.269	-2.048	-0.940	-1.026	-7.812
0.031	-0.095	-0.455	0.562	1.462	0.121	2.180	0.981	1.303	1.413	0.205	0.525	1.394	1.623	-1.133	0.092	0.101	-1.723	0.313	0.144	0.933	-0.120	-1.806	0.380	-1.043	-1.731	-0.614	-0.818	-3.906
-0.159	-0.100	-0.414	0.625	1.462	0.057	2.354	1.149	1.611	1.615	0.319	0.701	1.347	1.413	-1.594	-0.073	-0.185	-1.786	0.060	-0.039	0.663	-0.503	-1.853	0.393	-0.786	-1.326	-0.281	-0.527	0.000
-0.386	-0.144	-0.380	0.628	1.387	0.012	2.472	1.415	1.990	1.821	0.505	0.928	1.204	1.042	-2.021	-0.268	-0.484	-1.793	-0.265	-0.309	0.247	-0.964	-1.892	0.306	-0.543	-0.879	0.021	-0.175	3.906
-0.634	-0.233	-0.348	0.570	1.262	0.014	2.549	1.791	2.434	2.039	0.765	1.194	0.980	0.537	-2.372	-0.492	-0.786	-1.754	-0.667	-0.660	-0.294	-1.507	-1.956	0.109	-0.355	-0.439	0.256	0.205	7.812
-0.882	-0.366	-0.317	0.462	1.118	0.084	2.601	2.265	2.921	2.269	1.083	1.479	0.699	-0.058	-2.613	-0.740	-1.069	-1.672	-1.130	-1.070	-0.918	-2.119	-2.070	-0.196	-0.255	-0.057	0.396	0.577	11.719
-1.106	-0.533	-0.283	0.321	0.986	0.228	2.639	2.802	3.414	2.500	1.434	1.756	0.385	-0.688	-2.722	-1.001	-1.309	-1.553	-1.622	-1.506	-1.565	-2.765	-2.242	-0.591	-0.262	0.227	0.424	0.899	15.625
-1.286	-0.713	-0.246	0.171	0.893	0.438	2.666	3.347	3.863	2.715	1.781	2.000	0.066	-1.291	-2.687	-1.258	-1.480	-1.397	-2.092	-1.926	-2.167	-3.393	-2.463	-1.046	-0.379	0.384	0.338	1.136	19.531
-1.402	-0.882	-0.209	0.039	0.853	0.690	2.682	3.833	4.217	2.895	2.088	2.189	-0.232	-1.813	-2.517	-1.491	-1.562	-1.209	-2.489	-2.283	-2.662	-3.941	-2.710	-1.522	-0.589	0.403	0.148	1.264	23.438
-1.445	-1.013	-0.175	-0.053	0.870	0.948	2.683	4.198	4.434	3.020	2.325	2.307	-0.485	-2.207	-2.236	-1.678	-1.549	-0.996	-2.762	-2.541	-3.000	-4.349	-2.948	-1.973	-0.861	0.295	-0.117	1.271	27.344
-1.418	-1.092	-0.153	-0.088	0.935	1.173	2.662	4.392	4.489	3.078	2.471	2.346	-0.674	-2.449	-1.888	-1.801	-1.451	-0.766	-2.880	-2.678	-3.156	-4.570	-3.140	-2.355	-1.150	0.091	-0.417	1.166	31.250
-1.339	-1.116	-0.155	-0.066	1.027	1.326	2.616	4.392	4.380	3.069	2.514	2.305	-0.786	-2.531	-1.528	-1.854	-1.296	-0.533	-2.829	-2.692	-3.135	-4.582	-3.253	-2.625	-1.404	-0.161	-0.702	0.970	35.156
-1.237	-1.098	-0.197	0.001	1.118	1.377	2.544	4.205	4.131	2.997	2.456	2.188	-0.819	-2.468	-1.216	-1.841	-1.118	-0.308	-2.618	-2.604	-2.966	-4.387	-3.261	-2.749	-1.575	-0.405	-0.915	0.723	39.062
-1.148	-1.063	-0.293	0.086	1.179	1.308	2.445	3.863	3.788	2.875	2.301	1.999	-0.779	-2.292	-1.011	-1.777	-0.948	-0.104	-2.274	-2.449	-2.701	-4.015	-3.151	-2.708	-1.619	-0.582	-1.004	0.470	42.969
-1.112	-1.044	-0.454	0.155	1.182	1.116	2.322	3.421	3.405	2.715	2.056	1.737	-0.680	-2.042	-0.965	-1.689	-0.810	0.066	-1.835	-2.271	-2.394	-3.513	-2.924	-2.493	-1.508	-0.643	-0.923	0.256	46.875
-1.163	-1.075	-0.687	0.176	1.108	0.815	2.177	2.941	3.039	2.530	1.727	1.403	-0.542	-1.757	-1.114	-1.608	-0.713	0.190	-1.344	-2.112	-2.098	-2.937	-2.597	-2.107	-1.227	-0.548	-0.636	0.129	50.781
-1.327	-1.184	-0.992	0.120	0.948	0.431	2.016	2.483	2.739	2.331	1.322	0.998	-0.380	-1.467	-1.484	-1.568	-0.661	0.253	-0.849	-2.004	-1.849	-2.342	-2.197	-1.560	-0.772	-0.270	-0.116	0.128	54.688
-1.621	-1.392	-1.365	-0.030	0.707	-0.004	1.851	2.094	2.540	2.136	0.855	0.536	-0.200	-1.190	-2.091	-1.599	-0.657	0.232	-0.394	-1.967	-1.664	-1.775	-1.765	-0.865	-0.147	0.207	0.654	0.293	58.594
-2.056	-1.714	-1.808	-0.283	0.399	-0.457	1.702	1.806	2.462	1.968	0.353	0.044	0.004	-0.926	-2.953	-1.729	-0.710	0.106	-0.021	-2.012	-1.541	-1.271	-1.347	-0.034	0.641	0.893	1.686	0.660	62.500
-2.642	-2.160	-2.327	-0.639	0.046	-0.902	1.595	1.631	2.515	1.862	-0.140	-0.430	0.253	-0.664	-4.086	-1.982	-0.838	-0.152	0.231	-2.140	-1.470	-0.853	-0.990	0.927	1.589	1.797	2.983	1.261	66.406
-3.389	-2.738	-2.938	-1.093	-0.329	-1.324	1.565	1.563	2.698	1.867	-0.562	-0.825	0.573	-0.386	-5.513	-2.375	-1.069	-0.559	0.337	-2.352	-1.437	-0.531	-0.738	2.008	2.699	2.928	4.544	2.122	70.312
-4.307	-3.457	-3.660	-1.635	-0.700	-1.720	1.649	1.590	3.010	2.035	-0.844	-1.070	0.992	-0.079	-7.254	-2.917	-1.431	-1.125	0.279	-2.652	-1.432	-0.306	-0.617	3.199	3.976	4.296	6.352	3.260	74.219
-5.403	-4.321	-4.514	-2.254	-1.050	-2.099	1.878	1.694	3.453	2.417	-0.911	-1.098	1.525	0.264	-9.318	-3.613	-1.950	-1.844	0.054	-3.048	-1.459	-0.177	-0.642	4.483	5.426	5.907	8.372	4.671	78.125
-6.677	-5.330	-5.510	-2.941	-1.370	-2.473	2.272	1.866	4.031	3.051	-0.699	-0.855	2.174	0.632	-11.691	-4.457	-2.641	-2.696	-0.329	-3.552	-1.530	-0.141	-0.807	5.831	7.044	7.757	10.553	6.333	82.031
-8.114	-6.474	-6.642	-3.682	-1.659	-2.856	2.833	2.101	4.750	3.952	-0.166	-0.311	2.914	1.001	-14.327	-5.430	-3.501	-3.651	-0.851	-4.169	-1.667	-0.194	-1.089	7.199	8.809	9.827	12.817	8.194	85.938
-9.682	-7.728	-7.880	-4.461	-1.925	-3.257	3.542	2.410	5.615	5.100	0.696	0.530	3.705	1.333	-17.144	-6.503	-4.514	-4.664	-1.489	-4.897	-1.891	-0.339	-1.459	8.532	10.679	12.068	15.071	10.180	89.844
-11.322	-9.049	-9.173	-5.253	-2.179	-3.670	4.356	2.809	6.621	6.445	1.861	1.636	4.489	1.589	-20.021	-7.631	-5.645	-5.687	-2.210	-5.716	-2.216	-0.575	-1.880	9.763	12.580	14.403	17.206	12.192	93.750
-12.958	-10.374	-10.446	-6.030	-2.432	-4.081	5.217	3.319	7.753	7.906	3.270	2.941	5.205	1.728	-22.808	-8.761	-6.843	-6.674	-2.983	-6.589	-2.643	-0.903	-2.321	10.824	14.418	16.723	19.109	14.121	97.656
-14.498	-11.630	-11.617	-6.754	-2.694	-4.464	6.061	3.954	8.978	9.385	4.841	4.364	5.796	1.725	-25.341	-9.830	-8.048	-7.581	-3.774	-7.468	-3.160	-1.321	-2.759	11.649	16.082	18.898	20.679	15.858	101.562
-15.846	-12.735	-12.603	-7.390	-2.968	-4.791	6.821	4.718	10.249	10.782	6.478	5.816	6.221	1.567	-27.467	-10.778	-9.194	-8.371	-4.546	-8.297	-3.743	-1.821	-3.177	12.187	17.460	20.794	21.832	17.312	105.469
-16.921	-13.616	-13.342	-7.902	-3.249	-5.036	7.443	5.590	11.503	12.006	8.086	7.215	6.458	1.260	-29.062	-11.555	-10.212	-9.019	-5.263	-9.026	-4.358	-2.387	-3.571	12.405	18.459	22.290	22.519	18.416	109.375
-17.661	-14.216	-13.792	-8.264	-3.528	-5.180	7.890	6.531	12.672	12.992	9.582	8.491	6.504	0.827	-30.054	-12.124	-11.035	-9.508	-5.888	-9.617	-4.973	-2.996	-3.937	12.296	19.019	23.298	22.728	19.142	113.281
-18.038	-14.506	-13.945	-8.462	-3.793	-5.218	8.143	7.485	13.692	13.705	10.901	9.596	6.374	0.298	-30.427	-12.467	-11.601	-9.828	-6.387	-10.047	-5.556	-3.621	-4.280	11.874	19.119	23.774	22.485	19.498	117.188
-18.060	-14.486	-13.821	-8.494	-4.030	-5.162	8.200	8.383	14.509	14.140	12.008	10.505	6.092	-0.291	-30.224	-12.585	-11.863	-9.980	-6.726	-10.311	-6.086	-4.229	-4.600	11.173	18.782	23.725	21.848	19.522	121.094
-17.766	-14.191	-13.467	-8.376	-4.235	-5.035	8.073	9.158	15.093	14.322	12.896	11.218	5.683	-0.908	-29.537	-12.497	-11.798	-9.975	-6.883	-10.423	-6.549	-4.791	-4.896	10.244	18.074	23.210	20.902	19.284	125.000
-17.224	-13.681	-12.946	-8.139	-4.406	-4.871	7.782	9.753	15.440	14.298	13.581	11.755	5.170	-1.529	-28.490	-12.238	-11.418	-9.832	-6.851	-10.405	-6.943	-5.279	-5.167	9.148	17.089	22.333	19.747	18.871	128.906
-16.521	-13.039	-12.330	-7.826	-4.556	-4.710	7.353	10.133	15.573	14.123	14.104	12.153	4.569	-2.138	-27.222	-11.851	-10.774	-9.576	-6.644	-10.287	-7.270	-5.678	-5.410	7.951	15.945	21.231	18.492	18.376	132.812
-15.749	-12.355	-11.689	-7.491	-4.699	-4.589	6.812	10.286	15.537	13.856	14.513	12.455	3.892	-2.730	-25.870	-11.390	-9.956	-9.238	-6.298	-10.101	-7.537	-5.982	-5.621	6.721	14.763	20.052	17.247	17.893	136.719
-14.996	-11.713	-11.079	-7.187	-4.856	-4.533	6.187	10.233	15.394	13.548	14.858	12.704	3.147	-3.304	-24.559	-10.908	-9.081	-8.854	-5.867	-9.879	-7.755	-6.201	-5.802	5.523	13.655	18.946	16.108	17.501	140.625
-14.337	-11.181	-10.540	-6.957	-5.039	-4.555	5.510	10.014	15.206	13.240	15.176	12.936	2.344	-3.862	-23.388	-10.458	-8.270	-8.458	-5.422	-9.651	-7.933	-6.354	-5.957	4.414	12.713	18.035	15.157	17.256	144.531
-13.822	-10.800	-10.087	-6.831	-5.255	-4.646	4.814	9.691	15.034	12.957	15.493	13.178	1.498	-4.405	-22.430	-10.083	-7.629	-8.086	-5.033	-9.442	-8.083	-6.473	-6.093	3.445	11.996	17.405	14.452	17.189	148.438
-13.476	-10.582	-9.721	-6.817	-5.497	-4.787	4.134	9.328	14.919	12.714	15.813	13.438	0.634	-4.928	-21.727	-9.818	-7.231	-7.770	-4.766	-9.272	-8.212	-6.590	-6.219	2.653	11.530	17.097	14.023	17.302	152.344
-13.300	-10.512	-9.427	-6.903	-5.748	-4.946	3.509	8.984	14.882	12.515	16.128	13.715	-0.215	-5.419	-21.294	-9.680	-7.106	-7.532	-4.661	-9.159	-8.325	-6.731	-6.346	2.063	11.309	17.096	13.872	17.567	156.250
-13.270	-10.556	-9.185	-7.060	-5.981	-5.089	2.972	8.703	14.923	12.360	16.419	13.994	-1.006	-5.857	-21.118	-9.670	-7.236	-7.388	-4.734	-9.108	-8.421	-6.911	-6.479	1.688	11.294	17.347	13.973	17.938	160.156
-13.349	-10.670	-8.980	-7.252	-6.167	-5.189	2.553	8.508	15.020	12.242	16.661	14.252	-1.687	-6.212	-21.163	-9.773	-7.565	-7.337	-4.966	-9.116	-8.491	-7.123	-6.618	1.528	11.429	17.754	14.275	18.352	164.062
-13.494	-10.814	-8.807	-7.441	-6.278	-5.229	2.274	8.396	15.137	12.158	16.830	14.464	-2.208	-6.450	-21.378	-9.958	-8.010	-7.370	-5.309	-9.170	-8.519	-7.345	-6.758	1.572	11.645	18.205	14.712	18.743	167.969
-13.660	-10.956	-8.671	-7.592	-6.293	-5.206	2.147	8.347	15.230	12.099	16.906	14.603	-2.521	-6.534	-21.698	-10.185	-8.480	-7.464	-5.696	-9.245	-8.482	-7.535	-6.884	1.798	11.876	18.588	15.211	19.047	171.875
-13.807	-11.081	-8.583	-7.682	-6.201	-5.128	2.170	8.323	15.255	12.059	16.873	14.646	-2.592	-6.435	-22.053	-10.408	-8.885	-7.595	-6.048	-9.309	-8.357	-7.643	-6.978	2.175	12.063	18.803	15.695	19.211	175.781
-13.901	-11.180	-8.558	-7.694	-6.001	-5.012	2.331	8.282	15.175	12.026	16.719	14.574	-2.409	-6.135	-22.370	-10.584	-9.157	-7.735	-6.291	-9.325	-8.120	-7.620	-7.020	2.665	12.162	18.778	16.098	19.195	179.688
-13.916	-11.249	-8.604	-7.624	-5.701	-4.873	2.606	8.183	14.965	11.987	16.436	14.377	-1.978	-5.632	-22.582	-10.674	-9.254	-7.862	-6.366	-9.263	-7.757	-7.431	-6.996	3.225	12.145	18.477	16.366	18.981	183.594
-13.833	-11.281	-8.717	-7.472	-5.318	-4.723	2.966	8.000	14.618	11.928	16.019	14.051	-1.333	-4.944	-22.635	-10.656	-9.164	-7.961	-6.239	-9.099	-7.266	-7.059	-6.896	3.812	12.001	17.899	16.464	18.566	187.500
-13.642	-11.269	-8.883	-7.246	-4.871	-4.567	3.379	7.722	14.141	11.835	15.471	13.598	-0.527	-4.110	-22.496	-10.522	-8.905	-8.025	-5.907	-8.828	-6.662	-6.514	-6.721	4.382	11.735	17.076	16.377	17.969	191.406
-13.348	-11.202	-9.076	-6.963	-4.382	-4.399	3.818	7.364	13.564	11.700	14.801	13.030	0.375	-3.182	-22.160	-10.282	-8.519	-8.055	-5.398	-8.464	-5.976	-5.831	-6.479	4.900	11.367	16.070	16.115	17.220	195.312
-12.967	-11.076	-9.266	-6.643	-3.874	-4.212	4.263	6.957	12.927	11.526	14.033	12.367	1.301	-2.221	-21.651	-9.970	-8.060	-8.057	-4.767	-8.043	-5.255	-5.062	-6.184	5.344	10.928	14.961	15.710	16.366	199.219
-12.534	-10.896	-9.426	-6.316	-3.368	-3.995	4.705	6.547	12.284	11.323	13.204	11.638	2.186	-1.290	-21.022	-9.630	-7.591	-8.038	-4.089	-7.618	-4.553	-4.272	-5.851	5.702	10.462	13.843	15.210	15.464	203.125
-12.093	-10.682	-9.538	-6.016	-2.887	-3.747	5.146	6.187	11.692	11.114	12.364	10.880	2.974	-0.443	-20.345	-9.317	-7.172	-8.005	-3.446	-7.248	-3.928	-3.524	-5.498	5.980	10.019	12.811	14.677	14.577	207.031
-11.696	-10.467	-9.598	-5.778	-2.450	-3.468	5.591	5.926	11.203	10.929	11.569	10.139	3.627	0.276	-19.706	-9.088	-6.849	-7.964	-2.914	-6.995	-3.432	-2.873	-5.140	6.192	9.649	11.954	14.176	13.767	210.938
-11.398	-10.295	-9.616	-5.634	-2.073	-3.171	6.050	5.801	10.864	10.798	10.880	9.459	4.125	0.838	-19.188	-8.988	-6.654	-7.916	-2.551	-6.904	-3.102	-2.358	-4.792	6.359	9.397	11.340	13.764	13.090	214.844
-11.241	-10.208	-9.610	-5.603	-1.771	-2.870	6.530	5.835	10.705	10.750	10.347	8.882	4.465	1.235	-18.862	-9.044	-6.598	-7.867	-2.387	-7.002	-2.956	-1.994	-4.468	6.503	9.294	11.012	13.485	12.589	218.750
-11.252	-10.239	-9.603	-5.690	-1.549	-2.584	7.031	6.034	10.742	10.802	10.006	8.436	4.657	1.473	-18.770	-9.259	-6.678	-7.822	-2.422	-7.287	-2.986	-1.778	-4.178	6.642	9.353	10.978	13.359	12.281	222.656
-11.432	-10.399	-9.615	-5.882	-1.407	-2.328	7.550	6.385	10.972	10.960	9.873	8.131	4.721	1.575	-18.925	-9.615	-6.876	-7.790	-2.627	-7.731	-3.165	-1.685	-3.931	6.787	9.567	11.214	13.384	12.162	226.562
-11.761	-10.680	-9.660	-6.154	-1.336	-2.114	8.075	6.861	11.376	11.214	9.936	7.960	4.683	1.574	-19.305	-10.073	-7.164	-7.782	-2.950	-8.284	-3.447	-1.676	-3.727	6.942	9.909	11.664	13.535	12.204	230.469
-12.199	-11.051	-9.744	-6.471	-1.325	-1.952	8.592	7.427	11.923	11.546	10.165	7.900	4.574	1.511	-19.863	-10.585	-7.509	-7.812	-3.328	-8.886	-3.777	-1.703	-3.560	7.111	10.341	12.258	13.777	12.362	234.375
-12.697	-11.473	-9.869	-6.798	-1.357	-1.845	9.087	8.039	12.573	11.930	10.516	7.920	4.428	1.431	-20.536	-11.105	-7.875	-7.893	-3.695	-9.472	-4.096	-1.712	-3.416	7.292	10.821	12.913	14.067	12.584	238.281
-13.208	-11.909	-10.036	-7.106	-1.412	-1.797	9.547	8.654	13.283	12.343	10.939	7.986	4.282	1.376	-21.260	-11.592	-8.226	-8.031	-3.993	-9.989	-4.351	-1.654	-3.275	7.491	11.310	13.555	14.366	12.819	242.188
-13.697	-12.332	-10.249	-7.375	-1.472	-1.808	9.968	9.234	14.011	12.761	11.385	8.072	4.173	1.386	-21.980	-12.024	-8.530	-8.226	-4.177	-10.399	-4.501	-1.488	-3.114	7.715	11.781	14.122	14.648	13.029	246.094
-14.141	-12.732	-10.514	-7.600	-1.519	-1.876	10.350	9.745	14.714	13.170	11.817	8.160	4.137	1.490	-22.660	-12.392	-8.760	-8.470	-4.222	-10.681	-4.520	-1.190	-2.915	7.971	12.214	14.575	14.897	13.187	250.000
-14.534	-13.109	-10.838	-7.785	-1.536	-1.999	10.696	10.163	15.357	13.561	12.207	8.243	4.205	1.709	-23.276	-12.700	-8.901	-8.742	-4.123	-10.833	-4.397	-0.751	-2.671	8.266	12.601	14.891	15.108	13.284	253.906
-14.876	-13.471	-11.223	-7.940	-1.509	-2.168	11.013	10.474	15.906	13.929	12.540	8.323	4.396	2.048	-23.817	-12.957	-8.950	-9.019	-3.892	-10.865	-4.136	-0.188	-2.385	8.600	12.938	15.066	15.286	13.323	257.812
-15.168	-13.821	-11.661	-8.071	-1.426	-2.370	11.304	10.666	16.331	14.268	12.806	8.404	4.720	2.498	-24.278	-13.171	-8.916	-9.276	-3.552	-10.792	-3.754	0.466	-2.075	8.963	13.220	15.108	15.436	13.313	261.719
-15.406	-14.148	-12.134	-8.176	-1.280	-2.589	11.565	10.731	16.606	14.567	13.000	8.486	5.168	3.040	-24.646	-13.340	-8.816	-9.489	-3.140	-10.633	-3.275	1.161	-1.769	9.338	13.442	15.031	15.563	13.267	265.625
-15.575	-14.431	-12.609	-8.242	-1.069	-2.804	11.786	10.665	16.708	14.813	13.120	8.565	5.722	3.644	-24.904	-13.455	-8.674	-9.640	-2.691	-10.400	-2.730	1.842	-1.500	9.701	13.592	14.849	15.666	13.195	269.531
-15.657	-14.639	-13.048	-8.250	-0.800	-2.996	11.947	10.462	16.620	14.983	13.157	8.633	6.348	4.276	-25.030	-13.499	-8.515	-9.721	-2.246	-10.101	-2.146	2.455	-1.295	10.028	13.662	14.580	15.741	13.105	273.438
-15.632	-14.737	-13.410	-8.179	-0.484	-3.150	12.028	10.123	16.335	15.056	13.105	8.675	7.009	4.904	-25.002	-13.452	-8.361	-9.733	-1.837	-9.738	-1.549	2.959	-1.174	10.299	13.642	14.237	15.778	13.002	277.344
-15.485	-14.703	-13.664	-8.014	-0.136	-3.257	12.011	9.652	15.858	15.016	12.957	8.672	7.666	5.500	-24.810	-13.301	-8.224	-9.685	-1.488	-9.314	-0.960	3.333	-1.139	10.505	13.532	13.836	15.767	12.884	281.250
-15.216	-14.528	-13.788	-7.749	0.224	-3.312	11.889	9.066	15.211	14.852	12.708	8.611	8.285	6.047	-24.458	-13.043	-8.107	-9.594	-1.209	-8.831	-0.391	3.580	-1.178	10.645	13.339	13.389	15.700	12.746	285.156
-14.839	-14.226	-13.780	-7.393	0.581	-3.320	11.668	8.394	14.431	14.570	12.363	8.480	8.838	6.536	-23.972	-12.690	-7.998	-9.482	-0.993	-8.295	0.151	3.725	-1.264	10.729	13.078	12.911	15.568	12.580	289.062
-14.384	-13.830	-13.655	-6.967	0.922	-3.284	11.369	7.676	13.572	14.188	11.935	8.273	9.306	6.967	-23.397	-12.268	-7.880	-9.369	-0.820	-7.718	0.665	3.805	-1.364	10.772	12.771	12.414	15.372	12.377	292.969
-13.893	-13.384	-13.443	-6.501	1.240	-3.209	11.029	6.961	12.698	13.737	11.445	7.990	9.679	7.346	-22.791	-11.812	-7.730	-9.272	-0.660	-7.118	1.153	3.863	-1.444	10.791	12.444	11.911	15.115	12.127	296.875
-13.411	-12.937	-13.186	-6.028	1.534	-3.101	10.694	6.301	11.875	13.258	10.924	7.641	9.956	7.681	-22.214	-11.361	-7.535	-9.199	-0.487	-6.517	1.615	3.937	-1.476	10.801	12.120	11.414	14.808	11.824	300.781
-12.982	-12.528	-12.925	-5.581	1.808	-2.963	10.410	5.744	11.166	12.793	10.404	7.237	10.144	7.983	-21.721	-10.957	-7.296	-9.155	-0.284	-5.939	2.051	4.049	-1.444	10.813	11.823	10.935	14.468	11.466	304.688
-12.640	-12.188	-12.700	-5.184	2.067	-2.797	10.223	5.335	10.621	12.386	9.920	6.797	10.258	8.259	-21.353	-10.632	-7.034	-9.136	-0.052	-5.413	2.460	4.204	-1.348	10.834	11.569	10.487	14.114	11.060	308.594
-12.406	-11.933	-12.537	-4.856	2.314	-2.609	10.164	5.101	10.276	12.073	9.504	6.349	10.318	8.515	-21.139	-10.411	-6.787	-9.141	0.190	-4.965	2.833	4.388	-1.198	10.869	11.372	10.089	13.774	10.623	312.500
-12.294	-11.768	-12.448	-4.607	2.547	-2.408	10.254	5.061	10.152	11.885	9.182	5.923	10.347	8.753	-21.092	-10.312	-6.601	-9.176	0.411	-4.622	3.160	4.575	-1.016	10.921	11.242	9.764	13.476	10.184	316.406
-12.302	-11.691	-12.436	-4.445	2.757	-2.205	10.495	5.217	10.252	11.840	8.978	5.556	10.371	8.972	-21.217	-10.339	-6.521	-9.246	0.572	-4.402	3.429	4.734	-0.830	10.995	11.189	9.536	13.250	9.782	320.312
-12.427	-11.698	-12.493	-4.372	2.931	-2.020	10.875	5.558	10.564	11.949	8.908	5.288	10.411	9.168	-21.510	-10.488	-6.580	-9.364	0.638	-4.317	3.625	4.834	-0.667	11.092	11.220	9.433	13.123	9.460	324.219
-12.653	-11.783	-12.603	-4.387	3.053	-1.873	11.367	6.057	11.062	12.208	8.981	5.153	10.483	9.335	-21.955	-10.745	-6.790	-9.537	0.585	-4.366	3.739	4.853	-0.556	11.213	11.335	9.471	13.111	9.257	328.125
-12.962	-11.936	-12.754	-4.486	3.110	-1.782	11.937	6.677	11.709	12.604	9.198	5.174	10.594	9.464	-22.526	-11.085	-7.141	-9.769	0.406	-4.535	3.765	4.778	-0.519	11.350	11.530	9.657	13.214	9.200	332.031
-13.327	-12.145	-12.930	-4.658	3.097	-1.759	12.546	7.375	12.461	13.113	9.552	5.359	10.739	9.552	-23.184	-11.473	-7.598	-10.057	0.115	-4.797	3.707	4.608	-0.570	11.493	11.787	9.977	13.413	9.296	335.938
-13.719	-12.389	-13.125	-4.881	3.021	-1.806	13.156	8.101	13.267	13.704	10.025	5.698	10.909	9.596	-23.879	-11.871	-8.116	-10.391	-0.258	-5.113	3.577	4.352	-0.715	11.623	12.083	10.401	13.673	9.531	339.844
-14.105	-12.643	-13.336	-5.129	2.900	-1.913	13.736	8.808	14.079	14.339	10.589	6.159	11.088	9.596	-24.560	-12.238	-8.642	-10.759	-0.671	-5.442	3.395	4.029	-0.947	11.721	12.387	10.884	13.946	9.870	343.750
-14.455	-12.877	-13.562	-5.368	2.760	-2.063	14.261	9.453	14.849	14.981	11.206	6.695	11.259	9.559	-25.171	-12.540	-9.129	-11.139	-1.080	-5.743	3.187	3.662	-1.248	11.770	12.672	11.377	14.184	10.265	347.656
-14.743	-13.061	-13.802	-5.568	2.629	-2.231	14.711	10.002	15.536	15.587	11.825	7.245	11.408	9.495	-25.665	-12.755	-9.540	-11.509	-1.448	-5.983	2.978	3.282	-1.589	11.757	12.911	11.832	14.342	10.661	351.562
-14.951	-13.172	-14.047	-5.704	2.534	-2.392	15.076	10.433	16.106	16.117	12.387	7.741	11.526	9.415	-26.006	-12.872	-9.853	-11.836	-1.749	-6.144	2.791	2.916	-1.933	11.680	13.088	12.212	14.394	11.003	355.469
-15.070	-13.198	-14.281	-5.763	2.489	-2.525	15.344	10.733	16.534	16.532	12.826	8.115	11.607	9.331	-26.175	-12.896	-10.059	-12.087	-1.974	-6.218	2.645	2.594	-2.240	11.547	13.200	12.498	14.334	11.248	359.375
-15.105	-13.143	-14.485	-5.745	2.497	-2.617	15.511	10.905	16.806	16.799	13.080	8.309	11.652	9.253	-26.178	-12.845	-10.162	-12.231	-2.129	-6.212	2.549	2.343	-2.476	11.381	13.257	12.694	14.182	11.369	363.281
-15.074	-13.028	-14.636	-5.665	2.552	-2.664	15.575	10.961	16.921	16.896	13.102	8.284	11.664	9.191	-26.043	-12.743	-10.176	-12.249	-2.229	-6.143	2.509	2.184	-2.614	11.213	13.282	12.822	13.980	11.359	367.188
-15.003	-12.886	-14.719	-5.547	2.636	-2.670	15.540	10.923	16.890	16.817	12.868	8.029	11.652	9.151	-25.823	-12.618	-10.125	-12.139	-2.298	-6.029	2.522	2.127	-2.638	11.079	13.306	12.919	13.784	11.233	371.094
-14.925	-12.750	-14.731	-5.418	2.734	-2.643	15.418	10.818	16.737	16.573	12.390	7.570	11.625	9.136	-25.580	-12.495	-10.035	-11.918	-2.355	-5.890	2.582	2.173	-2.550	11.013	13.362	13.026	13.653	11.025	375.000
-14.868	-12.652	-14.682	-5.301	2.828	-2.595	15.228	10.673	16.491	16.197	11.716	6.964	11.592	9.146	-25.378	-12.388	-9.936	-11.624	-2.415	-5.742	2.680	2.312	-2.367	11.034	13.472	13.174	13.627	10.779	378.906
-14.851	-12.608	-14.589	-5.211	2.911	-2.535	14.993	10.508	16.187	15.736	10.922	6.296	11.560	9.179	-25.261	-12.304	-9.852	-11.308	-2.482	-5.591	2.806	2.525	-2.116	11.142	13.643	13.370	13.719	10.540	382.812
-14.872	-12.613	-14.478	-5.145	2.981	-2.469	14.737	10.337	15.851	15.243	10.107	5.666	11.526	9.227	-25.244	-12.232	-9.797	-11.020	-2.542	-5.436	2.953	2.786	-1.832	11.315	13.855	13.597	13.904	10.340	386.719
-14.913	-12.643	-14.369	-5.089	3.044	-2.403	14.479	10.160	15.506	14.768	9.370	5.168	11.484	9.282	-25.307	-12.149	-9.763	-10.804	-2.569	-5.265	3.111	3.071	-1.553	11.508	14.068	13.806	14.119	10.194	390.625
-14.937	-12.656	-14.274	-5.017	3.112	-2.339	14.231	9.972	15.161	14.346	8.790	4.874	11.416	9.331	-25.396	-12.026	-9.727	-10.688	-2.529	-5.062	3.277	3.358	-1.309	11.665	14.226	13.934	14.278	10.089	394.531
-14.901	-12.609	-14.193	-4.902	3.197	-2.278	13.994	9.762	14.820	13.995	8.417	4.813	11.303	9.362	-25.435	-11.832	-9.647	-10.672	-2.385	-4.812	3.447	3.632	-1.121	11.727	14.272	13.913	14.292	9.992	398.438
-14.763	-12.461	-14.116	-4.721	3.307	-2.219	13.762	9.522	14.476	13.708	8.252	4.969	11.124	9.363	-25.343	-11.541	-9.474	-10.733	-2.110	-4.504	3.618	3.885	-0.995	11.649	14.157	13.691	14.084	9.855	402.344
-14.497	-12.193	-14.026	-4.464	3.446	-2.163	13.520	9.250	14.123	13.458	8.255	5.276	10.864	9.329	-25.051	-11.143	-9.168	-10.827	-1.699	-4.138	3.792	4.118	-0.922	11.406	13.856	13.241	13.610	9.625	406.250
-14.093	-11.804	-13.899	-4.137	3.610	-2.106	13.255	8.953	13.752	13.201	8.344	5.634	10.514	9.261	-24.514	-10.646	-8.712	-10.896	-1.167	-3.725	3.969	4.334	-0.880	11.001	13.368	12.571	12.869	9.256	410.156
-13.563	-11.315	-13.716	-3.758	3.792	-2.041	12.950	8.645	13.357	12.889	8.421	5.929	10.080	9.163	-23.719	-10.074	-8.116	-10.885	-0.551	-3.282	4.151	4.541	-0.840	10.462	12.719	11.718	11.894	8.724	414.062
-12.937	-10.764	-13.461	-3.354	3.984	-1.962	12.597	8.344	12.934	12.476	8.389	6.057	9.575	9.042	-22.688	-9.463	-7.423	-10.752	0.094	-2.836	4.340	4.746	-0.775	9.832	11.953	10.745	10.755	8.028	417.969
-12.257	-10.193	-13.129	-2.953	4.172	-1.860	12.189	8.070	12.485	11.934	8.176	5.952	9.022	8.907	-21.475	-8.854	-6.702	-10.479	0.707	-2.411	4.532	4.950	-0.665	9.163	11.128	9.723	9.540	7.201	421.875
-11.573	-9.647	-12.723	-2.580	4.349	-1.731	11.733	7.836	12.017	11.262	7.758	5.598	8.451	8.764	-20.164	-8.291	-6.033	-10.076	1.228	-2.035	4.720	5.149	-0.503	8.507	10.299	8.727	8.344	6.302	425.781
-10.934	-9.164	-12.261	-2.254	4.504	-1.575	11.244	7.653	11.550	10.494	7.161	5.039	7.898	8.614	-18.858	-7.813	-5.494	-9.584	1.605	-1.729	4.889	5.330	-0.304	7.906	9.524	7.825	7.262	5.415	429.688
-10.385	-8.771	-11.772	-1.989	4.629	-1.396	10.749	7.525	11.109	9.692	6.463	4.366	7.402	8.458	-17.667	-7.452	-5.150	-9.067	1.803	-1.510	5.024	5.473	-0.092	7.397	8.849	7.074	6.378	4.630	433.594
-9.962	-8.486	-11.293	-1.793	4.716	-1.206	10.280	7.453	10.727	8.943	5.773	3.699	7.002	8.299	-16.696	-7.231	-5.043	-8.599	1.805	-1.390	5.103	5.558	0.096	7.005	8.315	6.518	5.754	4.035	437.500
-9.691	-8.316	-10.864	-1.671	4.760	-1.023	9.873	7.431	10.436	8.337	5.209	3.163	6.731	8.138	-16.031	-7.160	-5.187	-8.253	1.619	-1.373	5.114	5.568	0.226	6.748	7.950	6.185	5.433	3.700	441.406
-9.583	-8.261	-10.523	-1.627	4.754	-0.865	9.560	7.452	10.262	7.950	4.871	2.859	6.612	7.983	-15.723	-7.241	-5.568	-8.087	1.271	-1.456	5.046	5.495	0.270	6.636	7.773	6.088	5.428	3.659	445.312
-9.634	-8.315	-10.295	-1.661	4.695	-0.753	9.358	7.504	10.215	7.827	4.820	2.843	6.657	7.840	-15.782	-7.460	-6.145	-8.128	0.806	-1.626	4.903	5.345	0.217	6.670	7.785	6.220	5.721	3.912	449.219
-9.822	-8.464	-10.192	-1.769	4.583	-0.702	9.267	7.573	10.289	7.971	5.062	3.120	6.855	7.718	-16.171	-7.794	-6.853	-8.373	0.284	-1.861	4.697	5.135	0.070	6.838	7.973	6.556	6.266	4.418	453.125
-10.112	-8.686	-10.204	-1.941	4.421	-0.723	9.270	7.639	10.456	8.345	5.557	3.647	7.179	7.621	-16.809	-8.203	-7.606	-8.785	-0.231	-2.135	4.450	4.892	-0.156	7.118	8.300	7.048	6.987	5.100	457.031
-10.449	-8.947	-10.305	-2.157	4.220	-0.817	9.334	7.683	10.675	8.873	6.222	4.337	7.584	7.551	-17.583	-8.641	-8.307	-9.306	-0.672	-2.412	4.190	4.648	-0.435	7.470	8.712	7.626	7.786	5.861	460.938
-10.772	-9.205	-10.451	-2.392	3.994	-0.980	9.417	7.685	10.893	9.460	6.952	5.088	8.015	7.502	-18.358	-9.053	-8.858	-9.864	-0.986	-2.660	3.946	4.433	-0.736	7.843	9.143	8.210	8.557	6.596	464.844
-11.016	-9.407	-10.591	-2.615	3.763	-1.196	9.477	7.628	11.059	10.005	7.644	5.796	8.411	7.465	-19.002	-9.383	-9.177	-10.386	-1.135	-2.848	3.740	4.270	-1.030	8.180	9.517	8.711	9.194	7.211	468.750
-11.122	-9.503	-10.674	-2.794	3.546	-1.443	9.480	7.499	11.131	10.423	8.209	6.372	8.715	7.424	-19.399	-9.581	-9.220	-10.807	-1.108	-2.957	3.588	4.171	-1.292	8.425	9.767	9.055	9.611	7.635	472.656
-11.051	-9.450	-10.657	-2.905	3.363	-1.697	9.402	7.297	11.080	10.649	8.587	6.757	8.879	7.361	-19.472	-9.616	-8.983	-11.074	-0.924	-2.980	3.489	4.133	-1.503	8.532	9.843	9.188	9.757	7.833	476.562
-10.787	-9.222	-10.510	-2.931	3.225	-1.929	9.233	7.025	10.895	10.655	8.753	6.924	8.872	7.258	-19.188	-9.473	-8.510	-11.151	-0.628	-2.926	3.431	4.141	-1.656	8.474	9.722	9.092	9.618	7.809	480.469
-10.344	-8.815	-10.224	-2.866	3.135	-2.113	8.978	6.696	10.587	10.440	8.707	6.875	8.679	7.096	-18.569	-9.165	-7.877	-11.024	-0.282	-2.818	3.388	4.171	-1.752	8.243	9.413	8.789	9.228	7.600	484.375
-9.760	-8.248	-9.809	-2.720	3.085	-2.230	8.649	6.330	10.179	10.033	8.477	6.636	8.303	6.862	-17.680	-8.725	-7.176	-10.697	0.049	-2.687	3.331	4.194	-1.797	7.857	8.958	8.342	8.655	7.272	488.281
-9.097	-7.567	-9.294	-2.513	3.061	-2.269	8.261	5.947	9.708	9.481	8.100	6.250	7.762	6.549	-16.622	-8.204	-6.494	-10.199	0.309	-2.567	3.232	4.183	-1.803	7.353	8.422	7.838	7.992	6.904	492.188
-8.424	-6.834	-8.717	-2.277	3.040	-2.229	7.832	5.569	9.214	8.838	7.621	5.763	7.088	6.155	-15.517	-7.664	-5.900	-9.578	0.466	-2.489	3.070	4.121	-1.779	6.784	7.887	7.381	7.345	6.572	496.094
-7.815	-6.124	-8.125	-2.047	2.997	-2.123	7.372	5.213	8.734	8.155	7.083	5.223	6.319	5.690	-14.482	-7.165	-5.433	-8.894	0.514	-2.476	2.834	4.005	-1.728	6.212	7.437	7.068	6.808	6.337	500.000
-7.328	-5.509	-7.560	-1.860	2.911	-1.972	6.891	4.892	8.297	7.478	6.522	4.670	5.501	5.172	-13.617	-6.761	-5.098	-8.209	0.474	-2.539	2.531	3.847	-1.645	5.699	7.141	6.974	6.455	6.237	503.906
-7.002	-5.052	-7.056	-1.745	2.765	-1.803	6.393	4.611	7.917	6.835	5.967	4.134	4.677	4.625	-12.985	-6.487	-4.876	-7.579	0.385	-2.680	2.176	3.672	-1.522	5.296	7.042	7.132	6.323	6.275	507.812
-6.850	-4.790	-6.631	-1.722	2.556	-1.643	5.883	4.372	7.598	6.244	5.440	3.638	3.893	4.079	-12.603	-6.359	-4.729	-7.041	0.291	-2.891	1.793	3.509	-1.350	5.036	7.145	7.531	6.406	6.426	511.719
-6.852	-4.728	-6.291	-1.793	2.290	-1.512	5.369	4.171	7.335	5.713	4.958	3.195	3.186	3.565	-12.440	-6.369	-4.608	-6.607	0.232	-3.156	1.408	3.384	-1.123	4.926	7.416	8.108	6.657	6.640	515.625
-6.967	-4.839	-6.028	-1.947	1.987	-1.424	4.867	4.010	7.119	5.244	4.535	2.816	2.590	3.109	-12.429	-6.491	-4.473	-6.271	0.234	-3.453	1.046	3.315	-0.850	4.946	7.787	8.763	6.997	6.850	519.531
-7.134	-5.070	-5.825	-2.156	1.675	-1.378	4.405	3.890	6.944	4.843	4.188	2.509	2.130	2.737	-12.480	-6.682	-4.299	-6.005	0.302	-3.758	0.728	3.304	-0.551	5.053	8.164	9.370	7.328	6.989	523.438
-7.292	-5.351	-5.665	-2.381	1.388	-1.362	4.015	3.818	6.809	4.520	3.930	2.284	1.821	2.463	-12.499	-6.895	-4.081	-5.778	0.423	-4.042	0.469	3.338	-0.256	5.188	8.448	9.801	7.549	7.000	527.344
-7.386	-5.613	-5.533	-2.582	1.162	-1.358	3.735	3.804	6.719	4.287	3.773	2.148	1.670	2.298	-12.414	-7.079	-3.829	-5.560	0.574	-4.275	0.281	3.397	-0.001	5.291	8.550	9.949	7.580	6.845	531.250
-7.380	-5.797	-5.422	-2.721	1.026	-1.343	3.598	3.854	6.680	4.158	3.722	2.102	1.673	2.243	-12.186	-7.191	-3.562	-5.331	0.727	-4.428	0.174	3.453	0.184	5.310	8.416	9.749	7.372	6.514	535.156
-7.262	-5.869	-5.333	-2.773	0.997	-1.301	3.623	3.969	6.697	4.143	3.771	2.144	1.813	2.287	-11.815	-7.202	-3.297	-5.086	0.863	-4.474	0.152	3.486	0.278	5.213	8.031	9.190	6.917	6.025	539.062
-7.045	-5.820	-5.271	-2.729	1.077	-1.221	3.813	4.142	6.766	4.239	3.900	2.259	2.064	2.415	-11.341	-7.102	-3.047	-4.834	0.969	-4.399	0.214	3.483	0.280	4.995	7.427	8.320	6.254	5.421	542.969
-6.760	-5.664	-5.237	-2.599	1.252	-1.105	4.146	4.356	6.874	4.430	4.078	2.424	2.392	2.600	-10.827	-6.899	-2.823	-4.596	1.041	-4.205	0.354	3.442	0.202	4.676	6.676	7.237	5.453	4.764	546.875
-6.446	-5.433	-5.227	-2.405	1.492	-0.961	4.582	4.590	7.002	4.686	4.264	2.607	2.755	2.811	-10.342	-6.619	-2.633	-4.399	1.081	-3.909	0.553	3.368	0.072	4.293	5.871	6.077	4.610	4.124	550.781
-6.145	-5.166	-5.230	-2.179	1.759	-0.800	5.064	4.818	7.126	4.968	4.417	2.772	3.108	3.014	-9.947	-6.303	-2.489	-4.268	1.087	-3.548	0.784	3.273	-0.077	3.895	5.115	4.983	3.825	3.569	554.688
-5.886	-4.899	-5.224	-1.951	2.015	-0.632	5.528	5.014	7.219	5.226	4.496	2.881	3.407	3.175	-9.676	-5.992	-2.405	-4.217	1.060	-3.168	1.013	3.168	-0.214	3.528	4.491	4.078	3.181	3.148	558.594
-5.684	-4.654	-5.180	-1.744	2.227	-0.464	5.912	5.155	7.258	5.416	4.470	2.904	3.616	3.268	-9.528	-5.726	-2.395	-4.240	0.993	-2.819	1.206	3.057	-0.317	3.229	4.052	3.449	2.734	2.887	562.500
-5.534	-4.439	-5.068	-1.567	2.375	-0.299	6.162	5.221	7.220	5.496	4.321	2.819	3.709	3.274	-9.467	-5.531	-2.467	-4.312	0.883	-2.544	1.331	2.943	-0.376	3.016	3.810	3.125	2.502	2.784	566.406
-5.410	-4.242	-4.861	-1.419	2.453	-0.136	6.242	5.196	7.088	5.436	4.047	2.619	3.674	3.191	-9.430	-5.414	-2.620	-4.389	0.727	-2.371	1.373	2.821	-0.393	2.888	3.736	3.077	2.467	2.808	570.312
-5.277	-4.041	-4.541	-1.286	2.466	0.023	6.139	5.067	6.850	5.221	3.661	2.312	3.517	3.030	-9.338	-5.363	-2.832	-4.420	0.532	-2.304	1.328	2.688	-0.378	2.830	3.769	3.228	2.576	2.910	574.219
-5.089	-3.804	-4.097	-1.147	2.431	0.178	5.856	4.824	6.497	4.852	3.189	1.918	3.257	2.816	-9.111	-5.347	-3.067	-4.356	0.315	-2.324	1.217	2.543	-0.347	2.816	3.830	3.467	2.757	3.024	578.125
-4.805	-3.503	-3.536	-0.983	2.366	0.326	5.418	4.468	6.028	4.345	2.661	1.463	2.924	2.580	-8.684	-5.320	-3.273	-4.164	0.105	-2.393	1.071	2.388	-0.314	2.812	3.839	3.673	2.931	3.088	582.031
-4.396	-3.119	-2.875	-0.778	2.291	0.461	4.861	4.007	5.451	3.725	2.110	0.977	2.551	2.360	-8.022	-5.235	-3.394	-3.836	-0.064	-2.460	0.933	2.235	-0.288	2.787	3.727	3.738	3.021	3.044	585.938
-3.851	-2.647	-2.144	-0.525	2.222	0.580	4.231	3.462	4.788	3.027	1.566	0.483	2.168	2.183	-7.122	-5.051	-3.376	-3.393	-0.154	-2.474	0.845	2.101	-0.270	2.716	3.454	3.589	2.967	2.858	589.844
-3.183	-2.098	-1.379	-0.230	2.167	0.681	3.572	2.869	4.071	2.288	1.051	0.001	1.796	2.069	-6.020	-4.743	-3.188	-2.878	-0.136	-2.392	0.841	2.004	-0.255	2.580	3.015	3.200	2.735	2.517	593.750
-2.426	-1.499	-0.624	0.091	2.129	0.766	2.927	2.276	3.347	1.545	0.581	-0.458	1.441	2.018	-4.781	-4.308	-2.821	-2.349	0.005	-2.197	0.932	1.961	-0.232	2.372	2.436	2.597	2.317	2.034	597.656
-1.631	-0.885	0.079	0.415	2.102	0.838	2.327	1.737	2.669	0.828	0.163	-0.893	1.093	2.013	-3.490	-3.771	-2.295	-1.862	0.264	-1.895	1.109	1.980	-0.188	2.092	1.770	1.847	1.733	1.447	601.562
-0.858	-0.292	0.699	0.714	2.077	0.904	1.792	1.304	2.091	0.162	-0.205	-1.310	0.731	2.020	-2.233	-3.173	-1.652	-1.461	0.618	-1.519	1.341	2.059	-0.114	1.746	1.086	1.048	1.026	0.807	605.469
-0.163	0.246	1.213	0.963	2.042	0.972	1.329	1.018	1.657	-0.439	-0.528	-1.718	0.324	1.993	-1.086	-2.569	-0.948	-1.161	1.032	-1.117	1.576	2.181	-0.005	1.346	0.449	0.302	0.251	0.168	609.375
0.408	0.705	1.615	1.143	1.988	1.046	0.936	0.903	1.390	-0.970	-0.816	-2.128	-0.156	1.887	-0.107	-2.014	-0.241	-0.957	1.461	-0.748	1.760	2.319	0.132	0.905	-0.084	-0.297	-0.534	-0.422	613.281
0.829	1.073	1.908	1.248	1.909	1.130	0.609	0.956	1.296	-1.431	-1.083	-2.547	-0.727	1.667	0.673	-1.549	0.416	-0.816	1.862	-0.460	1.843	2.441	0.285	0.439	-0.478	-0.689	-1.274	-0.928	617.188
1.092	1.351	2.110	1.286	1.808	1.228	0.340	1.154	1.354	-1.823	-1.342	-2.976	-1.388	1.317	1.246	-1.201	0.983	-0.699	2.200	-0.288	1.792	2.515	0.432	-0.034	-0.722	-0.847	-1.925	-1.331	621.094
1.212	1.550	2.241	1.271	1.692	1.339	0.129	1.450	1.522	-2.146	-1.604	-3.411	-2.117	0.844	1.623	-0.972	1.436	-0.567	2.450	-0.242	1.599	2.516	0.554	-0.496	-0.828	-0.786	-2.457	-1.632	625.000
1.222	1.689	2.331	1.225	1.574	1.462	-0.023	1.787	1.746	-2.399	-1.878	-3.839	-2.868	0.281	1.834	-0.848	1.767	-0.393	2.605	-0.310	1.281	2.437	0.636	-0.924	-0.825	-0.558	-2.855	-1.845	628.906
1.168	1.794	2.413	1.169	1.467	1.597	-0.111	2.103	1.963	-2.580	-2.166	-4.249	-3.583	-0.322	1.919	-0.798	1.983	-0.176	2.670	-0.463	0.875	2.283	0.669	-1.295	-0.756	-0.239	-3.121	-1.992	632.812
1.107	1.892	2.522	1.122	1.378	1.742	-0.136	2.338	2.113	-2.688	-2.469	-4.628	-4.198	-0.903	1.930	-0.785	2.104	0.069	2.660	-0.662	0.432	2.078	0.657	-1.590	-0.674	0.080	-3.268	-2.105	636.719
1.094	2.013	2.694	1.099	1.311	1.895	-0.102	2.448	2.147	-2.729	-2.785	-4.970	-4.656	-1.405	1.927	-0.775	2.156	0.311	2.598	-0.866	0.006	1.853	0.611	-1.794	-0.629	0.309	-3.321	-2.214	640.625
1.181	2.183	2.958	1.110	1.261	2.050	-0.021	2.408	2.033	-2.712	-3.104	-5.272	-4.918	-1.781	1.971	-0.740	2.167	0.514	2.504	-1.040	-0.356	1.640	0.544	-1.901	-0.666	0.373	-3.313	-2.346	644.531
1.404	2.422	3.333	1.164	1.221	2.202	0.087	2.214	1.764	-2.655	-3.417	-5.533	-4.968	-2.004	2.118	-0.664	2.163	0.650	2.393	-1.161	-0.622	1.463	0.467	-1.920	-0.823	0.220	-3.283	-2.518	648.438
1.780	2.740	3.820	1.261	1.180	2.344	0.200	1.887	1.356	-2.574	-3.708	-5.756	-4.817	-2.067	2.414	-0.543	2.161	0.707	2.271	-1.220	-0.777	1.333	0.383	-1.871	-1.118	-0.167	-3.265	-2.740	652.344
2.298	3.133	4.402	1.397	1.132	2.465	0.297	1.471	0.849	-2.487	-3.958	-5.938	-4.498	-1.987	2.883	-0.388	2.169	0.687	2.138	-1.220	-0.825	1.241	0.289	-1.784	-1.551	-0.769	-3.292	-3.004	656.250
2.926	3.577	5.042	1.561	1.072	2.557	0.360	1.018	0.299	-2.406	-4.149	-6.076	-4.060	-1.792	3.519	-0.219	2.183	0.610	1.987	-1.178	-0.784	1.169	0.173	-1.691	-2.101	-1.532	-3.380	-3.294	660.156
3.603	4.031	5.682	1.731	1.001	2.607	0.379	0.589	-0.231	-2.339	-4.260	-6.160	-3.557	-1.522	4.285	-0.063	2.192	0.501	1.815	-1.117	-0.681	1.089	0.023	-1.621	-2.721	-2.373	-3.530	-3.576	664.062
4.255	4.442	6.256	1.881	0.920	2.604	0.353	0.236	-0.681	-2.287	-4.280	-6.178	-3.039	-1.213	5.110	0.052	2.179	0.391	1.623	-1.061	-0.541	0.980	-0.166	-1.590	-3.350	-3.189	-3.727	-3.812	667.969
4.803	4.750	6.695	1.978	0.829	2.536	0.284	-0.006	-1.006	-2.250	-4.204	-6.116	-2.549	-0.897	5.904	0.103	2.128	0.302	1.416	-1.030	-0.392	0.830	-0.392	-1.599	-3.913	-3.874	-3.936	-3.961	671.875
5.174	4.902	6.939	1.993	0.727	2.392	0.178	-0.121	-1.185	-2.225	-4.037	-5.965	-2.112	-0.597	6.567	0.073	2.029	0.249	1.208	-1.036	-0.248	0.640	-0.641	-1.631	-4.335	-4.335	-4.114	-3.983	675.781
5.317	4.866	6.948	1.905	0.609	2.165	0.045	-0.119	-1.218	-2.211	-3.796	-5.722	-1.739	-0.326	7.009	-0.039	1.885	0.235	1.014	-1.082	-0.120	0.426	-0.887	-1.660	-4.551	-4.501	-4.213	-3.854	679.688
5.212	4.636	6.710	1.708	0.467	1.856	-0.108	-0.032	-1.131	-2.209	-3.506	-5.392	-1.430	-0.086	7.167	-0.224	1.706	0.254	0.849	-1.164	-0.012	0.214	-1.104	-1.655	-4.519	-4.338	-4.197	-3.560	683.594
4.875	4.241	6.247	1.413	0.297	1.474	-0.271	0.095	-0.966	-2.221	-3.196	-4.990	-1.181	0.122	7.017	-0.461	1.514	0.291	0.723	-1.268	0.076	0.033	-1.265	-1.591	-4.231	-3.855	-4.041	-3.109	687.500
4.355	3.739	5.608	1.049	0.095	1.040	-0.438	0.213	-0.769	-2.249	-2.892	-4.541	-0.987	0.297	6.583	-0.719	1.332	0.330	0.641	-1.379	0.146	-0.093	-1.348	-1.455	-3.710	-3.103	-3.747	-2.531	691.406
3.726	3.209	4.865	0.658	-0.134	0.581	-0.607	0.279	-0.584	-2.298	-2.621	-4.075	-0.849	0.437	5.929	-0.967	1.183	0.357	0.605	-1.481	0.195	-0.145	-1.344	-1.251	-3.014	-2.165	-3.339	-1.870	695.312
3.077	2.736	4.101	0.290	-0.382	0.135	-0.776	0.268	-0.444	-2.370	-2.403	-3.626	-0.774	0.532	5.156	-1.172	1.086	0.368	0.610	-1.557	0.220	-0.119	-1.255	-1.000	-2.225	-1.150	-2.860	-1.187	699.219
2.495	2.395	3.397	-0.006	-0.634	-0.261	-0.949	0.173	-0.368	-2.470	-2.250	-3.229	-0.775	0.570	4.384	-1.304	1.055	0.369	0.654	-1.595	0.217	-0.023	-1.093	-0.735	-1.435	-0.174	-2.370	-0.547	703.125
2.056	2.241	2.827	-0.192	-0.873	-0.570	-1.130	0.008	-0.361	-2.602	-2.171	-2.920	-0.868	0.536	3.733	-1.344	1.099	0.375	0.732	-1.585	0.180	0.126	-0.878	-0.496	-0.741	0.654	-1.931	-0.014	707.031
1.813	2.299	2.444	-0.243	-1.084	-0.765	-1.325	-0.201	-0.417	-2.767	-2.170	-2.724	-1.064	0.419	3.305	-1.279	1.223	0.411	0.841	-1.521	0.108	0.302	-0.638	-0.325	-0.223	1.249	-1.602	0.357	710.938
1.791	2.560	2.285	-0.155	-1.252	-0.828	-1.537	-0.419	-0.523	-2.964	-2.247	-2.662	-1.367	0.212	3.169	-1.106	1.424	0.500	0.972	-1.399	0.003	0.474	-0.399	-0.254	0.062	1.553	-1.427	0.529	714.844
1.984	2.986	2.360	0.055	-1.369	-0.759	-1.763	-0.612	-0.661	-3.187	-2.394	-2.739	-1.768	-0.078	3.347	-0.836	1.685	0.657	1.114	-1.219	-0.128	0.613	-0.190	-0.304	0.086	1.552	-1.431	0.492	718.750
2.361	3.519	2.657	0.350	-1.434	-0.573	-1.995	-0.754	-0.811	-3.422	-2.599	-2.943	-2.241	-0.436	3.818	-0.488	1.979	0.887	1.245	-0.991	-0.275	0.695	-0.032	-0.481	-0.141	1.267	-1.614	0.259	722.656
2.867	4.087	3.137	0.683	-1.449	-0.300	-2.214	-0.830	-0.955	-3.646	-2.843	-3.249	-2.746	-0.833	4.515	-0.090	2.265	1.176	1.341	-0.726	-0.425	0.702	0.059	-0.769	-0.581	0.755	-1.951	-0.131	726.562
3.437	4.622	3.744	1.004	-1.421	0.022	-2.398	-0.837	-1.077	-3.834	-3.099	-3.614	-3.233	-1.234	5.340	0.325	2.500	1.492	1.377	-0.442	-0.563	0.628	0.076	-1.140	-1.166	0.100	-2.395	-0.619	730.469
4.001	5.066	4.404	1.268	-1.361	0.349	-2.527	-0.786	-1.167	-3.958	-3.336	-3.987	-3.645	-1.600	6.182	0.724	2.644	1.794	1.333	-0.162	-0.678	0.480	0.019	-1.550	-1.818	-0.606	-2.885	-1.134	734.375
4.501	5.385	5.040	1.447	-1.281	0.641	-2.582	-0.696	-1.219	-3.995	-3.522	-4.313	-3.931	-1.895	6.936	1.076	2.675	2.033	1.200	0.093	-0.759	0.274	-0.110	-1.952	-2.454	-1.275	-3.356	-1.609	738.281
4.893	5.569	5.577	1.530	-1.197	0.861	-2.555	-0.592	-1.233	-3.930	-3.630	-4.545	-4.054	-2.092	7.518	1.358	2.591	2.165	0.985	0.304	-0.801	0.032	-0.302	-2.302	-3.003	-1.834	-3.750	-1.988	742.188
5.159	5.632	5.964	1.524	-1.125	0.988	-2.450	-0.498	-1.212	-3.762	-3.639	-4.649	-3.997	-2.177	7.881	1.561	2.415	2.163	0.708	0.458	-0.805	-0.220	-0.546	-2.562	-3.419	-2.238	-4.023	-2.233	746.094
5.301	5.603	6.172	1.450	-1.079	1.013	-2.284	-0.435	-1.167	-3.509	-3.544	-4.614	-3.768	-2.155	8.021	1.682	2.192	2.022	0.406	0.551	-0.776	-0.456	-0.829	-2.715	-3.679	-2.474	-4.155	-2.335	750.000
5.342	5.524	6.206	1.336	-1.073	0.942	-2.084	-0.420	-1.115	-3.199	-3.356	-4.456	-3.397	-2.041	7.969	1.736	1.980	1.762	0.121	0.590	-0.721	-0.653	-1.130	-2.754	-3.788	-2.555	-4.149	-2.308	753.906
5.316	5.434	6.095	1.212	-1.114	0.793	-1.880	-0.462	-1.076	-2.872	-3.100	-4.210	-2.931	-1.862	7.781	1.743	1.835	1.424	-0.099	0.588	-0.645	-0.791	-1.427	-2.693	-3.771	-2.515	-4.027	-2.184	757.812
5.259	5.364	5.885	1.101	-1.198	0.592	-1.701	-0.563	-1.069	-2.572	-2.813	-3.928	-2.426	-1.644	7.524	1.729	1.803	1.060	-0.218	0.568	-0.550	-0.858	-1.693	-2.552	-3.663	-2.397	-3.824	-2.007	761.719
5.201	5.329	5.626	1.018	-1.316	0.372	-1.564	-0.719	-1.109	-2.331	-2.535	-3.664	-1.930	-1.407	7.256	1.719	1.900	0.720	-0.214	0.551	-0.435	-0.847	-1.900	-2.355	-3.496	-2.240	-3.575	-1.818	765.625
5.157	5.329	5.361	0.967	-1.445	0.160	-1.475	-0.919	-1.205	-2.168	-2.300	-3.461	-1.479	-1.162	7.011	1.727	2.108	0.443	-0.090	0.556	-0.293	-0.757	-2.029	-2.123	-3.297	-2.073	-3.307	-1.645	769.531
5.126	5.350	5.116	0.945	-1.560	-0.021	-1.421	-1.150	-1.351	-2.082	-2.133	-3.345	-1.091	-0.906	6.797	1.758	2.374	0.244	0.131	0.590	-0.118	-0.594	-2.065	-1.867	-3.077	-1.908	-3.034	-1.501	773.438
5.096	5.371	4.905	0.941	-1.637	-0.155	-1.379	-1.394	-1.536	-2.056	-2.043	-3.323	-0.763	-0.629	6.593	1.805	2.622	0.118	0.407	0.649	0.095	-0.368	-2.005	-1.595	-2.838	-1.744	-2.755	-1.378	777.344
5.046	5.366	4.723	0.943	-1.653	-0.239	-1.320	-1.638	-1.739	-2.057	-2.027	-3.380	-0.479	-0.315	6.365	1.852	2.772	0.039	0.693	0.723	0.349	-0.093	-1.857	-1.306	-2.572	-1.571	-2.461	-1.258	781.250
4.958	5.318	4.560	0.942	-1.599	-0.275	-1.220	-1.871	-1.941	-2.056	-2.071	-3.492	-0.218	0.048	6.079	1.883	2.760	-0.024	0.947	0.797	0.643	0.218	-1.636	-0.994	-2.271	-1.377	-2.138	-1.116	785.156
4.822	5.217	4.402	0.930	-1.476	-0.274	-1.063	-2.087	-2.129	-2.028	-2.154	-3.633	0.045	0.468	5.711	1.888	2.562	-0.099	1.147	0.861	0.970	0.550	-1.363	-0.660	-1.931	-1.152	-1.778	-0.937	789.062
4.640	5.068	4.238	0.904	-1.299	-0.249	-0.853	-2.289	-2.296	-1.962	-2.257	-3.779	0.324	0.937	5.261	1.865	2.198	-0.202	1.288	0.909	1.323	0.892	-1.060	-0.303	-1.555	-0.896	-1.380	-0.714	792.969
4.426	4.887	4.062	0.865	-1.092	-0.218	-0.604	-2.482	-2.448	-1.864	-2.362	-3.918	0.627	1.440	4.754	1.821	1.730	-0.335	1.386	0.945	1.691	1.234	-0.749	0.070	-1.154	-0.616	-0.955	-0.459	796.875
