FP1	F3	F7	FC3	C3	C5	P3	P7	PO7	PO3	O1	Oz	Pz	CPz	FP2	Fz	F4	F8	FC4	FCz	Cz	C4	C6	P4	P8	PO8	PO4	O2	time
0.393	0.689	0.195	0.801	0.980	0.821	0.982	0.002	0.494	0.794	0.774	0.365	1.249	1.383	-0.049	0.373	0.005	-1.117	0.054	1.184	1.249	0.107	-0.169	-0.180	-1.441	-2.148	-1.031	-1.245	-199.219
0.362	0.665	0.267	0.844	0.991	0.849	0.936	0.077	0.403	0.698	0.512	0.183	1.080	1.192	-0.139	0.340	-0.099	-0.939	0.022	1.071	1.170	0.089	-0.186	-0.249	-1.285	-1.807	-0.948	-1.099	-195.312
0.303	0.614	0.311	0.858	0.975	0.856	0.873	0.142	0.320	0.602	0.288	0.033	0.914	0.999	-0.242	0.285	-0.208	-0.766	-0.012	0.944	1.076	0.077	-0.184	-0.282	-1.108	-1.459	-0.836	-0.934	-191.406
0.201	0.518	0.308	0.823	0.908	0.825	0.780	0.190	0.248	0.505	0.124	-0.064	0.751	0.803	-0.359	0.193	-0.323	-0.603	-0.046	0.794	0.956	0.079	-0.145	-0.254	-0.895	-1.097	-0.679	-0.737	-187.500
0.049	0.364	0.245	0.725	0.781	0.748	0.652	0.218	0.190	0.407	0.034	-0.097	0.597	0.605	-0.490	0.054	-0.440	-0.456	-0.077	0.617	0.802	0.097	-0.061	-0.154	-0.639	-0.726	-0.470	-0.506	-183.594
-0.149	0.153	0.127	0.565	0.596	0.627	0.496	0.225	0.148	0.315	0.021	-0.064	0.457	0.409	-0.630	-0.129	-0.554	-0.329	-0.105	0.416	0.616	0.132	0.064	0.015	-0.349	-0.356	-0.213	-0.245	-179.688
-0.378	-0.103	-0.033	0.355	0.370	0.473	0.326	0.217	0.123	0.236	0.077	0.026	0.341	0.222	-0.769	-0.343	-0.657	-0.229	-0.128	0.200	0.405	0.175	0.217	0.232	-0.045	-0.004	0.073	0.030	-175.781
-0.616	-0.381	-0.207	0.118	0.127	0.303	0.161	0.202	0.115	0.175	0.186	0.155	0.250	0.049	-0.893	-0.568	-0.741	-0.157	-0.146	-0.017	0.182	0.219	0.376	0.468	0.245	0.311	0.362	0.296	-171.875
-0.832	-0.650	-0.365	-0.122	-0.109	0.136	0.017	0.187	0.124	0.134	0.323	0.298	0.186	-0.103	-0.985	-0.780	-0.794	-0.116	-0.159	-0.219	-0.038	0.254	0.516	0.684	0.497	0.568	0.621	0.528	-167.969
-0.997	-0.880	-0.482	-0.340	-0.316	-0.013	-0.093	0.179	0.147	0.107	0.460	0.430	0.140	-0.230	-1.030	-0.954	-0.810	-0.104	-0.167	-0.388	-0.237	0.271	0.617	0.849	0.689	0.754	0.821	0.703	-164.062
-1.087	-1.048	-0.539	-0.517	-0.482	-0.133	-0.169	0.181	0.180	0.086	0.572	0.526	0.104	-0.329	-1.015	-1.070	-0.785	-0.117	-0.169	-0.512	-0.401	0.267	0.668	0.938	0.813	0.862	0.941	0.807	-160.156
-1.091	-1.141	-0.528	-0.641	-0.601	-0.220	-0.216	0.193	0.218	0.058	0.640	0.572	0.064	-0.402	-0.936	-1.115	-0.721	-0.145	-0.164	-0.582	-0.517	0.242	0.665	0.941	0.870	0.895	0.972	0.833	-156.250
-1.007	-1.155	-0.455	-0.705	-0.674	-0.275	-0.242	0.213	0.255	0.016	0.655	0.563	0.012	-0.449	-0.796	-1.084	-0.621	-0.176	-0.149	-0.592	-0.579	0.200	0.615	0.860	0.867	0.860	0.914	0.788	-152.344
-0.850	-1.096	-0.332	-0.711	-0.703	-0.301	-0.260	0.232	0.282	-0.047	0.617	0.501	-0.058	-0.471	-0.608	-0.979	-0.492	-0.197	-0.123	-0.544	-0.584	0.149	0.531	0.708	0.814	0.768	0.781	0.682	-148.438
-0.640	-0.976	-0.179	-0.660	-0.693	-0.300	-0.278	0.244	0.292	-0.130	0.535	0.396	-0.146	-0.470	-0.386	-0.810	-0.341	-0.193	-0.082	-0.443	-0.535	0.094	0.426	0.505	0.722	0.630	0.588	0.534	-144.531
-0.401	-0.807	-0.016	-0.559	-0.647	-0.278	-0.301	0.239	0.276	-0.230	0.421	0.263	-0.249	-0.449	-0.149	-0.588	-0.173	-0.152	-0.024	-0.296	-0.438	0.044	0.317	0.271	0.599	0.454	0.356	0.361	-140.625
-0.154	-0.602	0.137	-0.414	-0.570	-0.237	-0.334	0.210	0.228	-0.340	0.288	0.114	-0.359	-0.408	0.091	-0.331	0.009	-0.065	0.055	-0.118	-0.303	0.007	0.217	0.027	0.450	0.249	0.100	0.178	-136.719
0.083	-0.376	0.262	-0.236	-0.465	-0.183	-0.376	0.150	0.143	-0.457	0.146	-0.041	-0.470	-0.350	0.321	-0.057	0.202	0.071	0.155	0.079	-0.139	-0.009	0.139	-0.209	0.285	0.027	-0.163	-0.006	-132.812
0.297	-0.142	0.347	-0.040	-0.340	-0.124	-0.426	0.059	0.022	-0.573	-0.000	-0.196	-0.572	-0.278	0.534	0.212	0.400	0.249	0.277	0.278	0.040	0.001	0.092	-0.420	0.116	-0.199	-0.417	-0.183	-128.906
0.476	0.080	0.385	0.155	-0.207	-0.068	-0.478	-0.060	-0.131	-0.684	-0.146	-0.344	-0.655	-0.193	0.717	0.457	0.592	0.451	0.412	0.463	0.222	0.041	0.083	-0.590	-0.039	-0.406	-0.647	-0.344	-125.000
0.611	0.270	0.375	0.330	-0.078	-0.023	-0.527	-0.198	-0.300	-0.781	-0.287	-0.478	-0.708	-0.098	0.856	0.658	0.760	0.651	0.549	0.617	0.395	0.108	0.110	-0.701	-0.163	-0.571	-0.832	-0.480	-121.094
0.689	0.412	0.324	0.464	0.033	0.000	-0.562	-0.340	-0.466	-0.850	-0.414	-0.587	-0.719	0.007	0.934	0.797	0.884	0.816	0.670	0.728	0.546	0.194	0.166	-0.741	-0.239	-0.669	-0.950	-0.578	-117.188
0.700	0.490	0.240	0.541	0.115	-0.004	-0.574	-0.470	-0.606	-0.876	-0.518	-0.657	-0.681	0.117	0.937	0.865	0.943	0.914	0.756	0.786	0.667	0.286	0.233	-0.701	-0.256	-0.681	-0.985	-0.621	-113.281
0.640	0.499	0.136	0.551	0.160	-0.037	-0.552	-0.569	-0.698	-0.846	-0.583	-0.674	-0.587	0.228	0.858	0.859	0.924	0.920	0.790	0.785	0.748	0.368	0.291	-0.584	-0.216	-0.599	-0.925	-0.597	-109.375
0.512	0.443	0.023	0.494	0.167	-0.097	-0.489	-0.620	-0.723	-0.748	-0.597	-0.627	-0.441	0.332	0.701	0.782	0.821	0.824	0.762	0.726	0.783	0.421	0.321	-0.402	-0.128	-0.430	-0.772	-0.497	-105.469
0.330	0.334	-0.085	0.377	0.137	-0.177	-0.385	-0.612	-0.672	-0.582	-0.552	-0.513	-0.257	0.417	0.484	0.648	0.645	0.634	0.670	0.614	0.767	0.431	0.306	-0.180	-0.015	-0.195	-0.540	-0.326	-101.562
0.116	0.194	-0.176	0.218	0.077	-0.264	-0.247	-0.542	-0.548	-0.360	-0.449	-0.340	-0.054	0.473	0.237	0.474	0.418	0.377	0.523	0.457	0.699	0.392	0.243	0.053	0.099	0.073	-0.259	-0.102	-97.656
-0.097	0.047	-0.241	0.038	-0.006	-0.347	-0.090	-0.417	-0.365	-0.106	-0.297	-0.128	0.138	0.489	-0.008	0.284	0.174	0.095	0.341	0.271	0.581	0.305	0.140	0.262	0.190	0.332	0.033	0.143	-93.750
-0.280	-0.083	-0.272	-0.139	-0.099	-0.411	0.066	-0.253	-0.150	0.148	-0.119	0.096	0.292	0.456	-0.220	0.102	-0.049	-0.163	0.148	0.073	0.419	0.182	0.015	0.421	0.242	0.545	0.298	0.373	-89.844
-0.405	-0.177	-0.264	-0.292	-0.193	-0.448	0.199	-0.073	0.068	0.366	0.060	0.301	0.383	0.375	-0.377	-0.049	-0.216	-0.354	-0.028	-0.119	0.227	0.042	-0.109	0.508	0.246	0.686	0.503	0.552	-85.938
-0.456	-0.226	-0.220	-0.403	-0.277	-0.455	0.289	0.096	0.259	0.519	0.213	0.461	0.400	0.250	-0.472	-0.154	-0.307	-0.449	-0.165	-0.287	0.020	-0.094	-0.209	0.519	0.205	0.744	0.628	0.657	-82.031
-0.430	-0.229	-0.145	-0.464	-0.342	-0.435	0.325	0.230	0.400	0.590	0.320	0.558	0.342	0.095	-0.509	-0.203	-0.316	-0.443	-0.250	-0.417	-0.183	-0.207	-0.271	0.461	0.133	0.728	0.670	0.680	-78.125
-0.338	-0.198	-0.051	-0.477	-0.380	-0.396	0.307	0.313	0.480	0.576	0.369	0.586	0.224	-0.071	-0.501	-0.199	-0.256	-0.351	-0.280	-0.501	-0.363	-0.282	-0.288	0.353	0.049	0.657	0.642	0.631	-74.219
-0.202	-0.146	0.049	-0.450	-0.387	-0.345	0.242	0.338	0.498	0.489	0.359	0.552	0.070	-0.228	-0.463	-0.153	-0.154	-0.207	-0.263	-0.539	-0.506	-0.312	-0.263	0.221	-0.027	0.562	0.565	0.531	-70.312
-0.050	-0.090	0.140	-0.396	-0.362	-0.291	0.146	0.310	0.459	0.352	0.298	0.468	-0.092	-0.358	-0.408	-0.081	-0.041	-0.050	-0.215	-0.537	-0.602	-0.296	-0.206	0.092	-0.076	0.467	0.463	0.402	-66.406
0.091	-0.042	0.211	-0.330	-0.306	-0.236	0.037	0.240	0.376	0.189	0.200	0.351	-0.236	-0.447	-0.345	-0.000	0.057	0.085	-0.151	-0.505	-0.647	-0.242	-0.130	-0.013	-0.090	0.390	0.359	0.270	-62.500
0.201	-0.006	0.257	-0.264	-0.225	-0.180	-0.070	0.144	0.262	0.026	0.080	0.217	-0.345	-0.490	-0.275	0.075	0.121	0.174	-0.089	-0.454	-0.647	-0.162	-0.049	-0.082	-0.069	0.337	0.263	0.148	-58.594
0.276	0.023	0.278	-0.207	-0.128	-0.121	-0.166	0.038	0.129	-0.122	-0.045	0.079	-0.411	-0.492	-0.193	0.137	0.150	0.212	-0.038	-0.395	-0.610	-0.075	0.023	-0.118	-0.024	0.299	0.180	0.045	-54.688
0.321	0.055	0.279	-0.160	-0.025	-0.057	-0.245	-0.066	-0.015	-0.244	-0.163	-0.052	-0.439	-0.461	-0.091	0.186	0.152	0.209	-0.003	-0.334	-0.549	0.003	0.071	-0.133	0.024	0.260	0.103	-0.040	-50.781
0.355	0.106	0.268	-0.120	0.072	0.012	-0.307	-0.158	-0.160	-0.336	-0.268	-0.173	-0.437	-0.412	0.041	0.228	0.144	0.185	0.015	-0.274	-0.478	0.055	0.086	-0.147	0.055	0.202	0.022	-0.112	-46.875
0.395	0.186	0.254	-0.081	0.153	0.083	-0.353	-0.234	-0.299	-0.398	-0.357	-0.280	-0.420	-0.359	0.209	0.267	0.147	0.164	0.018	-0.218	-0.407	0.071	0.063	-0.179	0.050	0.110	-0.072	-0.179	-42.969
0.457	0.297	0.243	-0.040	0.210	0.147	-0.382	-0.289	-0.422	-0.429	-0.429	-0.373	-0.395	-0.311	0.408	0.308	0.171	0.162	0.009	-0.166	-0.346	0.046	-0.002	-0.238	0.005	-0.019	-0.180	-0.244	-39.062
0.539	0.429	0.233	0.007	0.239	0.196	-0.389	-0.319	-0.515	-0.427	-0.485	-0.448	-0.367	-0.273	0.621	0.346	0.218	0.186	-0.012	-0.123	-0.303	-0.017	-0.102	-0.323	-0.074	-0.173	-0.294	-0.306	-35.156
0.624	0.561	0.218	0.054	0.243	0.221	-0.364	-0.319	-0.564	-0.386	-0.522	-0.499	-0.331	-0.244	0.820	0.372	0.279	0.226	-0.048	-0.097	-0.279	-0.110	-0.230	-0.418	-0.166	-0.327	-0.392	-0.356	-31.250
0.684	0.665	0.186	0.094	0.227	0.216	-0.298	-0.284	-0.553	-0.296	-0.537	-0.517	-0.278	-0.219	0.965	0.369	0.333	0.261	-0.105	-0.096	-0.278	-0.220	-0.370	-0.496	-0.244	-0.449	-0.446	-0.380	-27.344
0.682	0.712	0.128	0.114	0.201	0.182	-0.181	-0.210	-0.474	-0.152	-0.519	-0.491	-0.196	-0.190	1.019	0.324	0.356	0.267	-0.185	-0.129	-0.299	-0.335	-0.508	-0.529	-0.278	-0.506	-0.429	-0.363	-23.438
0.585	0.680	0.033	0.105	0.170	0.124	-0.014	-0.099	-0.324	0.047	-0.460	-0.412	-0.079	-0.152	0.952	0.228	0.326	0.225	-0.290	-0.200	-0.340	-0.442	-0.629	-0.492	-0.250	-0.475	-0.318	-0.296	-19.531
0.376	0.562	-0.098	0.059	0.142	0.051	0.195	0.043	-0.115	0.293	-0.352	-0.279	0.074	-0.101	0.748	0.080	0.233	0.124	-0.416	-0.309	-0.400	-0.534	-0.721	-0.371	-0.150	-0.350	-0.106	-0.177	-15.625
0.057	0.364	-0.260	-0.025	0.117	-0.026	0.427	0.202	0.133	0.566	-0.193	-0.098	0.258	-0.039	0.414	-0.106	0.079	-0.033	-0.552	-0.448	-0.473	-0.606	-0.779	-0.168	0.014	-0.141	0.198	-0.015	-11.719
-0.346	0.107	-0.440	-0.143	0.093	-0.096	0.658	0.363	0.390	0.841	0.007	0.118	0.458	0.027	-0.023	-0.311	-0.124	-0.226	-0.687	-0.603	-0.556	-0.658	-0.804	0.099	0.223	0.126	0.567	0.174	-7.812
-0.791	-0.178	-0.616	-0.283	0.063	-0.153	0.861	0.508	0.628	1.088	0.236	0.348	0.657	0.091	-0.522	-0.510	-0.350	-0.430	-0.808	-0.761	-0.643	-0.692	-0.802	0.403	0.448	0.416	0.964	0.368	-3.906
-1.226	-0.458	-0.770	-0.430	0.024	-0.193	1.012	0.621	0.819	1.283	0.474	0.572	0.836	0.142	-1.034	-0.680	-0.572	-0.617	-0.903	-0.906	-0.726	-0.712	-0.781	0.708	0.659	0.692	1.345	0.546	0.000
-1.597	-0.705	-0.881	-0.570	-0.031	-0.218	1.096	0.692	0.947	1.409	0.701	0.770	0.979	0.173	-1.510	-0.802	-0.764	-0.763	-0.964	-1.025	-0.801	-0.720	-0.750	0.982	0.829	0.919	1.671	0.692	3.906
-1.863	-0.895	-0.932	-0.688	-0.101	-0.232	1.109	0.718	1.007	1.461	0.901	0.929	1.075	0.182	-1.908	-0.869	-0.906	-0.852	-0.989	-1.112	-0.863	-0.716	-0.716	1.195	0.940	1.071	1.908	0.795	7.812
-1.994	-1.015	-0.914	-0.775	-0.182	-0.239	1.054	0.700	1.004	1.443	1.059	1.039	1.118	0.165	-2.196	-0.877	-0.986	-0.878	-0.978	-1.162	-0.911	-0.700	-0.683	1.327	0.983	1.132	2.034	0.847	11.719
-1.981	-1.061	-0.825	-0.825	-0.269	-0.241	0.942	0.647	0.949	1.365	1.164	1.095	1.105	0.122	-2.353	-0.834	-1.000	-0.842	-0.933	-1.178	-0.945	-0.668	-0.649	1.367	0.961	1.096	2.039	0.847	15.625
-1.831	-1.036	-0.673	-0.835	-0.353	-0.237	0.786	0.571	0.855	1.238	1.209	1.095	1.035	0.053	-2.366	-0.749	-0.951	-0.750	-0.860	-1.165	-0.972	-0.620	-0.612	1.313	0.884	0.969	1.927	0.799	19.531
-1.567	-0.951	-0.473	-0.811	-0.428	-0.227	0.599	0.483	0.735	1.073	1.188	1.041	0.908	-0.041	-2.235	-0.634	-0.844	-0.607	-0.766	-1.133	-0.999	-0.561	-0.569	1.171	0.768	0.767	1.716	0.712	23.438
-1.223	-0.822	-0.247	-0.758	-0.491	-0.211	0.388	0.392	0.598	0.875	1.104	0.938	0.728	-0.162	-1.973	-0.502	-0.690	-0.421	-0.657	-1.091	-1.036	-0.493	-0.517	0.956	0.632	0.515	1.431	0.598	27.344
-0.841	-0.666	-0.017	-0.689	-0.546	-0.190	0.157	0.302	0.451	0.649	0.962	0.795	0.497	-0.312	-1.607	-0.362	-0.497	-0.195	-0.540	-1.051	-1.091	-0.425	-0.455	0.689	0.497	0.247	1.104	0.472	31.250
-0.465	-0.505	0.195	-0.618	-0.600	-0.169	-0.093	0.213	0.296	0.396	0.775	0.621	0.223	-0.487	-1.175	-0.223	-0.276	0.064	-0.420	-1.020	-1.170	-0.363	-0.380	0.398	0.386	-0.001	0.773	0.350	35.156
-0.142	-0.361	0.370	-0.558	-0.663	-0.158	-0.362	0.116	0.133	0.120	0.557	0.426	-0.081	-0.683	-0.729	-0.092	-0.035	0.349	-0.300	-1.001	-1.274	-0.308	-0.294	0.119	0.318	-0.192	0.474	0.244	39.062
0.088	-0.251	0.496	-0.524	-0.746	-0.166	-0.643	0.006	-0.036	-0.172	0.324	0.218	-0.395	-0.887	-0.327	0.026	0.212	0.648	-0.180	-0.995	-1.397	-0.261	-0.196	-0.111	0.316	-0.290	0.241	0.161	42.969
0.192	-0.192	0.563	-0.524	-0.855	-0.206	-0.921	-0.121	-0.207	-0.465	0.088	0.003	-0.692	-1.081	-0.025	0.123	0.448	0.939	-0.065	-1.000	-1.526	-0.216	-0.088	-0.250	0.395	-0.269	0.106	0.106	46.875
0.144	-0.195	0.565	-0.564	-0.985	-0.283	-1.169	-0.264	-0.370	-0.737	-0.139	-0.215	-0.936	-1.241	0.128	0.187	0.651	1.193	0.038	-1.012	-1.645	-0.170	0.025	-0.264	0.566	-0.109	0.090	0.076	50.781
-0.063	-0.264	0.497	-0.643	-1.124	-0.398	-1.350	-0.409	-0.510	-0.960	-0.352	-0.435	-1.090	-1.340	0.098	0.207	0.792	1.377	0.119	-1.028	-1.738	-0.120	0.135	-0.123	0.830	0.191	0.207	0.067	54.688
-0.426	-0.399	0.353	-0.756	-1.253	-0.544	-1.421	-0.534	-0.606	-1.098	-0.549	-0.657	-1.115	-1.350	-0.125	0.171	0.846	1.457	0.162	-1.048	-1.786	-0.064	0.233	0.190	1.174	0.618	0.460	0.067	58.594
-0.923	-0.592	0.130	-0.893	-1.345	-0.709	-1.337	-0.612	-0.634	-1.119	-0.733	-0.880	-0.979	-1.247	-0.532	0.070	0.791	1.410	0.155	-1.069	-1.775	-0.002	0.307	0.677	1.576	1.133	0.835	0.061	62.500
-1.523	-0.830	-0.174	-1.044	-1.375	-0.872	-1.063	-0.616	-0.574	-0.998	-0.908	-1.107	-0.661	-1.015	-1.092	-0.097	0.620	1.226	0.090	-1.089	-1.695	0.066	0.353	1.323	1.998	1.681	1.306	0.030	66.406
-2.182	-1.096	-0.555	-1.197	-1.326	-1.015	-0.583	-0.524	-0.416	-0.724	-1.078	-1.335	-0.158	-0.649	-1.754	-0.321	0.346	0.915	-0.027	-1.108	-1.541	0.143	0.369	2.093	2.399	2.194	1.831	-0.048	70.312
-2.853	-1.368	-1.000	-1.337	-1.186	-1.119	0.094	-0.325	-0.159	-0.305	-1.243	-1.559	0.514	-0.158	-2.460	-0.588	-0.003	0.505	-0.185	-1.120	-1.315	0.233	0.361	2.939	2.733	2.603	2.362	-0.190	74.219
-3.489	-1.625	-1.485	-1.456	-0.960	-1.172	0.929	-0.028	0.180	0.230	-1.401	-1.767	1.314	0.436	-3.147	-0.872	-0.382	0.036	-0.357	-1.123	-1.027	0.343	0.339	3.800	2.964	2.847	2.847	-0.404	78.125
-4.042	-1.847	-1.983	-1.542	-0.662	-1.169	1.857	0.344	0.572	0.833	-1.544	-1.944	2.187	1.093	-3.757	-1.148	-0.740	-0.443	-0.517	-1.111	-0.695	0.476	0.318	4.611	3.066	2.892	3.241	-0.685	82.031
-4.479	-2.019	-2.459	-1.591	-0.321	-1.115	2.793	0.749	0.974	1.442	-1.662	-2.070	3.064	1.767	-4.244	-1.386	-1.032	-0.887	-0.637	-1.082	-0.340	0.634	0.309	5.312	3.038	2.738	3.512	-1.011	85.938
-4.776	-2.131	-2.881	-1.600	0.028	-1.026	3.645	1.136	1.340	1.989	-1.745	-2.128	3.875	2.408	-4.579	-1.564	-1.225	-1.257	-0.698	-1.030	0.014	0.812	0.320	5.853	2.898	2.419	3.647	-1.346	89.844
-4.927	-2.183	-3.224	-1.572	0.349	-0.924	4.328	1.448	1.622	2.414	-1.788	-2.107	4.560	2.970	-4.749	-1.664	-1.306	-1.530	-0.692	-0.952	0.345	1.001	0.352	6.204	2.685	1.999	3.653	-1.645	93.750
-4.939	-2.184	-3.469	-1.515	0.610	-0.832	4.779	1.640	1.784	2.668	-1.789	-2.004	5.074	3.419	-4.759	-1.679	-1.284	-1.699	-0.624	-0.845	0.635	1.188	0.397	6.357	2.454	1.559	3.553	-1.862	97.656
-4.832	-2.149	-3.609	-1.441	0.784	-0.773	4.963	1.679	1.806	2.725	-1.751	-1.826	5.395	3.733	-4.630	-1.615	-1.188	-1.769	-0.512	-0.707	0.874	1.356	0.444	6.325	2.259	1.178	3.383	-1.959	101.562
-4.637	-2.096	-3.645	-1.363	0.857	-0.765	4.878	1.555	1.686	2.583	-1.679	-1.590	5.523	3.908	-4.389	-1.484	-1.054	-1.757	-0.379	-0.542	1.055	1.490	0.479	6.135	2.150	0.919	3.180	-1.916	105.469
-4.388	-2.044	-3.588	-1.298	0.826	-0.815	4.554	1.278	1.441	2.267	-1.580	-1.316	5.477	3.953	-4.074	-1.311	-0.922	-1.684	-0.254	-0.359	1.180	1.576	0.491	5.826	2.163	0.823	2.983	-1.729	109.375
-4.119	-2.012	-3.455	-1.259	0.697	-0.925	4.046	0.878	1.104	1.823	-1.459	-1.026	5.291	3.884	-3.724	-1.121	-0.822	-1.573	-0.159	-0.170	1.249	1.605	0.474	5.441	2.313	0.904	2.823	-1.412	113.281
-3.862	-2.013	-3.272	-1.260	0.483	-1.089	3.422	0.398	0.718	1.310	-1.318	-0.735	5.002	3.721	-3.380	-0.943	-0.771	-1.442	-0.111	0.007	1.266	1.574	0.429	5.023	2.600	1.156	2.723	-0.989	117.188
-3.646	-2.055	-3.065	-1.309	0.200	-1.295	2.753	-0.110	0.331	0.796	-1.153	-0.453	4.647	3.482	-3.080	-0.801	-0.774	-1.308	-0.119	0.151	1.228	1.485	0.362	4.607	3.005	1.558	2.700	-0.487	121.094
-3.492	-2.144	-2.868	-1.416	-0.138	-1.529	2.103	-0.597	-0.009	0.344	-0.954	-0.178	4.253	3.179	-2.858	-0.716	-0.824	-1.185	-0.183	0.239	1.131	1.343	0.282	4.225	3.505	2.090	2.765	0.070	125.000
-3.419	-2.286	-2.711	-1.584	-0.516	-1.778	1.523	-1.016	-0.263	0.008	-0.709	0.101	3.838	2.817	-2.736	-0.704	-0.911	-1.084	-0.302	0.249	0.965	1.153	0.198	3.896	4.075	2.734	2.924	0.666	128.906
-3.435	-2.480	-2.625	-1.816	-0.921	-2.028	1.048	-1.331	-0.397	-0.172	-0.403	0.398	3.409	2.395	-2.727	-0.775	-1.025	-1.018	-0.470	0.163	0.720	0.919	0.115	3.635	4.690	3.480	3.181	1.292	132.812
-3.543	-2.724	-2.631	-2.109	-1.341	-2.271	0.698	-1.518	-0.394	-0.177	-0.026	0.728	2.967	1.909	-2.835	-0.932	-1.159	-1.002	-0.684	-0.031	0.387	0.645	0.033	3.448	5.331	4.318	3.532	1.943	136.719
-3.735	-3.010	-2.739	-2.451	-1.762	-2.497	0.478	-1.567	-0.245	-0.005	0.427	1.102	2.508	1.358	-3.051	-1.169	-1.311	-1.047	-0.940	-0.331	-0.036	0.333	-0.054	3.333	5.982	5.239	3.970	2.615	140.625
-3.995	-3.325	-2.944	-2.824	-2.166	-2.702	0.383	-1.480	0.041	0.328	0.951	1.521	2.028	0.747	-3.357	-1.473	-1.481	-1.161	-1.230	-0.726	-0.543	-0.014	-0.155	3.284	6.623	6.225	4.478	3.302	144.531
-4.300	-3.649	-3.232	-3.205	-2.536	-2.884	0.401	-1.276	0.444	0.791	1.530	1.976	1.530	0.090	-3.729	-1.821	-1.666	-1.348	-1.545	-1.186	-1.115	-0.388	-0.277	3.288	7.234	7.247	5.034	3.991	148.438
-4.629	-3.962	-3.580	-3.565	-2.853	-3.041	0.514	-0.981	0.930	1.343	2.135	2.447	1.023	-0.589	-4.137	-2.185	-1.861	-1.602	-1.870	-1.676	-1.723	-0.773	-0.423	3.337	7.796	8.263	5.611	4.663	152.344
-4.964	-4.246	-3.965	-3.878	-3.101	-3.175	0.703	-0.630	1.460	1.939	2.727	2.908	0.525	-1.256	-4.555	-2.533	-2.057	-1.908	-2.184	-2.152	-2.331	-1.149	-0.588	3.423	8.286	9.226	6.183	5.292	156.250
-5.296	-4.490	-4.367	-4.126	-3.268	-3.285	0.947	-0.260	1.990	2.538	3.264	3.327	0.062	-1.872	-4.959	-2.837	-2.243	-2.245	-2.466	-2.572	-2.898	-1.490	-0.760	3.546	8.688	10.088	6.727	5.850	160.156
-5.626	-4.690	-4.772	-4.301	-3.349	-3.371	1.234	0.098	2.484	3.105	3.708	3.677	-0.333	-2.398	-5.337	-3.077	-2.405	-2.591	-2.696	-2.906	-3.388	-1.767	-0.920	3.712	8.992	10.807	7.226	6.310	164.062
-5.963	-4.856	-5.168	-4.406	-3.344	-3.432	1.553	0.423	2.915	3.617	4.033	3.940	-0.628	-2.802	-5.688	-3.245	-2.535	-2.920	-2.858	-3.140	-3.773	-1.960	-1.047	3.930	9.197	11.356	7.674	6.652	167.969
-6.317	-4.997	-5.546	-4.456	-3.262	-3.464	1.899	0.703	3.269	4.064	4.229	4.108	-0.796	-3.063	-6.019	-3.348	-2.630	-3.212	-2.950	-3.276	-4.039	-2.053	-1.123	4.207	9.306	11.720	8.065	6.864	171.875
-6.696	-5.127	-5.892	-4.470	-3.115	-3.461	2.268	0.939	3.548	4.447	4.305	4.184	-0.821	-3.178	-6.341	-3.402	-2.694	-3.455	-2.976	-3.335	-4.188	-2.047	-1.136	4.542	9.332	11.901	8.401	6.943	175.781
-7.098	-5.253	-6.190	-4.467	-2.920	-3.420	2.656	1.142	3.764	4.771	4.282	4.183	-0.702	-3.155	-6.666	-3.434	-2.740	-3.638	-2.950	-3.348	-4.232	-1.952	-1.083	4.925	9.289	11.913	8.681	6.894	179.688
-7.510	-5.379	-6.426	-4.464	-2.692	-3.337	3.058	1.329	3.934	5.048	4.192	4.119	-0.454	-3.017	-6.996	-3.469	-2.781	-3.761	-2.890	-3.346	-4.195	-1.787	-0.968	5.337	9.191	11.776	8.903	6.731	183.594
-7.911	-5.501	-6.585	-4.469	-2.450	-3.212	3.464	1.516	4.075	5.284	4.062	4.010	-0.104	-2.790	-7.321	-3.531	-2.830	-3.826	-2.814	-3.359	-4.101	-1.575	-0.805	5.751	9.053	11.518	9.062	6.470	187.500
-8.276	-5.613	-6.662	-4.487	-2.206	-3.048	3.861	1.713	4.198	5.482	3.912	3.867	0.315	-2.504	-7.622	-3.634	-2.897	-3.837	-2.735	-3.403	-3.969	-1.337	-0.608	6.141	8.885	11.169	9.151	6.133	191.406
-8.576	-5.712	-6.659	-4.515	-1.971	-2.855	4.233	1.925	4.309	5.641	3.753	3.699	0.768	-2.181	-7.874	-3.781	-2.983	-3.803	-2.661	-3.482	-3.814	-1.088	-0.394	6.486	8.697	10.758	9.167	5.741	195.312
-8.795	-5.796	-6.592	-4.550	-1.755	-2.645	4.571	2.148	4.407	5.760	3.587	3.511	1.227	-1.836	-8.053	-3.970	-3.085	-3.737	-2.596	-3.590	-3.641	-0.839	-0.179	6.772	8.496	10.317	9.110	5.319	199.219
-8.923	-5.873	-6.484	-4.588	-1.560	-2.430	4.869	2.374	4.490	5.839	3.413	3.309	1.676	-1.477	-8.147	-4.192	-3.199	-3.654	-2.541	-3.715	-3.451	-0.595	0.028	7.001	8.292	9.875	8.989	4.891	203.125
-8.966	-5.953	-6.366	-4.628	-1.387	-2.226	5.128	2.591	4.559	5.883	3.232	3.100	2.109	-1.104	-8.157	-4.441	-3.322	-3.572	-2.499	-3.845	-3.242	-0.357	0.219	7.181	8.095	9.461	8.822	4.484	207.031
-8.944	-6.050	-6.269	-4.672	-1.235	-2.043	5.359	2.793	4.617	5.905	3.053	2.900	2.532	-0.714	-8.106	-4.715	-3.457	-3.510	-2.475	-3.974	-3.012	-0.129	0.389	7.333	7.920	9.100	8.632	4.122	210.938
-8.885	-6.179	-6.216	-4.724	-1.101	-1.889	5.575	2.978	4.674	5.925	2.893	2.726	2.958	-0.305	-8.026	-5.020	-3.614	-3.486	-2.481	-4.106	-2.767	0.083	0.538	7.480	7.782	8.811	8.450	3.824	214.844
-8.823	-6.348	-6.222	-4.789	-0.983	-1.770	5.795	3.151	4.741	5.965	2.777	2.601	3.401	0.125	-7.960	-5.365	-3.811	-3.517	-2.531	-4.252	-2.514	0.273	0.665	7.643	7.698	8.606	8.303	3.610	218.750
-8.789	-6.559	-6.287	-4.873	-0.877	-1.688	6.034	3.324	4.834	6.049	2.729	2.544	3.873	0.572	-7.945	-5.760	-4.068	-3.613	-2.636	-4.425	-2.266	0.430	0.769	7.837	7.678	8.489	8.217	3.491	222.656
-8.806	-6.805	-6.404	-4.980	-0.783	-1.642	6.304	3.511	4.966	6.194	2.769	2.573	4.382	1.031	-8.008	-6.213	-4.401	-3.781	-2.805	-4.639	-2.036	0.548	0.847	8.070	7.728	8.455	8.208	3.475	226.562
-8.888	-7.076	-6.562	-5.108	-0.700	-1.632	6.610	3.723	5.143	6.414	2.908	2.695	4.929	1.495	-8.165	-6.720	-4.817	-4.021	-3.034	-4.899	-1.834	0.622	0.899	8.343	7.841	8.497	8.284	3.563	230.469
-9.038	-7.353	-6.748	-5.255	-0.628	-1.655	6.950	3.966	5.369	6.709	3.143	2.911	5.511	1.957	-8.413	-7.269	-5.310	-4.325	-3.311	-5.198	-1.663	0.658	0.926	8.649	8.005	8.600	8.445	3.749	234.375
-9.248	-7.621	-6.955	-5.412	-0.567	-1.707	7.316	4.239	5.637	7.072	3.458	3.207	6.120	2.413	-8.739	-7.834	-5.858	-4.683	-3.613	-5.518	-1.518	0.666	0.928	8.975	8.203	8.749	8.678	4.021	238.281
-9.507	-7.864	-7.182	-5.567	-0.514	-1.782	7.694	4.530	5.934	7.485	3.825	3.562	6.748	2.862	-9.121	-8.382	-6.428	-5.078	-3.911	-5.831	-1.388	0.665	0.914	9.311	8.414	8.927	8.964	4.354	242.188
-9.798	-8.070	-7.431	-5.706	-0.462	-1.872	8.070	4.823	6.242	7.924	4.208	3.945	7.381	3.305	-9.531	-8.876	-6.977	-5.489	-4.171	-6.103	-1.253	0.676	0.892	9.640	8.619	9.111	9.278	4.717	246.094
-10.103	-8.232	-7.705	-5.813	-0.405	-1.967	8.428	5.096	6.535	8.356	4.569	4.321	8.006	3.745	-9.942	-9.280	-7.461	-5.893	-4.364	-6.296	-1.092	0.721	0.874	9.949	8.802	9.282	9.591	5.071	250.000
-10.405	-8.345	-8.004	-5.873	-0.335	-2.056	8.752	5.324	6.788	8.750	4.873	4.656	8.606	4.180	-10.325	-9.564	-7.842	-6.267	-4.465	-6.382	-0.886	0.818	0.873	10.225	8.953	9.418	9.873	5.381	253.906
-10.689	-8.411	-8.323	-5.876	-0.243	-2.127	9.031	5.491	6.977	9.077	5.091	4.919	9.164	4.609	-10.663	-9.709	-8.088	-6.588	-4.461	-6.341	-0.622	0.978	0.902	10.458	9.066	9.502	10.099	5.616	257.812
-10.943	-8.431	-8.649	-5.819	-0.126	-2.171	9.256	5.584	7.086	9.316	5.209	5.092	9.662	5.025	-10.943	-9.713	-8.186	-6.840	-4.348	-6.168	-0.298	1.202	0.967	10.640	9.141	9.523	10.250	5.754	261.719
-11.163	-8.411	-8.964	-5.704	0.016	-2.184	9.424	5.602	7.113	9.456	5.227	5.170	10.088	5.419	-11.167	-9.584	-8.139	-7.012	-4.137	-5.872	0.079	1.479	1.070	10.769	9.180	9.477	10.320	5.791	265.625
-11.343	-8.355	-9.249	-5.540	0.179	-2.162	9.537	5.554	7.062	9.498	5.157	5.158	10.432	5.782	-11.343	-9.346	-7.967	-7.105	-3.849	-5.475	0.492	1.792	1.208	10.845	9.188	9.368	10.310	5.735	269.531
-11.485	-8.267	-9.488	-5.339	0.357	-2.109	9.601	5.456	6.950	9.456	5.022	5.073	10.691	6.105	-11.485	-9.028	-7.702	-7.126	-3.508	-5.006	0.920	2.119	1.372	10.875	9.170	9.207	10.234	5.602	273.438
-11.587	-8.148	-9.671	-5.115	0.541	-2.032	9.627	5.327	6.796	9.348	4.847	4.937	10.872	6.384	-11.606	-8.658	-7.380	-7.092	-3.142	-4.496	1.341	2.438	1.548	10.867	9.128	9.006	10.107	5.415	277.344
-11.653	-7.996	-9.793	-4.877	0.725	-1.938	9.626	5.185	6.621	9.200	4.654	4.770	10.985	6.618	-11.713	-8.262	-7.034	-7.023	-2.775	-3.970	1.737	2.730	1.721	10.828	9.063	8.777	9.945	5.197	281.250
-11.684	-7.808	-9.858	-4.631	0.903	-1.840	9.609	5.046	6.442	9.033	4.456	4.588	11.045	6.814	-11.807	-7.852	-6.692	-6.940	-2.425	-3.445	2.098	2.984	1.877	10.765	8.972	8.530	9.761	4.964	285.156
-11.683	-7.579	-9.872	-4.377	1.075	-1.747	9.586	4.915	6.269	8.869	4.263	4.402	11.069	6.980	-11.880	-7.434	-6.371	-6.862	-2.101	-2.929	2.425	3.194	2.002	10.683	8.850	8.268	9.562	4.726	289.062
-11.658	-7.304	-9.842	-4.113	1.240	-1.667	9.562	4.794	6.106	8.720	4.072	4.213	11.074	7.130	-11.921	-7.006	-6.077	-6.798	-1.809	-2.421	2.725	3.362	2.088	10.586	8.690	7.989	9.347	4.485	292.969
-11.615	-6.980	-9.773	-3.832	1.403	-1.606	9.540	4.675	5.948	8.592	3.880	4.018	11.072	7.277	-11.921	-6.560	-5.805	-6.753	-1.542	-1.914	3.011	3.496	2.131	10.475	8.485	7.689	9.111	4.233	296.875
-11.561	-6.608	-9.669	-3.529	1.568	-1.562	9.518	4.551	5.786	8.482	3.678	3.807	11.071	7.435	-11.871	-6.085	-5.543	-6.721	-1.295	-1.397	3.299	3.605	2.133	10.350	8.231	7.358	8.849	3.960	300.781
-11.505	-6.194	-9.534	-3.199	1.739	-1.534	9.491	4.412	5.607	8.380	3.458	3.570	11.078	7.612	-11.771	-5.576	-5.278	-6.691	-1.057	-0.865	3.600	3.702	2.103	10.214	7.930	6.992	8.554	3.657	304.688
-11.452	-5.752	-9.372	-2.843	1.917	-1.514	9.453	4.250	5.400	8.270	3.216	3.301	11.093	7.812	-11.632	-5.030	-4.996	-6.651	-0.818	-0.314	3.919	3.798	2.055	10.071	7.589	6.593	8.228	3.318	308.594
-11.407	-5.299	-9.192	-2.470	2.102	-1.491	9.396	4.065	5.159	8.139	2.951	2.999	11.115	8.034	-11.472	-4.457	-4.690	-6.593	-0.575	0.249	4.255	3.900	2.004	9.928	7.223	6.167	7.881	2.947	312.500
-11.372	-4.858	-9.006	-2.091	2.288	-1.457	9.317	3.862	4.885	7.976	2.671	2.671	11.142	8.269	-11.312	-3.872	-4.364	-6.516	-0.328	0.807	4.596	4.012	1.964	9.793	6.851	5.733	7.527	2.557	316.406
-11.350	-4.450	-8.826	-1.726	2.466	-1.402	9.211	3.653	4.591	7.780	2.389	2.336	11.171	8.503	-11.176	-3.302	-4.029	-6.425	-0.084	1.336	4.924	4.133	1.948	9.674	6.497	5.313	7.190	2.171	320.312
-11.342	-4.095	-8.665	-1.396	2.625	-1.323	9.082	3.451	4.296	7.556	2.125	2.017	11.197	8.719	-11.078	-2.779	-3.706	-6.327	0.144	1.803	5.216	4.255	1.963	9.575	6.182	4.930	6.892	1.818	324.219
-11.345	-3.809	-8.529	-1.123	2.754	-1.219	8.932	3.275	4.026	7.319	1.898	1.740	11.213	8.899	-11.022	-2.333	-3.418	-6.234	0.341	2.177	5.447	4.368	2.008	9.493	5.926	4.609	6.651	1.526	328.125
-11.355	-3.599	-8.419	-0.921	2.844	-1.099	8.766	3.137	3.805	7.089	1.726	1.530	11.211	9.022	-11.004	-1.990	-3.188	-6.152	0.490	2.435	5.597	4.460	2.080	9.423	5.742	4.367	6.477	1.321	332.031
-11.364	-3.463	-8.330	-0.798	2.894	-0.972	8.593	3.048	3.656	6.884	1.624	1.406	11.181	9.075	-11.010	-1.767	-3.030	-6.085	0.579	2.561	5.652	4.519	2.168	9.354	5.634	4.212	6.371	1.220	335.938
-11.364	-3.391	-8.252	-0.749	2.906	-0.848	8.420	3.011	3.589	6.721	1.597	1.374	11.114	9.051	-11.025	-1.665	-2.954	-6.032	0.604	2.555	5.612	4.535	2.261	9.275	5.597	4.142	6.322	1.228	339.844
-11.349	-3.365	-8.173	-0.757	2.890	-0.733	8.256	3.022	3.605	6.610	1.643	1.429	11.006	8.956	-11.039	-1.673	-2.957	-5.987	0.568	2.435	5.487	4.509	2.347	9.176	5.615	4.139	6.309	1.331	343.750
-11.312	-3.363	-8.080	-0.797	2.866	-0.627	8.110	3.073	3.694	6.551	1.749	1.551	10.860	8.807	-11.043	-1.766	-3.025	-5.944	0.484	2.232	5.305	4.446	2.420	9.057	5.662	4.171	6.308	1.496	347.656
-11.253	-3.362	-7.967	-0.836	2.856	-0.526	7.990	3.148	3.829	6.533	1.884	1.702	10.691	8.637	-11.039	-1.909	-3.134	-5.896	0.373	1.990	5.105	4.367	2.479	8.924	5.711	4.198	6.290	1.671	351.562
-11.177	-3.337	-7.830	-0.842	2.885	-0.420	7.902	3.227	3.973	6.531	2.003	1.828	10.522	8.489	-11.032	-2.059	-3.256	-5.837	0.267	1.763	4.936	4.301	2.534	8.794	5.731	4.171	6.231	1.794	355.469
-11.089	-3.273	-7.673	-0.784	2.977	-0.296	7.849	3.287	4.078	6.513	2.050	1.869	10.384	8.412	-11.028	-2.174	-3.354	-5.763	0.203	1.604	4.853	4.282	2.600	8.692	5.696	4.044	6.111	1.795	359.375
-10.998	-3.155	-7.505	-0.641	3.149	-0.145	7.828	3.301	4.093	6.440	1.961	1.763	10.309	8.453	-11.033	-2.215	-3.394	-5.674	0.216	1.561	4.905	4.350	2.702	8.644	5.589	3.782	5.921	1.613	363.281
-10.913	-2.980	-7.334	-0.403	3.408	0.037	7.831	3.246	3.975	6.273	1.684	1.466	10.326	8.647	-11.050	-2.159	-3.349	-5.568	0.336	1.667	5.126	4.533	2.862	8.673	5.406	3.367	5.662	1.209	367.188
-10.847	-2.755	-7.172	-0.076	3.748	0.248	7.844	3.107	3.695	5.985	1.184	0.957	10.447	9.005	-11.077	-1.996	-3.204	-5.445	0.579	1.931	5.527	4.848	3.097	8.793	5.158	2.807	5.348	0.579	371.094
-10.809	-2.496	-7.026	0.318	4.146	0.476	7.847	2.879	3.249	5.567	0.467	0.257	10.663	9.506	-11.111	-1.740	-2.960	-5.308	0.940	2.334	6.084	5.287	3.411	9.001	4.870	2.141	5.006	-0.238	375.000
-10.810	-2.228	-6.900	0.745	4.567	0.708	7.821	2.575	2.666	5.033	-0.420	-0.574	10.942	10.097	-11.145	-1.427	-2.636	-5.156	1.392	2.828	6.744	5.815	3.790	9.276	4.575	1.431	4.667	-1.166	378.906
-10.851	-1.983	-6.792	1.160	4.964	0.923	7.745	2.219	2.001	4.423	-1.384	-1.439	11.228	10.698	-11.173	-1.103	-2.269	-4.992	1.887	3.343	7.424	6.378	4.202	9.576	4.311	0.756	4.364	-2.095	382.812
-10.925	-1.787	-6.694	1.520	5.290	1.104	7.603	1.850	1.328	3.792	-2.310	-2.226	11.451	11.217	-11.183	-0.821	-1.903	-4.817	2.368	3.803	8.034	6.909	4.604	9.848	4.112	0.195	4.124	-2.906	386.719
-11.010	-1.661	-6.595	1.790	5.508	1.236	7.387	1.505	0.725	3.202	-3.079	-2.831	11.544	11.565	-11.163	-0.624	-1.580	-4.632	2.777	4.142	8.489	7.338	4.946	10.033	3.997	-0.193	3.956	-3.497	390.625
-11.072	-1.609	-6.482	1.949	5.597	1.312	7.097	1.217	0.257	2.706	-3.598	-3.181	11.458	11.684	-11.090	-0.535	-1.332	-4.440	3.072	4.318	8.734	7.614	5.187	10.078	3.970	-0.378	3.852	-3.803	394.531
-11.066	-1.618	-6.340	2.000	5.559	1.334	6.739	1.000	-0.041	2.333	-3.821	-3.254	11.168	11.550	-10.939	-0.553	-1.171	-4.238	3.232	4.323	8.754	7.712	5.303	9.945	4.016	-0.370	3.784	-3.809	398.438
-10.948	-1.664	-6.160	1.962	5.418	1.310	6.329	0.853	-0.171	2.088	-3.756	-3.080	10.690	11.186	-10.681	-0.653	-1.090	-4.028	3.263	4.184	8.573	7.638	5.291	9.620	4.101	-0.218	3.713	-3.555	402.344
-10.677	-1.714	-5.936	1.871	5.210	1.255	5.883	0.754	-0.167	1.942	-3.465	-2.736	10.063	10.650	-10.290	-0.789	-1.064	-3.803	3.197	3.953	8.254	7.425	5.170	9.115	4.183	0.005	3.591	-3.127	406.250
-10.228	-1.735	-5.665	1.767	4.981	1.186	5.417	0.673	-0.090	1.848	-3.044	-2.325	9.352	10.026	-9.751	-0.911	-1.055	-3.560	3.082	3.698	7.874	7.128	4.976	8.463	4.218	0.214	3.378	-2.630	410.156
-9.600	-1.696	-5.351	1.690	4.769	1.117	4.941	0.576	-0.006	1.747	-2.600	-1.951	8.622	9.399	-9.065	-0.970	-1.026	-3.290	2.969	3.482	7.513	6.808	4.752	7.713	4.167	0.330	3.048	-2.172	414.062
-8.815	-1.583	-5.005	1.667	4.599	1.059	4.462	0.440	0.025	1.589	-2.227	-1.697	7.932	8.839	-8.258	-0.936	-0.947	-2.991	2.901	3.350	7.229	6.518	4.540	6.922	4.010	0.302	2.598	-1.838	417.969
-7.921	-1.393	-4.640	1.711	4.479	1.014	3.983	0.256	-0.030	1.344	-1.984	-1.604	7.322	8.389	-7.375	-0.802	-0.807	-2.665	2.901	3.320	7.051	6.293	4.368	6.145	3.747	0.116	2.052	-1.669	421.875
-6.986	-1.143	-4.274	1.814	4.398	0.980	3.514	0.034	-0.173	1.013	-1.888	-1.669	6.812	8.060	-6.482	-0.588	-0.615	-2.322	2.967	3.381	6.973	6.144	4.248	5.432	3.399	-0.205	1.457	-1.662	425.781
-6.093	-0.865	-3.928	1.958	4.337	0.948	3.067	-0.199	-0.376	0.630	-1.914	-1.845	6.405	7.835	-5.655	-0.335	-0.400	-1.985	3.075	3.496	6.964	6.059	4.173	4.823	3.006	-0.603	0.877	-1.775	429.688
-5.319	-0.597	-3.623	2.110	4.271	0.911	2.663	-0.403	-0.586	0.252	-2.006	-2.061	6.094	7.682	-4.966	-0.098	-0.204	-1.683	3.188	3.615	6.976	6.011	4.127	4.342	2.618	-1.006	0.380	-1.943	433.594
-4.734	-0.381	-3.381	2.238	4.181	0.859	2.328	-0.536	-0.745	-0.053	-2.094	-2.236	5.867	7.560	-4.470	0.070	-0.068	-1.448	3.262	3.690	6.959	5.968	4.085	4.004	2.284	-1.338	0.023	-2.094	437.500
-4.379	-0.249	-3.222	2.313	4.053	0.788	2.088	-0.565	-0.800	-0.225	-2.115	-2.304	5.709	7.436	-4.199	0.132	-0.028	-1.311	3.264	3.683	6.877	5.901	4.026	3.809	2.043	-1.540	-0.152	-2.170	441.406
-4.264	-0.218	-3.156	2.318	3.886	0.696	1.960	-0.476	-0.719	-0.225	-2.028	-2.226	5.608	7.287	-4.154	0.068	-0.102	-1.290	3.175	3.579	6.711	5.791	3.932	3.745	1.920	-1.582	-0.133	-2.139	445.312
-4.367	-0.288	-3.186	2.249	3.689	0.584	1.947	-0.270	-0.497	-0.045	-1.819	-1.997	5.554	7.106	-4.309	-0.112	-0.285	-1.390	2.995	3.383	6.467	5.634	3.799	3.793	1.919	-1.462	0.065	-1.994	449.219
-4.637	-0.441	-3.300	2.114	3.475	0.457	2.035	0.024	-0.160	0.288	-1.503	-1.642	5.536	6.900	-4.613	-0.377	-0.557	-1.599	2.745	3.122	6.168	5.438	3.629	3.925	2.023	-1.207	0.399	-1.757	453.125
-5.008	-0.646	-3.474	1.934	3.261	0.319	2.195	0.367	0.249	0.722	-1.115	-1.205	5.539	6.682	-5.001	-0.682	-0.879	-1.889	2.457	2.834	5.848	5.220	3.436	4.108	2.204	-0.867	0.814	-1.463	457.031
-5.409	-0.866	-3.678	1.733	3.061	0.176	2.388	0.708	0.673	1.188	-0.703	-0.744	5.549	6.469	-5.405	-0.976	-1.209	-2.221	2.172	2.561	5.545	4.998	3.234	4.306	2.421	-0.496	1.245	-1.152	460.938
-5.775	-1.065	-3.875	1.537	2.889	0.033	2.570	0.999	1.054	1.618	-0.313	-0.308	5.551	6.274	-5.761	-1.211	-1.502	-2.552	1.925	2.340	5.291	4.792	3.041	4.488	2.635	-0.147	1.635	-0.863	464.844
-6.059	-1.211	-4.034	1.372	2.751	-0.104	2.706	1.200	1.348	1.953	0.015	0.061	5.528	6.105	-6.024	-1.352	-1.721	-2.843	1.746	2.197	5.109	4.613	2.871	4.622	2.812	0.140	1.937	-0.619	468.750
-6.229	-1.282	-4.133	1.256	2.652	-0.227	2.767	1.290	1.525	2.156	0.255	0.338	5.465	5.958	-6.161	-1.379	-1.838	-3.063	1.654	2.149	5.005	4.467	2.733	4.684	2.925	0.340	2.123	-0.434	472.656
-6.270	-1.266	-4.159	1.203	2.593	-0.328	2.742	1.265	1.574	2.211	0.390	0.510	5.349	5.825	-6.160	-1.284	-1.837	-3.191	1.656	2.200	4.977	4.353	2.630	4.655	2.961	0.444	2.176	-0.312	476.562
-6.178	-1.161	-4.109	1.218	2.574	-0.396	2.632	1.138	1.505	2.123	0.417	0.574	5.168	5.691	-6.016	-1.073	-1.712	-3.219	1.745	2.346	5.010	4.265	2.559	4.519	2.915	0.456	2.097	-0.251	480.469
-5.959	-0.973	-3.987	1.302	2.594	-0.422	2.451	0.934	1.336	1.913	0.343	0.536	4.915	5.541	-5.734	-0.762	-1.471	-3.148	1.909	2.576	5.088	4.196	2.515	4.268	2.791	0.382	1.890	-0.249	484.375
-5.624	-0.718	-3.799	1.449	2.648	-0.401	2.217	0.685	1.098	1.612	0.181	0.404	4.589	5.363	-5.324	-0.369	-1.130	-2.987	2.127	2.876	5.191	4.137	2.486	3.903	2.601	0.234	1.568	-0.305	488.281
-5.186	-0.415	-3.553	1.647	2.735	-0.332	1.953	0.417	0.816	1.248	-0.053	0.189	4.192	5.150	-4.800	0.080	-0.717	-2.751	2.379	3.228	5.304	4.083	2.466	3.431	2.355	0.019	1.146	-0.417	492.188
-4.662	-0.086	-3.256	1.886	2.848	-0.220	1.674	0.152	0.513	0.850	-0.340	-0.096	3.736	4.906	-4.183	0.562	-0.261	-2.454	2.643	3.614	5.419	4.030	2.448	2.871	2.070	-0.253	0.642	-0.585	496.094
-4.071	0.251	-2.920	2.149	2.982	-0.075	1.392	-0.100	0.203	0.433	-0.664	-0.437	3.239	4.643	-3.503	1.055	0.208	-2.114	2.906	4.017	5.532	3.985	2.432	2.251	1.761	-0.576	0.077	-0.805	500.000
-3.438	0.580	-2.562	2.423	3.128	0.085	1.113	-0.341	-0.111	0.008	-1.006	-0.818	2.725	4.380	-2.796	1.540	0.664	-1.744	3.158	4.420	5.647	3.955	2.421	1.612	1.443	-0.936	-0.522	-1.072	503.906
-2.799	0.885	-2.204	2.690	3.275	0.240	0.841	-0.578	-0.430	-0.416	-1.352	-1.219	2.225	4.142	-2.110	2.000	1.087	-1.360	3.398	4.809	5.767	3.952	2.424	0.998	1.133	-1.314	-1.121	-1.371	507.812
-2.198	1.153	-1.877	2.934	3.411	0.367	0.578	-0.821	-0.755	-0.830	-1.684	-1.612	1.776	3.949	-1.499	2.419	1.462	-0.980	3.626	5.168	5.896	3.988	2.451	0.463	0.852	-1.684	-1.681	-1.681	511.719
-1.694	1.364	-1.616	3.133	3.523	0.445	0.336	-1.073	-1.081	-1.217	-1.979	-1.965	1.414	3.820	-1.017	2.777	1.776	-0.623	3.838	5.481	6.032	4.070	2.508	0.057	0.623	-2.008	-2.151	-1.973	515.625
-1.352	1.490	-1.453	3.265	3.598	0.456	0.130	-1.330	-1.392	-1.550	-2.215	-2.243	1.172	3.766	-0.715	3.050	2.016	-0.315	4.029	5.729	6.167	4.195	2.597	-0.174	0.467	-2.246	-2.483	-2.210	519.531
-1.231	1.504	-1.416	3.308	3.626	0.392	-0.017	-1.578	-1.665	-1.796	-2.364	-2.410	1.079	3.790	-0.632	3.213	2.167	-0.082	4.182	5.890	6.291	4.353	2.709	-0.195	0.406	-2.358	-2.631	-2.356	523.438
-1.376	1.380	-1.517	3.245	3.603	0.254	-0.082	-1.792	-1.868	-1.921	-2.405	-2.440	1.153	3.889	-0.788	3.240	2.211	0.050	4.279	5.947	6.390	4.525	2.832	0.008	0.451	-2.317	-2.563	-2.382	527.344
-1.803	1.102	-1.748	3.070	3.531	0.055	-0.045	-1.944	-1.971	-1.897	-2.324	-2.319	1.395	4.052	-1.183	3.115	2.131	0.062	4.296	5.886	6.453	4.685	2.944	0.425	0.601	-2.112	-2.268	-2.270	531.250
-2.488	0.677	-2.083	2.789	3.419	-0.182	0.105	-2.007	-1.955	-1.713	-2.123	-2.053	1.792	4.265	-1.792	2.833	1.922	-0.057	4.217	5.705	6.472	4.807	3.023	1.025	0.839	-1.758	-1.766	-2.026	535.156
-3.374	0.131	-2.476	2.426	3.282	-0.430	0.364	-1.964	-1.812	-1.377	-1.819	-1.668	2.311	4.510	-2.568	2.411	1.586	-0.299	4.035	5.415	6.448	4.870	3.048	1.752	1.135	-1.293	-1.100	-1.674	539.062
-4.373	-0.487	-2.876	2.014	3.136	-0.658	0.715	-1.810	-1.554	-0.922	-1.445	-1.206	2.908	4.766	-3.445	1.883	1.146	-0.641	3.758	5.037	6.387	4.861	3.009	2.538	1.447	-0.772	-0.339	-1.256	542.969
-5.380	-1.118	-3.229	1.597	2.998	-0.841	1.127	-1.557	-1.211	-0.396	-1.043	-0.719	3.526	5.015	-4.345	1.298	0.638	-1.046	3.408	4.607	6.299	4.781	2.907	3.307	1.732	-0.259	0.437	-0.822	546.875
-6.289	-1.697	-3.497	1.216	2.883	-0.962	1.557	-1.232	-0.823	0.141	-0.659	-0.261	4.108	5.238	-5.184	0.717	0.109	-1.466	3.019	4.164	6.195	4.641	2.753	3.988	1.953	0.185	1.146	-0.423	550.781
-7.010	-2.169	-3.653	0.905	2.800	-1.012	1.963	-0.873	-0.439	0.626	-0.331	0.123	4.601	5.417	-5.882	0.194	-0.389	-1.852	2.632	3.747	6.088	4.462	2.569	4.524	2.085	0.514	1.720	-0.105	554.688
-7.477	-2.496	-3.692	0.689	2.754	-0.994	2.303	-0.519	-0.103	1.009	-0.091	0.397	4.965	5.542	-6.374	-0.222	-0.811	-2.161	2.285	3.388	5.985	4.266	2.378	4.871	2.118	0.700	2.106	0.103	558.594
-7.652	-2.657	-3.622	0.577	2.745	-0.915	2.547	-0.205	0.150	1.255	0.046	0.546	5.175	5.604	-6.614	-0.500	-1.123	-2.362	2.008	3.110	5.892	4.076	2.202	5.009	2.058	0.735	2.275	0.186	562.500
-7.532	-2.652	-3.462	0.567	2.768	-0.787	2.679	0.044	0.302	1.352	0.079	0.566	5.221	5.599	-6.582	-0.629	-1.304	-2.437	1.819	2.923	5.808	3.905	2.054	4.931	1.920	0.630	2.222	0.145	566.406
-7.134	-2.496	-3.232	0.646	2.815	-0.623	2.697	0.223	0.354	1.306	0.021	0.470	5.108	5.524	-6.281	-0.616	-1.353	-2.387	1.720	2.822	5.728	3.757	1.938	4.648	1.727	0.408	1.959	-0.008	570.312
-6.498	-2.210	-2.951	0.794	2.876	-0.435	2.613	0.338	0.320	1.143	-0.111	0.278	4.851	5.379	-5.739	-0.484	-1.278	-2.221	1.703	2.792	5.644	3.630	1.847	4.183	1.499	0.097	1.515	-0.250	574.219
-5.674	-1.824	-2.635	0.988	2.942	-0.233	2.452	0.409	0.228	0.897	-0.291	0.012	4.471	5.163	-5.003	-0.266	-1.099	-1.958	1.748	2.808	5.543	3.510	1.771	3.569	1.255	-0.274	0.927	-0.559	578.125
-4.722	-1.367	-2.293	1.206	3.000	-0.023	2.241	0.457	0.111	0.608	-0.495	-0.302	3.993	4.879	-4.133	-0.001	-0.842	-1.622	1.832	2.844	5.411	3.385	1.698	2.848	1.011	-0.674	0.242	-0.907	582.031
-3.703	-0.872	-1.936	1.426	3.043	0.187	2.012	0.506	-0.003	0.314	-0.702	-0.639	3.444	4.528	-3.200	0.274	-0.535	-1.241	1.932	2.872	5.239	3.242	1.616	2.068	0.778	-1.073	-0.487	-1.269	585.938
-2.686	-0.373	-1.573	1.631	3.063	0.392	1.791	0.568	-0.088	0.047	-0.893	-0.973	2.855	4.118	-2.282	0.524	-0.209	-0.842	2.025	2.872	5.019	3.074	1.518	1.282	0.567	-1.441	-1.207	-1.615	589.844
-1.735	0.094	-1.218	1.806	3.058	0.584	1.601	0.649	-0.128	-0.169	-1.052	-1.280	2.255	3.663	-1.452	0.724	0.107	-0.456	2.096	2.829	4.751	2.881	1.403	0.545	0.389	-1.750	-1.862	-1.919	593.750
-0.916	0.495	-0.891	1.935	3.029	0.755	1.455	0.747	-0.117	-0.316	-1.167	-1.535	1.677	3.180	-0.777	0.858	0.385	-0.108	2.132	2.740	4.441	2.669	1.277	-0.091	0.252	-1.973	-2.402	-2.155	597.656
-0.281	0.794	-0.616	2.008	2.975	0.894	1.360	0.853	-0.057	-0.389	-1.230	-1.715	1.151	2.691	-0.303	0.920	0.603	0.178	2.129	2.607	4.100	2.450	1.149	-0.583	0.165	-2.090	-2.785	-2.299	601.562
0.130	0.967	-0.419	2.011	2.897	0.989	1.315	0.957	0.046	-0.385	-1.233	-1.802	0.707	2.222	-0.052	0.913	0.744	0.389	2.085	2.442	3.742	2.239	1.032	-0.902	0.134	-2.091	-2.983	-2.339	605.469
0.299	0.999	-0.319	1.940	2.796	1.031	1.314	1.047	0.182	-0.313	-1.174	-1.786	0.367	1.797	-0.021	0.845	0.796	0.518	2.004	2.255	3.383	2.050	0.938	-1.034	0.165	-1.974	-2.986	-2.267	609.375
0.231	0.890	-0.329	1.791	2.671	1.013	1.347	1.121	0.339	-0.184	-1.054	-1.663	0.150	1.438	-0.182	0.727	0.759	0.565	1.890	2.057	3.040	1.893	0.876	-0.980	0.256	-1.751	-2.803	-2.090	613.281
-0.051	0.657	-0.447	1.571	2.522	0.935	1.406	1.178	0.507	-0.010	-0.879	-1.443	0.064	1.163	-0.496	0.571	0.637	0.536	1.747	1.859	2.724	1.775	0.851	-0.759	0.404	-1.444	-2.456	-1.823	617.188
-0.507	0.328	-0.663	1.296	2.352	0.805	1.484	1.225	0.676	0.195	-0.661	-1.144	0.110	0.984	-0.916	0.387	0.441	0.441	1.583	1.663	2.447	1.694	0.858	-0.401	0.600	-1.082	-1.985	-1.490	621.094
-1.087	-0.059	-0.955	0.987	2.169	0.637	1.578	1.272	0.841	0.423	-0.412	-0.789	0.280	0.906	-1.396	0.184	0.188	0.291	1.400	1.472	2.214	1.645	0.890	0.055	0.833	-0.696	-1.434	-1.122	625.000
-1.737	-0.460	-1.296	0.670	1.982	0.451	1.686	1.326	0.997	0.664	-0.151	-0.408	0.560	0.926	-1.894	-0.031	-0.098	0.102	1.207	1.286	2.030	1.619	0.936	0.564	1.089	-0.320	-0.855	-0.750	628.906
-2.400	-0.838	-1.660	0.372	1.801	0.263	1.807	1.395	1.140	0.912	0.104	-0.031	0.924	1.033	-2.373	-0.251	-0.393	-0.109	1.009	1.107	1.896	1.606	0.982	1.083	1.352	0.017	-0.293	-0.402	632.812
-3.021	-1.161	-2.024	0.115	1.637	0.088	1.937	1.476	1.267	1.159	0.334	0.312	1.343	1.211	-2.800	-0.465	-0.669	-0.322	0.818	0.937	1.811	1.597	1.020	1.571	1.606	0.295	0.208	-0.100	636.719
-3.555	-1.407	-2.366	-0.086	1.497	-0.067	2.069	1.566	1.374	1.395	0.523	0.597	1.785	1.440	-3.149	-0.663	-0.903	-0.516	0.646	0.780	1.771	1.586	1.042	1.994	1.837	0.503	0.619	0.141	640.625
-3.963	-1.569	-2.670	-0.225	1.387	-0.200	2.195	1.653	1.458	1.607	0.660	0.810	2.220	1.696	-3.402	-0.836	-1.076	-0.675	0.503	0.641	1.773	1.569	1.048	2.329	2.034	0.639	0.920	0.316	644.531
-4.222	-1.649	-2.925	-0.305	1.305	-0.315	2.305	1.726	1.515	1.780	0.737	0.943	2.620	1.959	-3.551	-0.973	-1.179	-0.787	0.397	0.526	1.809	1.548	1.036	2.564	2.191	0.712	1.106	0.428	648.438
-4.319	-1.659	-3.121	-0.332	1.251	-0.414	2.390	1.773	1.543	1.899	0.752	0.996	2.967	2.210	-3.598	-1.069	-1.215	-0.850	0.334	0.437	1.874	1.523	1.008	2.698	2.303	0.735	1.182	0.486	652.344
-4.256	-1.613	-3.252	-0.318	1.222	-0.497	2.444	1.788	1.539	1.951	0.705	0.975	3.247	2.438	-3.553	-1.122	-1.197	-0.868	0.310	0.379	1.959	1.496	0.966	2.742	2.370	0.720	1.162	0.497	656.250
-4.044	-1.530	-3.313	-0.272	1.213	-0.564	2.466	1.769	1.503	1.931	0.600	0.889	3.456	2.635	-3.433	-1.132	-1.143	-0.851	0.320	0.353	2.059	1.469	0.912	2.711	2.394	0.679	1.062	0.468	660.156
-3.699	-1.421	-3.305	-0.204	1.222	-0.609	2.455	1.720	1.435	1.841	0.443	0.749	3.591	2.793	-3.257	-1.102	-1.076	-0.811	0.353	0.361	2.165	1.444	0.848	2.619	2.375	0.615	0.900	0.401	664.062
-3.246	-1.297	-3.234	-0.120	1.244	-0.628	2.418	1.650	1.341	1.690	0.243	0.567	3.653	2.910	-3.038	-1.036	-1.013	-0.758	0.397	0.401	2.268	1.420	0.778	2.485	2.316	0.530	0.690	0.299	667.969
-2.711	-1.162	-3.112	-0.027	1.275	-0.618	2.362	1.570	1.230	1.501	0.019	0.360	3.645	2.977	-2.788	-0.941	-0.964	-0.703	0.442	0.467	2.355	1.395	0.708	2.318	2.220	0.422	0.449	0.163	671.875
-2.124	-1.020	-2.951	0.069	1.308	-0.579	2.299	1.496	1.117	1.298	-0.207	0.147	3.571	2.987	-2.518	-0.827	-0.935	-0.648	0.476	0.547	2.409	1.363	0.641	2.128	2.094	0.291	0.189	0.001	675.781
-1.517	-0.873	-2.766	0.157	1.332	-0.516	2.239	1.442	1.018	1.111	-0.409	-0.050	3.436	2.928	-2.235	-0.710	-0.927	-0.595	0.488	0.622	2.412	1.317	0.579	1.921	1.944	0.143	-0.073	-0.177	679.688
-0.921	-0.729	-2.563	0.230	1.339	-0.434	2.192	1.416	0.952	0.965	-0.559	-0.211	3.249	2.789	-1.948	-0.606	-0.940	-0.544	0.471	0.669	2.345	1.250	0.520	1.702	1.784	-0.013	-0.322	-0.352	683.594
-0.368	-0.596	-2.346	0.277	1.320	-0.342	2.163	1.425	0.931	0.875	-0.638	-0.318	3.017	2.565	-1.669	-0.533	-0.971	-0.491	0.419	0.669	2.196	1.155	0.460	1.477	1.624	-0.159	-0.540	-0.505	687.500
0.114	-0.485	-2.115	0.291	1.269	-0.251	2.153	1.466	0.964	0.848	-0.634	-0.361	2.750	2.255	-1.409	-0.506	-1.024	-0.434	0.330	0.608	1.964	1.028	0.392	1.251	1.478	-0.276	-0.713	-0.615	691.406
0.504	-0.407	-1.872	0.270	1.186	-0.171	2.157	1.530	1.048	0.876	-0.550	-0.339	2.460	1.870	-1.181	-0.529	-1.098	-0.374	0.206	0.483	1.660	0.871	0.313	1.036	1.356	-0.346	-0.827	-0.665	695.312
0.786	-0.365	-1.625	0.219	1.077	-0.111	2.164	1.603	1.170	0.939	-0.401	-0.261	2.159	1.433	-0.993	-0.600	-1.192	-0.313	0.059	0.306	1.308	0.694	0.220	0.843	1.265	-0.359	-0.877	-0.647	699.219
0.955	-0.358	-1.386	0.148	0.952	-0.077	2.162	1.669	1.307	1.009	-0.217	-0.143	1.862	0.974	-0.851	-0.704	-1.302	-0.255	-0.101	0.098	0.942	0.507	0.113	0.681	1.208	-0.311	-0.861	-0.564	703.125
1.016	-0.377	-1.175	0.073	0.824	-0.069	2.138	1.711	1.432	1.057	-0.033	-0.009	1.584	0.528	-0.751	-0.821	-1.420	-0.207	-0.258	-0.112	0.598	0.325	-0.003	0.560	1.184	-0.210	-0.787	-0.431	707.031
0.986	-0.405	-1.013	0.009	0.708	-0.086	2.081	1.719	1.518	1.056	0.113	0.117	1.336	0.133	-0.681	-0.927	-1.532	-0.177	-0.397	-0.294	0.311	0.161	-0.122	0.485	1.187	-0.073	-0.666	-0.268	710.938
0.892	-0.424	-0.920	-0.029	0.615	-0.124	1.984	1.687	1.542	0.988	0.191	0.213	1.131	-0.183	-0.623	-1.001	-1.626	-0.169	-0.505	-0.424	0.106	0.026	-0.237	0.454	1.207	0.077	-0.518	-0.105	714.844
0.768	-0.421	-0.910	-0.030	0.551	-0.175	1.851	1.616	1.492	0.850	0.183	0.261	0.976	-0.394	-0.552	-1.029	-1.686	-0.185	-0.575	-0.484	-0.002	-0.073	-0.338	0.460	1.234	0.213	-0.366	0.032	718.750
0.653	-0.386	-0.989	0.005	0.518	-0.232	1.687	1.510	1.368	0.652	0.086	0.252	0.877	-0.489	-0.442	-1.002	-1.702	-0.220	-0.601	-0.469	-0.011	-0.130	-0.419	0.493	1.253	0.310	-0.234	0.117	722.656
0.586	-0.322	-1.149	0.069	0.509	-0.292	1.507	1.378	1.180	0.412	-0.089	0.184	0.835	-0.466	-0.268	-0.921	-1.665	-0.263	-0.580	-0.383	0.072	-0.142	-0.473	0.538	1.253	0.345	-0.145	0.133	726.562
0.600	-0.239	-1.369	0.148	0.515	-0.354	1.322	1.229	0.951	0.156	-0.319	0.062	0.844	-0.335	-0.013	-0.794	-1.572	-0.297	-0.515	-0.239	0.233	-0.111	-0.493	0.579	1.222	0.308	-0.120	0.070	730.469
0.722	-0.154	-1.619	0.220	0.522	-0.422	1.144	1.071	0.706	-0.091	-0.573	-0.102	0.894	-0.117	0.336	-0.634	-1.426	-0.302	-0.408	-0.055	0.450	-0.037	-0.476	0.601	1.154	0.195	-0.172	-0.070	734.375
0.964	-0.084	-1.860	0.265	0.513	-0.503	0.982	0.915	0.475	-0.309	-0.820	-0.295	0.971	0.162	0.779	-0.457	-1.235	-0.265	-0.267	0.146	0.699	0.075	-0.425	0.592	1.048	0.012	-0.308	-0.274	738.281
1.325	-0.044	-2.058	0.266	0.477	-0.605	0.840	0.769	0.282	-0.483	-1.033	-0.500	1.057	0.467	1.308	-0.275	-1.009	-0.175	-0.099	0.345	0.956	0.216	-0.346	0.543	0.906	-0.226	-0.527	-0.525	742.188
1.789	-0.038	-2.186	0.216	0.406	-0.737	0.717	0.641	0.145	-0.609	-1.193	-0.702	1.136	0.769	1.906	-0.100	-0.763	-0.034	0.085	0.525	1.200	0.376	-0.249	0.452	0.740	-0.504	-0.816	-0.802	746.094
2.325	-0.060	-2.237	0.117	0.302	-0.901	0.613	0.534	0.071	-0.688	-1.296	-0.889	1.196	1.044	2.548	0.061	-0.510	0.145	0.276	0.678	1.415	0.544	-0.144	0.323	0.561	-0.799	-1.154	-1.081	750.000
2.890	-0.096	-2.220	-0.017	0.172	-1.097	0.525	0.451	0.055	-0.728	-1.345	-1.053	1.235	1.277	3.202	0.205	-0.263	0.344	0.465	0.798	1.594	0.710	-0.042	0.167	0.385	-1.092	-1.515	-1.341	753.906
3.436	-0.133	-2.163	-0.165	0.034	-1.315	0.454	0.385	0.083	-0.739	-1.354	-1.189	1.258	1.465	3.832	0.331	-0.034	0.538	0.645	0.888	1.734	0.869	0.049	0.003	0.228	-1.360	-1.865	-1.562	757.812
3.914	-0.157	-2.102	-0.308	-0.096	-1.542	0.402	0.330	0.139	-0.728	-1.339	-1.293	1.276	1.614	4.401	0.437	0.165	0.702	0.808	0.951	1.842	1.014	0.127	-0.148	0.104	-1.583	-2.168	-1.730	761.719
4.281	-0.165	-2.072	-0.426	-0.202	-1.761	0.374	0.278	0.205	-0.700	-1.313	-1.363	1.309	1.735	4.871	0.517	0.322	0.816	0.947	0.993	1.926	1.144	0.189	-0.261	0.026	-1.742	-2.392	-1.833	765.625
4.502	-0.162	-2.101	-0.508	-0.274	-1.956	0.377	0.224	0.268	-0.655	-1.281	-1.394	1.372	1.840	5.204	0.566	0.423	0.868	1.052	1.018	1.993	1.254	0.238	-0.316	0.001	-1.825	-2.510	-1.867	769.531
4.555	-0.157	-2.202	-0.550	-0.306	-2.114	0.418	0.166	0.323	-0.587	-1.243	-1.380	1.480	1.938	5.371	0.578	0.454	0.849	1.114	1.028	2.050	1.340	0.273	-0.298	0.033	-1.821	-2.506	-1.828	773.438
4.430	-0.162	-2.376	-0.552	-0.299	-2.222	0.501	0.104	0.368	-0.492	-1.192	-1.318	1.639	2.034	5.351	0.545	0.404	0.762	1.123	1.025	2.100	1.395	0.295	-0.199	0.124	-1.727	-2.375	-1.720	777.344
4.134	-0.186	-2.610	-0.520	-0.257	-2.275	0.631	0.040	0.406	-0.366	-1.122	-1.205	1.849	2.130	5.140	0.466	0.269	0.614	1.075	1.012	2.145	1.415	0.303	-0.021	0.270	-1.548	-2.123	-1.551	781.250
3.685	-0.235	-2.890	-0.461	-0.188	-2.276	0.804	-0.022	0.440	-0.208	-1.030	-1.045	2.104	2.224	4.749	0.345	0.049	0.417	0.971	0.991	2.184	1.398	0.299	0.228	0.465	-1.294	-1.768	-1.329	785.156
3.115	-0.307	-3.197	-0.386	-0.099	-2.230	1.014	-0.082	0.474	-0.022	-0.913	-0.844	2.395	2.318	4.209	0.187	-0.242	0.186	0.817	0.965	2.219	1.348	0.283	0.535	0.700	-0.982	-1.335	-1.070	789.062
2.466	-0.399	-3.516	-0.302	-0.000	-2.152	1.251	-0.140	0.510	0.186	-0.777	-0.615	2.708	2.410	3.568	0.004	-0.584	-0.065	0.630	0.936	2.252	1.274	0.261	0.878	0.960	-0.633	-0.854	-0.786	792.969
1.788	-0.503	-3.834	-0.219	0.100	-2.061	1.500	-0.196	0.551	0.406	-0.628	-0.372	3.032	2.504	2.885	-0.190	-0.950	-0.319	0.426	0.907	2.284	1.189	0.237	1.236	1.230	-0.269	-0.357	-0.495	796.875
