FP1	F3	F7	FC3	C3	C5	P3	P7	PO7	PO3	O1	Oz	Pz	CPz	FP2	Fz	F4	F8	FC4	FCz	Cz	C4	C6	P4	P8	PO8	PO4	O2	time
0.319	-0.006	0.172	-0.096	-0.805	-0.140	-0.023	0.485	0.814	0.823	0.971	0.279	-0.378	-0.480	-0.255	-0.603	-1.178	-0.046	-0.702	-0.142	-0.307	-0.252	-0.451	0.211	-0.438	-0.899	0.758	-0.056	-199.219
0.338	0.324	0.311	0.234	-0.423	-0.023	-0.276	-0.054	0.028	0.174	0.293	-0.092	-0.407	-0.313	0.097	-0.110	-0.278	0.185	-0.234	0.157	-0.090	0.009	-0.091	0.293	-0.414	-0.795	0.407	-0.228	-195.312
0.365	0.632	0.434	0.549	-0.051	0.094	-0.481	-0.550	-0.694	-0.417	-0.350	-0.454	-0.412	-0.147	0.419	0.350	0.517	0.396	0.195	0.432	0.115	0.259	0.243	0.362	-0.405	-0.724	0.065	-0.410	-191.406
0.399	0.893	0.524	0.830	0.298	0.214	-0.590	-0.952	-1.280	-0.888	-0.914	-0.787	-0.372	0.015	0.677	0.736	1.119	0.560	0.545	0.656	0.296	0.486	0.527	0.414	-0.419	-0.706	-0.249	-0.599	-187.500
0.431	1.079	0.565	1.056	0.610	0.337	-0.571	-1.219	-1.674	-1.188	-1.358	-1.066	-0.269	0.169	0.848	1.013	1.470	0.656	0.785	0.804	0.437	0.675	0.742	0.455	-0.459	-0.743	-0.506	-0.785	-183.594
0.451	1.167	0.548	1.206	0.869	0.460	-0.409	-1.324	-1.841	-1.288	-1.652	-1.270	-0.096	0.312	0.918	1.154	1.554	0.671	0.899	0.857	0.529	0.815	0.878	0.494	-0.517	-0.821	-0.680	-0.946	-179.688
0.446	1.140	0.470	1.259	1.063	0.580	-0.107	-1.254	-1.767	-1.178	-1.774	-1.377	0.142	0.440	0.886	1.141	1.392	0.602	0.881	0.807	0.564	0.892	0.928	0.542	-0.580	-0.914	-0.746	-1.059	-175.781
0.402	0.992	0.336	1.207	1.179	0.692	0.309	-1.013	-1.463	-0.872	-1.719	-1.372	0.430	0.546	0.760	0.974	1.038	0.453	0.741	0.654	0.538	0.898	0.895	0.608	-0.633	-0.990	-0.691	-1.099	-171.875
0.307	0.734	0.163	1.049	1.212	0.790	0.801	-0.617	-0.957	-0.401	-1.491	-1.249	0.742	0.624	0.554	0.669	0.562	0.237	0.498	0.411	0.451	0.828	0.784	0.696	-0.662	-1.021	-0.516	-1.050	-167.969
0.155	0.387	-0.026	0.796	1.163	0.870	1.321	-0.097	-0.297	0.189	-1.112	-1.015	1.047	0.664	0.292	0.260	0.040	-0.026	0.185	0.098	0.308	0.685	0.603	0.800	-0.664	-0.989	-0.242	-0.907	-164.062
-0.049	-0.012	-0.203	0.475	1.039	0.929	1.818	0.506	0.458	0.841	-0.613	-0.689	1.311	0.662	-0.001	-0.209	-0.456	-0.312	-0.165	-0.255	0.122	0.473	0.365	0.902	-0.638	-0.891	0.095	-0.681	-160.156
-0.292	-0.417	-0.339	0.118	0.858	0.963	2.241	1.142	1.240	1.497	-0.041	-0.302	1.505	0.614	-0.297	-0.683	-0.870	-0.592	-0.516	-0.612	-0.093	0.206	0.083	0.980	-0.596	-0.742	0.444	-0.397	-156.250
-0.546	-0.778	-0.408	-0.234	0.640	0.972	2.549	1.753	1.978	2.092	0.549	0.102	1.603	0.519	-0.568	-1.107	-1.166	-0.837	-0.836	-0.935	-0.313	-0.100	-0.227	1.005	-0.552	-0.570	0.745	-0.096	-152.344
-0.770	-1.050	-0.393	-0.541	0.411	0.956	2.709	2.282	2.598	2.567	1.094	0.474	1.589	0.384	-0.785	-1.431	-1.327	-1.017	-1.100	-1.185	-0.516	-0.427	-0.545	0.949	-0.525	-0.412	0.942	0.177	-148.438
-0.917	-1.194	-0.287	-0.767	0.192	0.915	2.702	2.672	3.034	2.868	1.532	0.767	1.455	0.219	-0.920	-1.612	-1.349	-1.104	-1.286	-1.329	-0.676	-0.751	-0.844	0.789	-0.530	-0.304	0.987	0.374	-144.531
-0.943	-1.187	-0.098	-0.885	0.004	0.850	2.517	2.878	3.233	2.950	1.807	0.938	1.202	0.036	-0.953	-1.625	-1.242	-1.075	-1.380	-1.343	-0.771	-1.046	-1.094	0.516	-0.576	-0.278	0.851	0.461	-140.625
-0.813	-1.024	0.154	-0.880	-0.141	0.764	2.161	2.870	3.164	2.785	1.880	0.961	0.841	-0.152	-0.867	-1.460	-1.019	-0.915	-1.368	-1.212	-0.785	-1.285	-1.260	0.137	-0.663	-0.348	0.535	0.416	-136.719
-0.515	-0.720	0.437	-0.753	-0.239	0.658	1.647	2.639	2.819	2.369	1.732	0.829	0.393	-0.334	-0.658	-1.125	-0.697	-0.620	-1.244	-0.938	-0.714	-1.437	-1.310	-0.324	-0.781	-0.512	0.064	0.243	-132.812
-0.068	-0.307	0.718	-0.522	-0.291	0.536	1.005	2.196	2.218	1.720	1.368	0.558	-0.111	-0.502	-0.337	-0.649	-0.293	-0.201	-1.005	-0.538	-0.562	-1.477	-1.221	-0.822	-0.912	-0.750	-0.507	-0.035	-128.906
0.480	0.164	0.959	-0.219	-0.307	0.400	0.276	1.574	1.409	0.886	0.823	0.181	-0.635	-0.650	0.071	-0.079	0.172	0.316	-0.658	-0.048	-0.347	-1.386	-0.984	-1.302	-1.033	-1.026	-1.105	-0.375	-125.000
1.060	0.638	1.131	0.113	-0.304	0.252	-0.490	0.826	0.464	-0.063	0.152	-0.253	-1.136	-0.774	0.526	0.526	0.669	0.884	-0.221	0.483	-0.099	-1.159	-0.612	-1.704	-1.116	-1.291	-1.650	-0.726	-121.094
1.592	1.054	1.211	0.425	-0.296	0.095	-1.233	0.018	-0.527	-1.037	-0.573	-0.687	-1.570	-0.871	0.974	1.098	1.157	1.444	0.272	0.997	0.149	-0.808	-0.141	-1.972	-1.138	-1.495	-2.066	-1.034	-117.188
2.000	1.361	1.184	0.673	-0.300	-0.070	-1.888	-0.775	-1.470	-1.939	-1.269	-1.068	-1.896	-0.936	1.361	1.571	1.587	1.927	0.776	1.433	0.364	-0.364	0.376	-2.066	-1.079	-1.591	-2.291	-1.250	-113.281
2.222	1.522	1.047	0.822	-0.326	-0.239	-2.395	-1.480	-2.271	-2.674	-1.860	-1.348	-2.076	-0.960	1.634	1.888	1.909	2.269	1.235	1.741	0.520	0.129	0.875	-1.964	-0.928	-1.542	-2.288	-1.344	-109.375
2.225	1.520	0.808	0.851	-0.377	-0.409	-2.705	-2.034	-2.854	-3.166	-2.280	-1.496	-2.088	-0.930	1.755	2.015	2.077	2.418	1.593	1.884	0.604	0.614	1.292	-1.666	-0.685	-1.329	-2.046	-1.300	-105.469
2.004	1.358	0.482	0.760	-0.447	-0.575	-2.787	-2.393	-3.168	-3.363	-2.484	-1.496	-1.918	-0.834	1.708	1.939	2.060	2.345	1.803	1.850	0.619	1.036	1.572	-1.193	-0.360	-0.954	-1.585	-1.121	-101.562
1.588	1.059	0.096	0.564	-0.522	-0.729	-2.632	-2.536	-3.193	-3.249	-2.455	-1.350	-1.571	-0.658	1.499	1.677	1.852	2.050	1.835	1.652	0.584	1.347	1.681	-0.586	0.021	-0.441	-0.947	-0.828	-97.656
1.032	0.660	-0.321	0.292	-0.582	-0.863	-2.260	-2.469	-2.942	-2.842	-2.203	-1.075	-1.071	-0.396	1.158	1.269	1.473	1.561	1.679	1.328	0.528	1.515	1.607	0.102	0.424	0.161	-0.199	-0.453	-93.750
0.408	0.209	-0.732	-0.018	-0.606	-0.966	-1.713	-2.222	-2.460	-2.194	-1.765	-0.706	-0.459	-0.054	0.731	0.773	0.966	0.931	1.355	0.930	0.484	1.526	1.366	0.804	0.803	0.786	0.582	-0.037	-89.844
-0.205	-0.245	-1.101	-0.323	-0.575	-1.028	-1.057	-1.841	-1.810	-1.382	-1.197	-0.285	0.207	0.347	0.274	0.255	0.389	0.229	0.904	0.517	0.478	1.389	0.990	1.448	1.109	1.358	1.311	0.372	-85.938
-0.736	-0.650	-1.391	-0.582	-0.481	-1.037	-0.367	-1.382	-1.071	-0.500	-0.568	0.142	0.859	0.770	-0.157	-0.222	-0.192	-0.469	0.382	0.143	0.522	1.132	0.529	1.968	1.296	1.801	1.908	0.729	-82.031
-1.129	-0.964	-1.573	-0.761	-0.323	-0.984	0.277	-0.900	-0.323	0.357	0.053	0.527	1.424	1.166	-0.517	-0.608	-0.719	-1.091	-0.143	-0.153	0.610	0.795	0.037	2.303	1.330	2.052	2.308	0.996	-78.125
-1.351	-1.158	-1.627	-0.838	-0.114	-0.865	0.807	-0.442	0.361	1.103	0.607	0.836	1.841	1.484	-0.777	-0.873	-1.142	-1.580	-0.610	-0.355	0.718	0.426	-0.432	2.414	1.199	2.076	2.470	1.147	-74.219
-1.397	-1.218	-1.544	-0.805	0.125	-0.682	1.175	-0.039	0.927	1.675	1.049	1.046	2.064	1.677	-0.926	-1.012	-1.433	-1.898	-0.965	-0.467	0.810	0.070	-0.836	2.288	0.915	1.869	2.385	1.174	-70.312
-1.287	-1.153	-1.339	-0.675	0.363	-0.450	1.357	0.291	1.341	2.036	1.358	1.152	2.077	1.711	-0.970	-1.037	-1.583	-2.033	-1.177	-0.509	0.848	-0.235	-1.142	1.940	0.519	1.469	2.079	1.089	-66.406
-1.064	-0.988	-1.040	-0.476	0.567	-0.191	1.361	0.543	1.591	2.180	1.533	1.168	1.889	1.576	-0.930	-0.979	-1.601	-1.994	-1.238	-0.514	0.801	-0.464	-1.333	1.415	0.077	0.946	1.606	0.922	-62.500
-0.783	-0.763	-0.695	-0.248	0.709	0.063	1.217	0.723	1.686	2.125	1.589	1.118	1.537	1.285	-0.838	-0.869	-1.510	-1.811	-1.162	-0.510	0.653	-0.608	-1.405	0.778	-0.333	0.393	1.041	0.716	-58.594
-0.504	-0.525	-0.358	-0.037	0.764	0.275	0.970	0.838	1.647	1.911	1.554	1.033	1.076	0.872	-0.725	-0.741	-1.342	-1.526	-0.981	-0.519	0.407	-0.672	-1.365	0.106	-0.631	-0.091	0.467	0.520	-54.688
-0.283	-0.317	-0.078	0.115	0.721	0.415	0.671	0.894	1.505	1.585	1.459	0.944	0.567	0.391	-0.620	-0.615	-1.129	-1.187	-0.737	-0.551	0.089	-0.672	-1.228	-0.526	-0.755	-0.420	-0.042	0.376	-50.781
-0.156	-0.172	0.106	0.181	0.580	0.459	0.368	0.898	1.293	1.196	1.331	0.872	0.071	-0.099	-0.544	-0.507	-0.901	-0.840	-0.474	-0.603	-0.263	-0.626	-1.018	-1.055	-0.674	-0.540	-0.431	0.310	-46.875
-0.137	-0.107	0.180	0.150	0.358	0.402	0.093	0.852	1.040	0.785	1.193	0.826	-0.363	-0.540	-0.505	-0.418	-0.684	-0.520	-0.234	-0.661	-0.601	-0.558	-0.762	-1.439	-0.395	-0.440	-0.674	0.328	-42.969
-0.214	-0.118	0.157	0.031	0.082	0.255	-0.138	0.759	0.772	0.383	1.055	0.802	-0.704	-0.883	-0.502	-0.346	-0.494	-0.251	-0.042	-0.709	-0.882	-0.484	-0.490	-1.663	0.038	-0.148	-0.774	0.418	-39.062
-0.349	-0.185	0.071	-0.147	-0.212	0.044	-0.325	0.622	0.504	0.009	0.919	0.787	-0.938	-1.099	-0.524	-0.286	-0.343	-0.046	0.086	-0.734	-1.070	-0.416	-0.230	-1.730	0.550	0.268	-0.757	0.549	-35.156
-0.494	-0.276	-0.029	-0.343	-0.487	-0.195	-0.482	0.447	0.244	-0.330	0.778	0.759	-1.071	-1.179	-0.553	-0.229	-0.234	0.097	0.156	-0.723	-1.148	-0.357	-0.005	-1.663	1.055	0.726	-0.660	0.681	-31.250
-0.600	-0.351	-0.094	-0.515	-0.711	-0.423	-0.627	0.239	-0.005	-0.633	0.624	0.699	-1.123	-1.136	-0.568	-0.170	-0.159	0.192	0.183	-0.674	-1.118	-0.302	0.169	-1.495	1.470	1.141	-0.528	0.776	-27.344
-0.632	-0.377	-0.088	-0.627	-0.865	-0.609	-0.781	0.008	-0.245	-0.905	0.449	0.593	-1.120	-1.000	-0.553	-0.101	-0.106	0.257	0.193	-0.590	-0.999	-0.243	0.291	-1.262	1.737	1.445	-0.393	0.808	-23.438
-0.574	-0.333	0.002	-0.657	-0.944	-0.731	-0.954	-0.232	-0.475	-1.146	0.253	0.442	-1.089	-0.814	-0.497	-0.022	-0.058	0.311	0.213	-0.481	-0.824	-0.170	0.365	-0.998	1.824	1.601	-0.280	0.764	-19.531
-0.435	-0.214	0.165	-0.601	-0.957	-0.784	-1.145	-0.463	-0.688	-1.349	0.048	0.260	-1.054	-0.623	-0.399	0.065	-0.002	0.367	0.261	-0.362	-0.635	-0.077	0.402	-0.728	1.737	1.604	-0.194	0.652	-15.625
-0.242	-0.035	0.368	-0.473	-0.921	-0.769	-1.336	-0.663	-0.871	-1.502	-0.144	0.074	-1.026	-0.463	-0.271	0.156	0.064	0.425	0.343	-0.250	-0.469	0.033	0.415	-0.469	1.511	1.480	-0.128	0.497	-11.719
-0.035	0.174	0.564	-0.298	-0.856	-0.698	-1.496	-0.811	-1.004	-1.584	-0.295	-0.082	-1.001	-0.357	-0.131	0.237	0.134	0.474	0.447	-0.159	-0.356	0.150	0.411	-0.229	1.198	1.275	-0.064	0.335	-7.812
0.143	0.378	0.708	-0.109	-0.778	-0.587	-1.586	-0.888	-1.069	-1.572	-0.378	-0.175	-0.966	-0.307	-0.006	0.297	0.190	0.492	0.546	-0.101	-0.309	0.259	0.393	-0.012	0.856	1.043	0.019	0.200	-3.906
0.255	0.539	0.764	0.067	-0.695	-0.450	-1.570	-0.884	-1.050	-1.450	-0.373	-0.185	-0.899	-0.302	0.081	0.322	0.211	0.452	0.610	-0.082	-0.324	0.343	0.358	0.185	0.537	0.832	0.137	0.124	0.000
0.276	0.631	0.718	0.209	-0.608	-0.300	-1.419	-0.801	-0.942	-1.210	-0.276	-0.104	-0.779	-0.316	0.110	0.301	0.176	0.333	0.608	-0.100	-0.383	0.388	0.298	0.358	0.275	0.678	0.296	0.121	3.906
0.201	0.643	0.575	0.307	-0.509	-0.147	-1.128	-0.649	-0.753	-0.861	-0.097	0.056	-0.594	-0.319	0.073	0.232	0.074	0.128	0.524	-0.150	-0.458	0.383	0.207	0.501	0.085	0.594	0.485	0.190	7.812
0.045	0.580	0.362	0.362	-0.392	0.001	-0.712	-0.451	-0.500	-0.431	0.138	0.268	-0.348	-0.288	-0.024	0.122	-0.092	-0.151	0.357	-0.217	-0.518	0.326	0.077	0.598	-0.040	0.572	0.681	0.313	11.719
-0.158	0.459	0.119	0.384	-0.252	0.140	-0.214	-0.233	-0.212	0.040	0.396	0.494	-0.060	-0.209	-0.161	-0.014	-0.299	-0.474	0.127	-0.287	-0.537	0.222	-0.090	0.629	-0.121	0.589	0.845	0.461	15.625
-0.368	0.312	-0.110	0.386	-0.096	0.265	0.307	-0.022	0.079	0.497	0.642	0.696	0.232	-0.087	-0.310	-0.152	-0.510	-0.794	-0.128	-0.341	-0.500	0.083	-0.289	0.571	-0.187	0.609	0.935	0.599	19.531
-0.541	0.172	-0.287	0.382	0.063	0.372	0.779	0.157	0.340	0.886	0.843	0.842	0.480	0.060	-0.435	-0.261	-0.679	-1.060	-0.363	-0.364	-0.405	-0.074	-0.502	0.403	-0.264	0.595	0.912	0.693	23.438
-0.645	0.070	-0.386	0.383	0.204	0.454	1.133	0.285	0.540	1.159	0.979	0.909	0.634	0.200	-0.509	-0.313	-0.758	-1.224	-0.534	-0.342	-0.264	-0.234	-0.707	0.116	-0.372	0.520	0.750	0.720	27.344
-0.664	0.031	-0.395	0.396	0.303	0.507	1.312	0.350	0.657	1.280	1.042	0.892	0.651	0.295	-0.509	-0.286	-0.713	-1.250	-0.605	-0.271	-0.103	-0.382	-0.876	-0.287	-0.517	0.367	0.445	0.669	31.250
-0.600	0.067	-0.319	0.423	0.341	0.525	1.286	0.351	0.678	1.234	1.034	0.795	0.506	0.309	-0.432	-0.169	-0.531	-1.125	-0.562	-0.150	0.049	-0.509	-0.985	-0.785	-0.693	0.141	0.013	0.542	35.156
-0.469	0.178	-0.177	0.464	0.307	0.509	1.055	0.297	0.600	1.027	0.965	0.633	0.195	0.215	-0.286	0.035	-0.224	-0.857	-0.412	0.010	0.160	-0.613	-1.017	-1.345	-0.879	-0.137	-0.506	0.354	39.062
-0.297	0.350	0.007	0.513	0.206	0.464	0.650	0.206	0.437	0.690	0.851	0.419	-0.261	0.002	-0.093	0.308	0.168	-0.478	-0.183	0.195	0.204	-0.701	-0.971	-1.922	-1.048	-0.431	-1.058	0.125	42.969
-0.115	0.559	0.205	0.568	0.054	0.400	0.131	0.104	0.216	0.266	0.704	0.166	-0.813	-0.319	0.115	0.618	0.590	-0.037	0.081	0.385	0.167	-0.782	-0.860	-2.466	-1.172	-0.694	-1.580	-0.120	46.875
0.045	0.775	0.388	0.622	-0.123	0.333	-0.428	0.022	-0.025	-0.187	0.533	-0.124	-1.400	-0.718	0.302	0.930	0.977	0.406	0.331	0.561	0.051	-0.867	-0.711	-2.925	-1.221	-0.878	-2.012	-0.363	50.781
0.151	0.962	0.528	0.672	-0.291	0.278	-0.948	-0.012	-0.242	-0.612	0.341	-0.452	-1.948	-1.147	0.436	1.206	1.269	0.789	0.522	0.708	-0.127	-0.962	-0.557	-3.252	-1.175	-0.940	-2.303	-0.591	54.688
0.178	1.089	0.602	0.710	-0.422	0.246	-1.362	0.027	-0.390	-0.960	0.128	-0.825	-2.391	-1.549	0.491	1.414	1.422	1.063	0.621	0.815	-0.338	-1.065	-0.431	-3.409	-1.018	-0.846	-2.419	-0.799	58.594
0.111	1.126	0.587	0.730	-0.495	0.242	-1.625	0.151	-0.429	-1.193	-0.107	-1.248	-2.676	-1.870	0.455	1.532	1.417	1.193	0.616	0.878	-0.546	-1.166	-0.355	-3.370	-0.742	-0.579	-2.346	-0.986	62.500
-0.058	1.053	0.469	0.720	-0.501	0.261	-1.717	0.362	-0.333	-1.290	-0.359	-1.713	-2.779	-2.068	0.325	1.548	1.258	1.169	0.509	0.897	-0.720	-1.250	-0.338	-3.131	-0.346	-0.137	-2.093	-1.155	66.406
-0.325	0.863	0.239	0.667	-0.449	0.290	-1.642	0.654	-0.086	-1.241	-0.610	-2.198	-2.700	-2.121	0.113	1.458	0.968	1.001	0.318	0.870	-0.839	-1.302	-0.375	-2.705	0.160	0.460	-1.688	-1.306	70.312
-0.682	0.558	-0.098	0.559	-0.360	0.311	-1.421	1.014	0.321	-1.042	-0.822	-2.664	-2.462	-2.031	-0.169	1.265	0.581	0.712	0.069	0.794	-0.898	-1.310	-0.451	-2.126	0.757	1.178	-1.172	-1.430	74.219
-1.112	0.151	-0.529	0.382	-0.264	0.304	-1.079	1.433	0.889	-0.691	-0.945	-3.051	-2.104	-1.821	-0.502	0.978	0.133	0.330	-0.215	0.660	-0.908	-1.272	-0.545	-1.444	1.414	1.970	-0.596	-1.510	78.125
-1.598	-0.337	-1.027	0.128	-0.191	0.257	-0.639	1.903	1.618	-0.180	-0.916	-3.289	-1.667	-1.531	-0.875	0.601	-0.347	-0.119	-0.519	0.455	-0.896	-1.202	-0.645	-0.717	2.088	2.780	-0.004	-1.520	82.031
-2.123	-0.886	-1.564	-0.206	-0.164	0.165	-0.113	2.423	2.510	0.506	-0.669	-3.309	-1.186	-1.204	-1.275	0.141	-0.841	-0.618	-0.834	0.165	-0.894	-1.123	-0.747	-0.003	2.734	3.555	0.567	-1.427	85.938
-2.672	-1.474	-2.107	-0.618	-0.200	0.032	0.496	2.994	3.560	1.378	-0.156	-3.058	-0.679	-0.881	-1.698	-0.396	-1.342	-1.158	-1.164	-0.223	-0.937	-1.069	-0.861	0.650	3.303	4.250	1.099	-1.205	89.844
-3.231	-2.082	-2.630	-1.095	-0.298	-0.130	1.191	3.616	4.755	2.438	0.648	-2.513	-0.154	-0.590	-2.138	-1.004	-1.855	-1.733	-1.519	-0.713	-1.044	-1.076	-1.011	1.208	3.755	4.832	1.586	-0.836	93.750
-3.784	-2.693	-3.115	-1.616	-0.447	-0.304	1.973	4.276	6.064	3.671	1.725	-1.693	0.393	-0.345	-2.587	-1.669	-2.387	-2.336	-1.907	-1.293	-1.224	-1.174	-1.224	1.652	4.061	5.284	2.036	-0.324	97.656
-4.309	-3.287	-3.547	-2.152	-0.627	-0.472	2.827	4.952	7.434	5.031	3.016	-0.660	0.964	-0.148	-3.030	-2.366	-2.941	-2.947	-2.331	-1.933	-1.463	-1.378	-1.521	1.977	4.201	5.592	2.452	0.302	101.562
-4.781	-3.838	-3.915	-2.661	-0.809	-0.617	3.726	5.605	8.789	6.446	4.421	0.485	1.556	0.014	-3.443	-3.056	-3.506	-3.530	-2.777	-2.581	-1.728	-1.679	-1.908	2.180	4.164	5.745	2.827	0.982	105.469
-5.165	-4.307	-4.204	-3.096	-0.959	-0.719	4.620	6.189	10.035	7.815	5.810	1.615	2.151	0.156	-3.788	-3.682	-4.047	-4.036	-3.212	-3.169	-1.973	-2.049	-2.370	2.260	3.938	5.716	3.134	1.634	109.375
-5.419	-4.648	-4.393	-3.405	-1.045	-0.762	5.447	6.652	11.067	9.022	7.042	2.594	2.718	0.294	-4.021	-4.173	-4.509	-4.405	-3.590	-3.618	-2.144	-2.438	-2.868	2.211	3.510	5.465	3.323	2.163	113.281
-5.499	-4.806	-4.452	-3.536	-1.038	-0.729	6.136	6.950	11.788	9.950	7.982	3.305	3.214	0.442	-4.095	-4.458	-4.824	-4.579	-3.858	-3.853	-2.194	-2.788	-3.348	2.022	2.868	4.946	3.333	2.478	117.188
-5.369	-4.732	-4.350	-3.452	-0.915	-0.608	6.626	7.051	12.121	10.496	8.525	3.663	3.592	0.605	-3.973	-4.474	-4.925	-4.514	-3.964	-3.821	-2.089	-3.041	-3.749	1.683	2.003	4.118	3.106	2.510	121.094
-5.007	-4.394	-4.062	-3.134	-0.667	-0.394	6.866	6.941	12.021	10.592	8.612	3.635	3.809	0.778	-3.637	-4.187	-4.767	-4.194	-3.874	-3.496	-1.817	-3.156	-4.014	1.196	0.927	2.969	2.603	2.229	125.000
-4.421	-3.787	-3.581	-2.590	-0.298	-0.090	6.832	6.628	11.485	10.211	8.239	3.239	3.836	0.949	-3.097	-3.596	-4.335	-3.633	-3.579	-2.893	-1.393	-3.109	-4.107	0.577	-0.323	1.531	1.825	1.652	128.906
-3.647	-2.944	-2.923	-1.858	0.168	0.284	6.526	6.135	10.557	9.379	7.456	2.548	3.662	1.104	-2.394	-2.742	-3.658	-2.882	-3.097	-2.065	-0.855	-2.903	-4.014	-0.136	-1.677	-0.107	0.819	0.845	132.812
-2.752	-1.935	-2.131	-1.005	0.691	0.698	5.976	5.501	9.320	8.173	6.365	1.672	3.296	1.221	-1.593	-1.704	-2.800	-2.019	-2.474	-1.096	-0.261	-2.563	-3.752	-0.884	-3.036	-1.802	-0.322	-0.084	136.719
-1.825	-0.858	-1.276	-0.119	1.216	1.107	5.235	4.775	7.893	6.714	5.101	0.741	2.770	1.285	-0.777	-0.589	-1.855	-1.139	-1.775	-0.091	0.324	-2.134	-3.361	-1.592	-4.280	-3.377	-1.469	-1.005	140.625
-0.963	0.170	-0.442	0.702	1.680	1.464	4.371	4.011	6.418	5.150	3.814	-0.113	2.131	1.278	-0.035	0.480	-0.934	-0.344	-1.079	0.841	0.833	-1.670	-2.902	-2.183	-5.285	-4.645	-2.474	-1.781	144.531
-0.263	1.033	0.277	1.363	2.018	1.719	3.460	3.265	5.040	3.641	2.654	-0.777	1.432	1.192	0.551	1.387	-0.142	0.279	-0.464	1.597	1.207	-1.227	-2.440	-2.585	-5.944	-5.437	-3.197	-2.295	148.438
0.199	1.634	0.797	1.786	2.177	1.831	2.576	2.592	3.895	2.336	1.748	-1.169	0.726	1.020	0.918	2.031	0.432	0.663	0.003	2.099	1.402	-0.855	-2.041	-2.747	-6.179	-5.635	-3.527	-2.463	152.344
0.373	1.909	1.059	1.921	2.120	1.774	1.785	2.045	3.093	1.354	1.188	-1.251	0.057	0.762	1.026	2.343	0.722	0.769	0.268	2.296	1.392	-0.595	-1.753	-2.642	-5.960	-5.187	-3.400	-2.248	156.250
0.244	1.834	1.032	1.755	1.837	1.542	1.134	1.667	2.707	0.774	1.022	-1.021	-0.544	0.423	0.863	2.295	0.693	0.591	0.295	2.170	1.174	-0.473	-1.609	-2.279	-5.300	-4.115	-2.808	-1.660	160.156
-0.168	1.429	0.726	1.312	1.344	1.151	0.653	1.489	2.761	0.623	1.253	-0.515	-1.060	0.016	0.441	1.894	0.340	0.146	0.071	1.738	0.761	-0.505	-1.620	-1.693	-4.257	-2.506	-1.797	-0.751	164.062
-0.815	0.753	0.182	0.648	0.682	0.637	0.352	1.527	3.236	0.881	1.843	0.210	-1.486	-0.443	-0.204	1.186	-0.315	-0.524	-0.400	1.044	0.187	-0.693	-1.780	-0.945	-2.919	-0.492	-0.460	0.396	167.969
-1.630	-0.113	-0.527	-0.163	-0.087	0.051	0.223	1.780	4.070	1.486	2.721	1.084	-1.827	-0.932	-1.023	0.246	-1.218	-1.364	-1.091	0.153	-0.505	-1.032	-2.067	-0.108	-1.389	1.765	1.080	1.683	171.875
-2.538	-1.076	-1.320	-1.034	-0.895	-0.551	0.246	2.229	5.174	2.344	3.794	2.036	-2.092	-1.431	-1.952	-0.838	-2.292	-2.313	-1.957	-0.857	-1.268	-1.506	-2.455	0.742	0.231	4.108	2.689	3.013	175.781
-3.468	-2.047	-2.111	-1.890	-1.672	-1.115	0.394	2.838	6.442	3.350	4.964	3.002	-2.291	-1.917	-2.926	-1.972	-3.445	-3.303	-2.938	-1.910	-2.053	-2.091	-2.909	1.534	1.847	6.392	4.240	4.301	179.688
-4.361	-2.957	-2.831	-2.671	-2.361	-1.595	0.635	3.561	7.763	4.395	6.133	3.925	-2.434	-2.372	-3.885	-3.072	-4.586	-4.274	-3.966	-2.937	-2.818	-2.754	-3.394	2.216	3.388	8.507	5.631	5.482	183.594
-5.171	-3.756	-3.435	-3.338	-2.918	-1.963	0.939	4.344	9.039	5.385	7.219	4.762	-2.526	-2.781	-4.779	-4.072	-5.635	-5.173	-4.970	-3.887	-3.531	-3.458	-3.875	2.755	4.803	10.376	6.791	6.512	187.500
-5.871	-4.422	-3.901	-3.877	-3.322	-2.205	1.275	5.127	10.184	6.247	8.156	5.482	-2.572	-3.133	-5.570	-4.933	-6.537	-5.958	-5.888	-4.724	-4.167	-4.158	-4.320	3.136	6.063	11.959	7.689	7.367	191.406
-6.448	-4.955	-4.234	-4.292	-3.566	-2.325	1.617	5.856	11.132	6.932	8.899	6.061	-2.572	-3.422	-6.236	-5.639	-7.268	-6.602	-6.666	-5.434	-4.713	-4.807	-4.699	3.367	7.152	13.243	8.323	8.041	195.312
-6.895	-5.368	-4.455	-4.600	-3.664	-2.338	1.942	6.478	11.840	7.414	9.425	6.487	-2.527	-3.643	-6.766	-6.194	-7.823	-7.086	-7.269	-6.016	-5.159	-5.358	-4.986	3.469	8.064	14.235	8.721	8.539	199.219
-7.213	-5.681	-4.594	-4.821	-3.640	-2.269	2.225	6.954	12.279	7.691	9.730	6.756	-2.437	-3.794	-7.157	-6.611	-8.214	-7.404	-7.676	-6.476	-5.505	-5.772	-5.160	3.473	8.796	14.955	8.925	8.870	203.125
-7.401	-5.914	-4.677	-4.976	-3.530	-2.148	2.443	7.257	12.443	7.769	9.822	6.874	-2.308	-3.873	-7.408	-6.909	-8.454	-7.555	-7.882	-6.825	-5.748	-6.017	-5.210	3.412	9.352	15.425	8.984	9.048	207.031
-7.458	-6.078	-4.720	-5.082	-3.377	-2.004	2.573	7.376	12.337	7.668	9.723	6.850	-2.147	-3.882	-7.521	-7.103	-8.553	-7.546	-7.893	-7.074	-5.893	-6.079	-5.132	3.318	9.733	15.669	8.944	9.087	210.938
-7.383	-6.181	-4.728	-5.151	-3.222	-1.862	2.599	7.319	11.987	7.410	9.464	6.705	-1.966	-3.828	-7.498	-7.206	-8.516	-7.387	-7.730	-7.229	-5.944	-5.962	-4.934	3.217	9.950	15.709	8.840	8.999	214.844
-7.179	-6.227	-4.696	-5.196	-3.107	-1.743	2.509	7.112	11.436	7.022	9.080	6.461	-1.784	-3.721	-7.351	-7.225	-8.351	-7.096	-7.421	-7.300	-5.910	-5.687	-4.634	3.124	10.015	15.567	8.693	8.797	218.750
-6.855	-6.218	-4.613	-5.223	-3.060	-1.660	2.304	6.801	10.743	6.537	8.613	6.148	-1.619	-3.580	-7.097	-7.169	-8.071	-6.698	-7.005	-7.293	-5.808	-5.295	-4.258	3.046	9.951	15.263	8.512	8.497	222.656
-6.430	-6.160	-4.469	-5.241	-3.100	-1.614	1.999	6.441	9.981	5.991	8.109	5.796	-1.490	-3.423	-6.762	-7.049	-7.699	-6.225	-6.527	-7.221	-5.655	-4.838	-3.841	2.979	9.781	14.825	8.298	8.119	226.562
-5.933	-6.065	-4.262	-5.257	-3.226	-1.601	1.626	6.094	9.231	5.425	7.612	5.440	-1.409	-3.273	-6.381	-6.881	-7.269	-5.713	-6.032	-7.096	-5.473	-4.367	-3.421	2.913	9.535	14.281	8.045	7.688	230.469
-5.404	-5.950	-4.003	-5.279	-3.424	-1.610	1.227	5.818	8.570	4.885	7.164	5.107	-1.384	-3.147	-5.990	-6.687	-6.821	-5.199	-5.562	-6.935	-5.284	-3.932	-3.033	2.839	9.240	13.665	7.749	7.230	234.375
-4.889	-5.840	-3.718	-5.312	-3.665	-1.630	0.853	5.656	8.065	4.414	6.797	4.822	-1.410	-3.055	-5.627	-6.490	-6.393	-4.718	-5.149	-6.756	-5.105	-3.565	-2.706	2.751	8.925	13.018	7.415	6.778	238.281
-4.438	-5.760	-3.443	-5.363	-3.912	-1.653	0.554	5.632	7.758	4.051	6.535	4.604	-1.468	-2.999	-5.318	-6.313	-6.015	-4.295	-4.814	-6.575	-4.950	-3.284	-2.457	2.654	8.616	12.377	7.055	6.360	242.188
-4.095	-5.734	-3.221	-5.434	-4.128	-1.671	0.372	5.747	7.666	3.825	6.387	4.460	-1.531	-2.968	-5.083	-6.179	-5.709	-3.948	-4.562	-6.406	-4.822	-3.085	-2.287	2.560	8.334	11.781	6.693	6.003	246.094
-3.892	-5.778	-3.092	-5.520	-4.279	-1.685	0.338	5.980	7.776	3.749	6.347	4.388	-1.561	-2.942	-4.928	-6.098	-5.480	-3.685	-4.384	-6.258	-4.716	-2.952	-2.186	2.491	8.093	11.258	6.358	5.723	250.000
-3.846	-5.893	-3.080	-5.612	-4.338	-1.696	0.465	6.292	8.048	3.823	6.395	4.373	-1.518	-2.895	-4.847	-6.073	-5.325	-3.504	-4.262	-6.131	-4.617	-2.859	-2.128	2.471	7.901	10.828	6.080	5.523	253.906
-3.951	-6.064	-3.193	-5.692	-4.290	-1.705	0.748	6.635	8.423	4.026	6.500	4.390	-1.369	-2.797	-4.823	-6.090	-5.230	-3.398	-4.170	-6.013	-4.503	-2.775	-2.085	2.522	7.755	10.491	5.877	5.393	257.812
-4.180	-6.258	-3.414	-5.733	-4.128	-1.711	1.165	6.957	8.828	4.322	6.619	4.406	-1.093	-2.624	-4.834	-6.126	-5.173	-3.351	-4.083	-5.890	-4.350	-2.674	-2.030	2.650	7.642	10.230	5.752	5.306	261.719
-4.488	-6.430	-3.709	-5.710	-3.859	-1.709	1.675	7.210	9.190	4.664	6.707	4.382	-0.690	-2.359	-4.849	-6.146	-5.126	-3.345	-3.977	-5.738	-4.136	-2.540	-1.942	2.849	7.541	10.012	5.688	5.226	265.625
-4.817	-6.532	-4.027	-5.598	-3.501	-1.692	2.224	7.359	9.445	4.995	6.719	4.282	-0.182	-2.005	-4.836	-6.113	-5.056	-3.356	-3.834	-5.538	-3.848	-2.364	-1.811	3.092	7.424	9.795	5.651	5.109	269.531
-5.106	-6.524	-4.318	-5.387	-3.080	-1.658	2.754	7.382	9.548	5.260	6.620	4.081	0.389	-1.576	-4.769	-5.993	-4.927	-3.357	-3.640	-5.273	-3.486	-2.152	-1.638	3.341	7.267	9.537	5.596	4.918	273.438
-5.306	-6.383	-4.539	-5.082	-2.637	-1.606	3.206	7.277	9.480	5.416	6.395	3.769	0.965	-1.106	-4.625	-5.767	-4.710	-3.323	-3.391	-4.939	-3.066	-1.915	-1.432	3.553	7.055	9.207	5.479	4.630	277.344
-5.388	-6.112	-4.664	-4.707	-2.217	-1.546	3.533	7.057	9.253	5.439	6.050	3.359	1.486	-0.637	-4.398	-5.432	-4.382	-3.230	-3.088	-4.546	-2.617	-1.671	-1.213	3.690	6.783	8.795	5.270	4.242	281.250
-5.356	-5.741	-4.693	-4.302	-1.865	-1.498	3.704	6.756	8.910	5.330	5.616	2.882	1.897	-0.215	-4.097	-5.010	-3.942	-3.062	-2.740	-4.113	-2.179	-1.440	-0.999	3.728	6.463	8.315	4.963	3.778	285.156
-5.242	-5.320	-4.645	-3.917	-1.624	-1.487	3.714	6.417	8.516	5.118	5.149	2.386	2.163	0.122	-3.747	-4.539	-3.410	-2.818	-2.368	-3.674	-1.793	-1.238	-0.810	3.664	6.120	7.803	4.576	3.282	289.062
-5.095	-4.910	-4.554	-3.598	-1.521	-1.538	3.583	6.088	8.149	4.855	4.715	1.929	2.272	0.347	-3.386	-4.070	-2.829	-2.509	-1.997	-3.263	-1.495	-1.079	-0.663	3.514	5.781	7.308	4.151	2.810	292.969
-4.974	-4.571	-4.464	-3.385	-1.564	-1.671	3.353	5.814	7.887	4.607	4.383	1.565	2.241	0.454	-3.056	-3.657	-2.259	-2.164	-1.657	-2.916	-1.307	-0.967	-0.566	3.311	5.476	6.881	3.744	2.419	296.875
-4.927	-4.346	-4.413	-3.298	-1.744	-1.894	3.078	5.631	7.789	4.437	4.208	1.335	2.108	0.455	-2.796	-3.341	-1.763	-1.822	-1.378	-2.656	-1.234	-0.901	-0.525	3.097	5.223	6.563	3.413	2.157	300.781
-4.985	-4.257	-4.428	-3.337	-2.030	-2.203	2.814	5.555	7.888	4.398	4.220	1.261	1.927	0.382	-2.632	-3.149	-1.394	-1.525	-1.177	-2.493	-1.262	-0.868	-0.535	2.916	5.033	6.378	3.206	2.049	304.688
-5.155	-4.297	-4.523	-3.482	-2.380	-2.577	2.607	5.584	8.178	4.514	4.416	1.341	1.758	0.275	-2.571	-3.078	-1.179	-1.310	-1.061	-2.422	-1.362	-0.855	-0.591	2.805	4.903	6.327	3.151	2.098	308.594
-5.424	-4.437	-4.692	-3.698	-2.748	-2.986	2.486	5.698	8.622	4.781	4.763	1.547	1.648	0.174	-2.603	-3.105	-1.115	-1.201	-1.018	-2.420	-1.495	-0.839	-0.683	2.784	4.820	6.394	3.249	2.280	312.500
-5.756	-4.628	-4.917	-3.940	-3.088	-3.392	2.460	5.864	9.157	5.164	5.201	1.834	1.633	0.116	-2.699	-3.187	-1.170	-1.202	-1.025	-2.456	-1.619	-0.802	-0.802	2.861	4.768	6.543	3.477	2.551	316.406
-6.110	-4.817	-5.166	-4.164	-3.367	-3.759	2.519	6.042	9.707	5.608	5.658	2.150	1.722	0.122	-2.821	-3.271	-1.289	-1.302	-1.049	-2.495	-1.699	-0.726	-0.934	3.025	4.724	6.730	3.792	2.857	320.312
-6.437	-4.952	-5.406	-4.333	-3.564	-4.055	2.639	6.196	10.196	6.048	6.066	2.440	1.907	0.202	-2.932	-3.312	-1.410	-1.473	-1.056	-2.506	-1.712	-0.603	-1.066	3.252	4.669	6.908	4.140	3.143	324.219
-6.698	-4.997	-5.605	-4.422	-3.672	-4.257	2.793	6.300	10.567	6.425	6.370	2.663	2.162	0.347	-2.997	-3.273	-1.478	-1.683	-1.018	-2.470	-1.651	-0.431	-1.183	3.511	4.588	7.033	4.469	3.365	328.125
-6.868	-4.934	-5.738	-4.423	-3.698	-4.353	2.957	6.343	10.786	6.698	6.543	2.798	2.453	0.540	-2.996	-3.143	-1.452	-1.896	-0.922	-2.381	-1.522	-0.219	-1.275	3.769	4.470	7.069	4.733	3.496	332.031
-6.937	-4.769	-5.792	-4.341	-3.651	-4.342	3.118	6.328	10.846	6.848	6.584	2.842	2.747	0.758	-2.923	-2.928	-1.318	-2.083	-0.770	-2.247	-1.345	0.017	-1.333	3.995	4.309	6.995	4.905	3.527	335.938
-6.914	-4.526	-5.768	-4.193	-3.548	-4.232	3.272	6.269	10.768	6.886	6.520	2.815	3.018	0.980	-2.789	-2.656	-1.087	-2.221	-0.576	-2.086	-1.145	0.255	-1.355	4.164	4.104	6.800	4.970	3.470	339.844
-6.820	-4.242	-5.676	-4.003	-3.400	-4.036	3.424	6.188	10.592	6.841	6.396	2.745	3.247	1.188	-2.613	-2.365	-0.792	-2.302	-0.367	-1.921	-0.944	0.472	-1.344	4.260	3.856	6.490	4.931	3.349	343.750
-6.681	-3.958	-5.531	-3.794	-3.215	-3.774	3.581	6.107	10.366	6.753	6.260	2.665	3.430	1.370	-2.422	-2.093	-0.481	-2.328	-0.173	-1.769	-0.762	0.646	-1.311	4.270	3.570	6.080	4.798	3.192	347.656
-6.520	-3.711	-5.352	-3.583	-2.996	-3.466	3.751	6.041	10.133	6.663	6.155	2.601	3.568	1.527	-2.243	-1.872	-0.203	-2.310	-0.020	-1.642	-0.603	0.766	-1.265	4.195	3.252	5.595	4.586	3.024	351.562
-6.356	-3.524	-5.157	-3.383	-2.744	-3.135	3.931	5.995	9.927	6.599	6.102	2.564	3.668	1.661	-2.096	-1.720	0.001	-2.262	0.077	-1.537	-0.464	0.830	-1.218	4.038	2.913	5.067	4.312	2.861	355.469
-6.198	-3.405	-4.960	-3.194	-2.462	-2.800	4.107	5.965	9.759	6.568	6.097	2.544	3.737	1.782	-1.990	-1.638	0.109	-2.199	0.119	-1.442	-0.332	0.849	-1.174	3.814	2.567	4.531	3.991	2.706	359.375
-6.048	-3.342	-4.768	-3.014	-2.159	-2.481	4.256	5.936	9.624	6.559	6.110	2.519	3.779	1.897	-1.925	-1.610	0.120	-2.126	0.119	-1.339	-0.190	0.843	-1.134	3.538	2.230	4.021	3.637	2.546	363.281
-5.906	-3.313	-4.587	-2.839	-1.848	-2.199	4.350	5.891	9.499	6.542	6.096	2.452	3.795	2.013	-1.890	-1.612	0.057	-2.042	0.103	-1.207	-0.024	0.836	-1.092	3.231	1.918	3.565	3.261	2.362	367.188
-5.766	-3.288	-4.416	-2.664	-1.549	-1.968	4.364	5.817	9.358	6.480	6.000	2.307	3.784	2.128	-1.868	-1.612	-0.047	-1.935	0.104	-1.035	0.172	0.853	-1.038	2.915	1.648	3.182	2.873	2.129	371.094
-5.626	-3.245	-4.254	-2.495	-1.285	-1.802	4.285	5.707	9.177	6.347	5.785	2.061	3.743	2.237	-1.842	-1.588	-0.152	-1.794	0.147	-0.823	0.394	0.911	-0.963	2.612	1.431	2.880	2.487	1.832	375.000
-5.483	-3.170	-4.103	-2.341	-1.078	-1.708	4.118	5.565	8.943	6.133	5.440	1.715	3.677	2.328	-1.800	-1.529	-0.230	-1.610	0.245	-0.590	0.621	1.013	-0.867	2.340	1.275	2.659	2.117	1.469	378.906
-5.339	-3.068	-3.966	-2.219	-0.948	-1.682	3.888	5.408	8.669	5.859	4.995	1.305	3.592	2.389	-1.737	-1.441	-0.267	-1.385	0.390	-0.368	0.825	1.146	-0.757	2.113	1.177	2.511	1.785	1.066	382.812
-5.202	-2.962	-3.849	-2.152	-0.902	-1.716	3.637	5.262	8.382	5.571	4.521	0.901	3.502	2.407	-1.662	-1.351	-0.272	-1.135	0.552	-0.201	0.969	1.283	-0.657	1.940	1.130	2.426	1.517	0.673	386.719
-5.090	-2.883	-3.763	-2.159	-0.939	-1.791	3.416	5.156	8.126	5.335	4.116	0.593	3.427	2.376	-1.596	-1.298	-0.272	-0.894	0.685	-0.134	1.023	1.385	-0.596	1.826	1.123	2.400	1.347	0.362	390.625
-5.027	-2.867	-3.718	-2.254	-1.048	-1.887	3.271	5.116	7.945	5.217	3.884	0.478	3.388	2.298	-1.564	-1.321	-0.307	-0.705	0.740	-0.201	0.967	1.412	-0.603	1.776	1.144	2.432	1.307	0.210	394.531
-5.039	-2.941	-3.724	-2.437	-1.207	-1.980	3.234	5.156	7.871	5.264	3.908	0.630	3.404	2.187	-1.598	-1.453	-0.417	-0.615	0.670	-0.415	0.801	1.335	-0.701	1.790	1.182	2.529	1.425	0.285	398.438
-5.147	-3.112	-3.780	-2.695	-1.386	-2.052	3.317	5.271	7.913	5.491	4.219	1.078	3.488	2.068	-1.717	-1.705	-0.634	-0.660	0.454	-0.763	0.549	1.145	-0.899	1.869	1.229	2.695	1.710	0.619	402.344
-5.356	-3.365	-3.877	-2.994	-1.552	-2.086	3.505	5.442	8.049	5.869	4.791	1.795	3.645	1.973	-1.928	-2.062	-0.965	-0.858	0.096	-1.198	0.257	0.852	-1.187	2.009	1.280	2.928	2.146	1.195	406.250
-5.650	-3.661	-3.997	-3.291	-1.671	-2.070	3.765	5.632	8.228	6.330	5.534	2.689	3.870	1.935	-2.217	-2.480	-1.391	-1.200	-0.366	-1.647	-0.014	0.488	-1.541	2.197	1.326	3.207	2.684	1.945	410.156
-5.989	-3.944	-4.112	-3.531	-1.713	-2.000	4.052	5.798	8.382	6.781	6.310	3.625	4.148	1.983	-2.549	-2.890	-1.869	-1.646	-0.871	-2.026	-0.201	0.099	-1.928	2.409	1.356	3.492	3.245	2.752	414.062
-6.312	-4.156	-4.192	-3.664	-1.654	-1.871	4.321	5.903	8.439	7.124	6.969	4.451	4.455	2.131	-2.872	-3.218	-2.338	-2.138	-1.345	-2.251	-0.249	-0.266	-2.313	2.610	1.348	3.724	3.728	3.477	417.969
-6.554	-4.243	-4.207	-3.652	-1.485	-1.685	4.537	5.917	8.341	7.276	7.377	5.028	4.767	2.380	-3.132	-3.395	-2.733	-2.606	-1.718	-2.261	-0.125	-0.565	-2.662	2.756	1.277	3.834	4.032	3.986	421.875
-6.654	-4.175	-4.138	-3.476	-1.206	-1.447	4.681	5.830	8.057	7.191	7.447	5.265	5.059	2.710	-3.281	-3.372	-2.997	-2.985	-1.936	-2.026	0.172	-0.770	-2.953	2.804	1.115	3.759	4.078	4.181	425.781
-6.575	-3.943	-3.976	-3.142	-0.834	-1.168	4.750	5.649	7.589	6.867	7.160	5.137	5.310	3.091	-3.287	-3.135	-3.091	-3.225	-1.973	-1.557	0.619	-0.869	-3.172	2.718	0.840	3.453	3.822	4.022	429.688
-6.308	-3.569	-3.729	-2.681	-0.396	-0.865	4.755	5.399	6.969	6.344	6.565	4.685	5.509	3.485	-3.139	-2.698	-3.001	-3.301	-1.834	-0.898	1.167	-0.869	-3.319	2.480	0.437	2.899	3.266	3.533	433.594
-5.875	-3.089	-3.414	-2.135	0.072	-0.557	4.714	5.112	6.255	5.694	5.765	4.005	5.647	3.851	-2.853	-2.107	-2.740	-3.217	-1.547	-0.120	1.757	-0.790	-3.401	2.089	-0.093	2.115	2.459	2.793	437.500
-5.324	-2.553	-3.057	-1.557	0.537	-0.265	4.644	4.824	5.517	5.003	4.889	3.219	5.726	4.158	-2.458	-1.421	-2.338	-2.995	-1.160	0.700	2.331	-0.658	-3.432	1.565	-0.736	1.149	1.481	1.911	441.406
-4.712	-2.007	-2.687	-0.993	0.966	-0.007	4.558	4.562	4.822	4.353	4.064	2.444	5.746	4.387	-1.997	-0.702	-1.841	-2.676	-0.722	1.489	2.844	-0.501	-3.430	0.939	-1.465	0.068	0.425	1.005	445.312
-4.102	-1.489	-2.329	-0.478	1.340	0.205	4.459	4.345	4.226	3.806	3.389	1.770	5.710	4.533	-1.514	-0.003	-1.296	-2.305	-0.279	2.195	3.271	-0.342	-3.407	0.258	-2.247	-1.053	-0.620	0.167	449.219
-3.548	-1.021	-2.003	-0.030	1.649	0.370	4.346	4.179	3.770	3.397	2.917	1.240	5.620	4.605	-1.047	0.642	-0.745	-1.922	0.139	2.792	3.607	-0.194	-3.372	-0.435	-3.046	-2.148	-1.586	-0.547	453.125
-3.092	-0.615	-1.722	0.346	1.896	0.492	4.215	4.059	3.469	3.133	2.655	0.854	5.480	4.621	-0.625	1.214	-0.224	-1.558	0.517	3.278	3.867	-0.059	-3.327	-1.095	-3.826	-3.163	-2.430	-1.123	457.031
-2.756	-0.270	-1.494	0.660	2.088	0.585	4.066	3.973	3.319	3.001	2.569	0.577	5.291	4.605	-0.266	1.711	0.246	-1.233	0.853	3.667	4.076	0.067	-3.267	-1.685	-4.557	-4.063	-3.136	-1.580	460.938
-2.550	0.021	-1.321	0.926	2.240	0.666	3.903	3.906	3.302	2.971	2.602	0.358	5.062	4.579	0.021	2.138	0.651	-0.959	1.156	3.984	4.257	0.195	-3.182	-2.180	-5.216	-4.835	-3.709	-1.956	464.844
-2.469	0.263	-1.199	1.160	2.365	0.750	3.736	3.843	3.385	3.013	2.690	0.151	4.802	4.560	0.236	2.503	0.984	-0.736	1.435	4.252	4.432	0.335	-3.064	-2.563	-5.786	-5.479	-4.165	-2.288	468.750
-2.497	0.464	-1.120	1.373	2.472	0.847	3.579	3.773	3.531	3.097	2.778	-0.074	4.527	4.557	0.383	2.809	1.245	-0.564	1.696	4.489	4.609	0.494	-2.909	-2.828	-6.261	-6.005	-4.523	-2.602	472.656
-2.613	0.627	-1.075	1.570	2.563	0.961	3.447	3.689	3.702	3.199	2.828	-0.325	4.258	4.570	0.469	3.057	1.433	-0.437	1.938	4.699	4.783	0.674	-2.719	-2.980	-6.637	-6.425	-4.796	-2.906	476.562
-2.793	0.752	-1.056	1.748	2.636	1.082	3.353	3.589	3.864	3.304	2.825	-0.586	4.014	4.593	0.500	3.243	1.546	-0.350	2.153	4.877	4.939	0.869	-2.506	-3.027	-6.917	-6.750	-4.990	-3.188	480.469
-3.010	0.838	-1.055	1.896	2.682	1.197	3.303	3.471	3.989	3.402	2.775	-0.825	3.815	4.618	0.484	3.360	1.582	-0.298	2.330	5.012	5.056	1.069	-2.285	-2.982	-7.105	-6.987	-5.105	-3.422	484.375
-3.240	0.879	-1.070	2.002	2.688	1.287	3.292	3.338	4.059	3.488	2.697	-1.007	3.676	4.635	0.429	3.404	1.540	-0.277	2.456	5.087	5.113	1.262	-2.074	-2.858	-7.205	-7.136	-5.134	-3.579	488.281
-3.460	0.873	-1.099	2.050	2.642	1.332	3.309	3.190	4.062	3.553	2.614	-1.103	3.601	4.634	0.342	3.373	1.425	-0.283	2.524	5.092	5.096	1.438	-1.884	-2.673	-7.224	-7.198	-5.072	-3.633	492.188
-3.651	0.820	-1.139	2.028	2.538	1.320	3.332	3.029	3.993	3.585	2.546	-1.097	3.582	4.610	0.234	3.275	1.248	-0.309	2.534	5.021	5.001	1.588	-1.724	-2.440	-7.166	-7.175	-4.921	-3.572	496.094
-3.795	0.726	-1.185	1.933	2.373	1.247	3.336	2.854	3.853	3.570	2.503	-0.996	3.603	4.561	0.116	3.128	1.032	-0.347	2.495	4.878	4.838	1.710	-1.589	-2.180	-7.041	-7.077	-4.694	-3.405	500.000
-3.880	0.605	-1.229	1.772	2.157	1.123	3.294	2.663	3.647	3.486	2.478	-0.829	3.637	4.490	0.004	2.955	0.812	-0.384	2.427	4.679	4.627	1.805	-1.473	-1.913	-6.860	-6.920	-4.421	-3.159	503.906
-3.899	0.479	-1.254	1.563	1.910	0.968	3.185	2.459	3.378	3.313	2.447	-0.643	3.655	4.400	-0.086	2.786	0.626	-0.403	2.354	4.451	4.400	1.878	-1.359	-1.661	-6.637	-6.732	-4.142	-2.880	507.812
-3.849	0.373	-1.242	1.337	1.660	0.814	2.995	2.241	3.053	3.032	2.379	-0.493	3.629	4.300	-0.140	2.652	0.512	-0.388	2.303	4.224	4.187	1.934	-1.234	-1.450	-6.388	-6.542	-3.905	-2.623	511.719
-3.730	0.313	-1.173	1.128	1.440	0.694	2.724	2.015	2.675	2.631	2.236	-0.431	3.535	4.196	-0.146	2.579	0.499	-0.322	2.296	4.030	4.019	1.981	-1.088	-1.300	-6.132	-6.379	-3.753	-2.443	515.625
-3.545	0.317	-1.031	0.968	1.278	0.637	2.386	1.788	2.254	2.112	1.991	-0.495	3.363	4.092	-0.098	2.579	0.603	-0.199	2.344	3.892	3.913	2.020	-0.918	-1.228	-5.883	-6.263	-3.718	-2.377	519.531
-3.301	0.390	-0.810	0.880	1.193	0.663	2.007	1.574	1.805	1.495	1.634	-0.695	3.113	3.989	-0.001	2.651	0.817	-0.019	2.446	3.820	3.873	2.050	-0.735	-1.241	-5.654	-6.196	-3.804	-2.441	523.438
-3.011	0.520	-0.518	0.871	1.189	0.773	1.624	1.386	1.352	0.820	1.181	-1.010	2.796	3.887	0.136	2.775	1.111	0.199	2.586	3.808	3.890	2.062	-0.557	-1.331	-5.449	-6.164	-3.989	-2.614	527.344
-2.694	0.678	-0.181	0.929	1.256	0.953	1.278	1.240	0.930	0.144	0.677	-1.391	2.436	3.782	0.289	2.919	1.442	0.427	2.737	3.834	3.941	2.043	-0.414	-1.479	-5.269	-6.134	-4.223	-2.852	531.250
-2.380	0.826	0.162	1.027	1.368	1.170	1.007	1.149	0.574	-0.463	0.184	-1.769	2.065	3.671	0.433	3.041	1.753	0.631	2.864	3.866	3.996	1.983	-0.333	-1.655	-5.106	-6.065	-4.439	-3.086	535.156
-2.102	0.919	0.464	1.126	1.491	1.381	0.846	1.117	0.321	-0.928	-0.223	-2.069	1.719	3.554	0.543	3.099	1.992	0.777	2.934	3.867	4.025	1.875	-0.337	-1.823	-4.952	-5.917	-4.563	-3.248	539.062
-1.894	0.918	0.674	1.188	1.594	1.542	0.816	1.140	0.200	-1.188	-0.478	-2.231	1.434	3.433	0.599	3.062	2.117	0.843	2.926	3.807	4.004	1.719	-0.434	-1.948	-4.800	-5.664	-4.534	-3.277	542.969
-1.781	0.803	0.754	1.181	1.650	1.616	0.925	1.206	0.222	-1.200	-0.533	-2.215	1.243	3.316	0.593	2.916	2.108	0.820	2.832	3.667	3.920	1.527	-0.615	-2.002	-4.648	-5.303	-4.315	-3.140	546.875
-1.772	0.570	0.681	1.090	1.650	1.584	1.166	1.297	0.386	-0.948	-0.370	-2.018	1.169	3.213	0.531	2.662	1.970	0.720	2.658	3.443	3.775	1.319	-0.855	-1.968	-4.497	-4.857	-3.906	-2.837	550.781
-1.858	0.239	0.458	0.917	1.596	1.450	1.519	1.395	0.672	-0.450	-0.006	-1.662	1.225	3.136	0.428	2.323	1.723	0.564	2.425	3.148	3.583	1.120	-1.117	-1.844	-4.358	-4.373	-3.339	-2.401	554.688
-2.012	-0.153	0.111	0.681	1.509	1.238	1.950	1.482	1.043	0.246	0.515	-1.199	1.410	3.099	0.306	1.930	1.402	0.380	2.161	2.805	3.366	0.955	-1.359	-1.639	-4.241	-3.913	-2.672	-1.889	558.594
-2.195	-0.561	-0.315	0.412	1.412	0.989	2.417	1.548	1.455	1.064	1.122	-0.692	1.710	3.113	0.187	1.520	1.044	0.198	1.897	2.444	3.156	0.848	-1.541	-1.371	-4.153	-3.537	-1.982	-1.368	562.500
-2.361	-0.937	-0.763	0.148	1.331	0.749	2.874	1.590	1.855	1.908	1.734	-0.208	2.103	3.187	0.090	1.130	0.685	0.038	1.660	2.099	2.981	0.814	-1.635	-1.063	-4.095	-3.293	-1.341	-0.906	566.406
-2.467	-1.243	-1.176	-0.080	1.285	0.562	3.271	1.608	2.191	2.677	2.266	0.198	2.554	3.323	0.029	0.794	0.354	-0.082	1.472	1.798	2.868	0.861	-1.625	-0.734	-4.057	-3.204	-0.811	-0.554	570.312
-2.475	-1.453	-1.500	-0.248	1.280	0.455	3.566	1.606	2.418	3.277	2.647	0.483	3.027	3.518	0.011	0.534	0.077	-0.151	1.350	1.565	2.834	0.984	-1.514	-0.407	-4.026	-3.266	-0.434	-0.343	574.219
-2.357	-1.559	-1.700	-0.344	1.314	0.439	3.727	1.589	2.506	3.638	2.827	0.627	3.480	3.759	0.043	0.364	-0.125	-0.165	1.302	1.416	2.885	1.170	-1.316	-0.100	-3.986	-3.450	-0.226	-0.283	578.125
-2.099	-1.568	-1.755	-0.369	1.371	0.508	3.742	1.562	2.445	3.722	2.786	0.628	3.877	4.027	0.126	0.288	-0.237	-0.119	1.329	1.355	3.013	1.400	-1.058	0.171	-3.925	-3.715	-0.186	-0.363	582.031
-1.703	-1.499	-1.669	-0.336	1.433	0.639	3.616	1.532	2.248	3.534	2.537	0.501	4.184	4.295	0.262	0.304	-0.249	-0.014	1.427	1.380	3.201	1.649	-0.768	0.386	-3.843	-4.012	-0.294	-0.560	585.938
-1.188	-1.381	-1.460	-0.264	1.484	0.799	3.377	1.504	1.952	3.119	2.123	0.275	4.378	4.538	0.447	0.400	-0.159	0.145	1.585	1.482	3.425	1.895	-0.478	0.531	-3.750	-4.301	-0.523	-0.840	589.844
-0.585	-1.242	-1.161	-0.175	1.509	0.955	3.068	1.484	1.611	2.553	1.609	-0.013	4.448	4.731	0.673	0.563	0.023	0.346	1.786	1.644	3.657	2.118	-0.213	0.590	-3.666	-4.553	-0.839	-1.168	593.750
0.062	-1.107	-0.814	-0.089	1.501	1.077	2.733	1.473	1.280	1.926	1.068	-0.326	4.394	4.857	0.931	0.776	0.280	0.577	2.013	1.851	3.874	2.304	0.006	0.555	-3.617	-4.754	-1.206	-1.509	597.656
0.703	-0.992	-0.459	-0.019	1.461	1.143	2.415	1.469	1.008	1.325	0.571	-0.630	4.230	4.908	1.204	1.025	0.588	0.820	2.248	2.085	4.057	2.448	0.172	0.426	-3.627	-4.904	-1.589	-1.832	601.562
1.290	-0.902	-0.136	0.029	1.393	1.139	2.140	1.462	0.823	0.818	0.168	-0.899	3.977	4.884	1.480	1.296	0.923	1.062	2.476	2.333	4.197	2.554	0.287	0.212	-3.710	-5.014	-1.959	-2.115	605.469
1.784	-0.831	0.125	0.059	1.307	1.063	1.915	1.437	0.728	0.440	-0.114	-1.117	3.662	4.795	1.745	1.581	1.265	1.295	2.691	2.582	4.293	2.632	0.365	-0.070	-3.866	-5.100	-2.293	-2.340	609.375
2.159	-0.765	0.303	0.082	1.214	0.923	1.729	1.377	0.701	0.188	-0.276	-1.283	3.316	4.657	1.992	1.872	1.599	1.517	2.891	2.825	4.347	2.697	0.426	-0.399	-4.081	-5.179	-2.579	-2.503	613.281
2.410	-0.684	0.392	0.113	1.129	0.737	1.561	1.266	0.705	0.034	-0.346	-1.404	2.966	4.487	2.217	2.167	1.917	1.735	3.082	3.059	4.372	2.763	0.496	-0.751	-4.329	-5.268	-2.820	-2.609	617.188
2.555	-0.569	0.399	0.169	1.065	0.529	1.387	1.092	0.695	-0.070	-0.364	-1.496	2.634	4.306	2.421	2.462	2.216	1.957	3.270	3.281	4.377	2.841	0.592	-1.104	-4.577	-5.379	-3.034	-2.676	621.094
2.629	-0.406	0.345	0.263	1.039	0.329	1.189	0.858	0.631	-0.174	-0.376	-1.581	2.339	4.132	2.609	2.758	2.489	2.187	3.455	3.494	4.376	2.931	0.724	-1.440	-4.794	-5.518	-3.243	-2.726	625.000
2.676	-0.186	0.260	0.403	1.065	0.168	0.967	0.576	0.491	-0.313	-0.419	-1.676	2.094	3.982	2.785	3.050	2.731	2.424	3.636	3.698	4.381	3.028	0.888	-1.748	-4.958	-5.688	-3.474	-2.786	628.906
2.740	0.090	0.179	0.590	1.150	0.076	0.740	0.272	0.276	-0.499	-0.514	-1.793	1.911	3.870	2.950	3.334	2.935	2.650	3.799	3.892	4.399	3.120	1.070	-2.014	-5.055	-5.883	-3.743	-2.877	632.812
2.850	0.410	0.131	0.814	1.298	0.072	0.541	-0.018	0.008	-0.715	-0.657	-1.935	1.799	3.807	3.102	3.601	3.094	2.842	3.931	4.073	4.435	3.195	1.247	-2.225	-5.085	-6.092	-4.050	-3.008	636.719
3.021	0.751	0.140	1.056	1.501	0.166	0.412	-0.257	-0.271	-0.923	-0.825	-2.092	1.766	3.800	3.236	3.838	3.201	2.969	4.016	4.234	4.485	3.244	1.399	-2.368	-5.057	-6.295	-4.373	-3.176	640.625
3.237	1.082	0.210	1.292	1.742	0.352	0.393	-0.410	-0.510	-1.075	-0.985	-2.247	1.820	3.849	3.342	4.028	3.251	3.006	4.042	4.361	4.543	3.266	1.508	-2.423	-4.986	-6.470	-4.671	-3.362	644.531
3.466	1.367	0.331	1.495	1.997	0.609	0.511	-0.457	-0.664	-1.121	-1.098	-2.379	1.963	3.952	3.408	4.148	3.241	2.937	4.005	4.437	4.599	3.266	1.567	-2.372	-4.888	-6.590	-4.889	-3.534	648.438
3.656	1.565	0.476	1.637	2.234	0.903	0.776	-0.391	-0.701	-1.027	-1.132	-2.467	2.194	4.102	3.421	4.179	3.168	2.765	3.914	4.447	4.640	3.259	1.581	-2.199	-4.778	-6.633	-4.967	-3.660	652.344
3.750	1.644	0.606	1.697	2.427	1.194	1.172	-0.224	-0.609	-0.782	-1.070	-2.494	2.506	4.285	3.374	4.105	3.035	2.512	3.782	4.377	4.656	3.261	1.562	-1.897	-4.669	-6.584	-4.860	-3.707	656.250
3.696	1.577	0.679	1.661	2.550	1.439	1.664	0.017	-0.398	-0.400	-0.915	-2.451	2.882	4.488	3.261	3.919	2.844	2.214	3.630	4.220	4.638	3.286	1.529	-1.473	-4.564	-6.437	-4.546	-3.657	660.156
3.464	1.355	0.660	1.525	2.590	1.602	2.201	0.293	-0.096	0.081	-0.684	-2.341	3.300	4.694	3.084	3.624	2.603	1.915	3.478	3.980	4.583	3.344	1.503	-0.948	-4.465	-6.201	-4.033	-3.505	664.062
3.047	0.987	0.528	1.298	2.542	1.659	2.727	0.564	0.252	0.606	-0.410	-2.175	3.731	4.887	2.852	3.239	2.323	1.663	3.347	3.671	4.494	3.438	1.506	-0.360	-4.364	-5.897	-3.367	-3.267	667.969
2.470	0.501	0.281	0.996	2.415	1.599	3.185	0.790	0.601	1.114	-0.130	-1.976	4.140	5.051	2.586	2.794	2.025	1.503	3.249	3.316	4.376	3.565	1.558	0.247	-4.254	-5.556	-2.620	-2.974	671.875
1.782	-0.056	-0.064	0.646	2.222	1.427	3.527	0.939	0.905	1.544	0.117	-1.772	4.494	5.174	2.311	2.331	1.742	1.467	3.197	2.946	4.241	3.716	1.673	0.820	-4.126	-5.217	-1.883	-2.666	675.781
1.055	-0.625	-0.469	0.279	1.986	1.163	3.720	0.991	1.127	1.847	0.300	-1.593	4.764	5.246	2.061	1.897	1.517	1.575	3.200	2.595	4.102	3.885	1.857	1.312	-3.981	-4.920	-1.248	-2.391	679.688
0.365	-1.144	-0.886	-0.071	1.730	0.835	3.750	0.940	1.240	1.990	0.396	-1.468	4.925	5.265	1.873	1.544	1.400	1.826	3.267	2.298	3.975	4.064	2.112	1.682	-3.824	-4.701	-0.795	-2.188	683.594
-0.219	-1.553	-1.264	-0.374	1.476	0.480	3.617	0.788	1.231	1.959	0.394	-1.419	4.966	5.233	1.777	1.314	1.436	2.204	3.404	2.084	3.874	4.249	2.430	1.907	-3.670	-4.590	-0.576	-2.088	687.500
-0.646	-1.811	-1.558	-0.606	1.242	0.133	3.341	0.550	1.098	1.762	0.292	-1.460	4.887	5.159	1.789	1.235	1.652	2.675	3.614	1.972	3.809	4.438	2.797	1.981	-3.538	-4.600	-0.606	-2.101	691.406
-0.899	-1.900	-1.740	-0.757	1.038	-0.174	2.956	0.245	0.852	1.422	0.099	-1.588	4.703	5.058	1.908	1.310	2.049	3.189	3.894	1.967	3.786	4.631	3.193	1.916	-3.444	-4.729	-0.865	-2.221	695.312
-0.990	-1.833	-1.801	-0.828	0.873	-0.418	2.507	-0.099	0.519	0.982	-0.166	-1.790	4.441	4.947	2.111	1.518	2.588	3.693	4.228	2.056	3.802	4.824	3.591	1.743	-3.396	-4.953	-1.298	-2.423	699.219
-0.961	-1.648	-1.755	-0.833	0.748	-0.585	2.048	-0.450	0.137	0.495	-0.476	-2.038	4.137	4.842	2.356	1.815	3.199	4.131	4.586	2.215	3.852	5.011	3.963	1.503	-3.392	-5.234	-1.825	-2.670	703.125
-0.871	-1.399	-1.632	-0.792	0.667	-0.667	1.631	-0.772	-0.248	0.018	-0.795	-2.299	3.835	4.761	2.592	2.137	3.793	4.457	4.931	2.405	3.923	5.178	4.277	1.243	-3.424	-5.522	-2.357	-2.915	707.031
-0.784	-1.149	-1.470	-0.729	0.631	-0.668	1.303	-1.030	-0.586	-0.395	-1.086	-2.533	3.574	4.715	2.767	2.420	4.277	4.641	5.221	2.587	4.001	5.313	4.510	1.009	-3.472	-5.767	-2.809	-3.118	710.938
-0.755	-0.952	-1.310	-0.665	0.643	-0.596	1.097	-1.195	-0.836	-0.702	-1.314	-2.705	3.388	4.712	2.841	2.605	4.576	4.671	5.419	2.723	4.074	5.401	4.642	0.839	-3.519	-5.924	-3.114	-3.242	714.844
-0.822	-0.844	-1.182	-0.613	0.706	-0.463	1.026	-1.250	-0.966	-0.881	-1.452	-2.786	3.297	4.752	2.791	2.653	4.648	4.555	5.498	2.784	4.131	5.433	4.667	0.757	-3.551	-5.966	-3.231	-3.266	718.750
-1.001	-0.840	-1.102	-0.581	0.819	-0.285	1.085	-1.190	-0.968	-0.930	-1.486	-2.762	3.308	4.831	2.617	2.548	4.488	4.321	5.452	2.757	4.168	5.407	4.593	0.775	-3.557	-5.884	-3.152	-3.185	722.656
-1.287	-0.932	-1.073	-0.568	0.974	-0.083	1.246	-1.031	-0.854	-0.866	-1.417	-2.632	3.410	4.938	2.337	2.302	4.127	4.012	5.290	2.642	4.182	5.330	4.439	0.889	-3.537	-5.693	-2.897	-3.008	726.562
-1.656	-1.094	-1.083	-0.573	1.158	0.124	1.475	-0.798	-0.651	-0.718	-1.259	-2.411	3.582	5.059	1.986	1.947	3.621	3.676	5.040	2.448	4.172	5.217	4.237	1.086	-3.490	-5.421	-2.511	-2.757	730.469
-2.075	-1.298	-1.112	-0.593	1.349	0.313	1.731	-0.530	-0.400	-0.521	-1.036	-2.123	3.797	5.179	1.602	1.524	3.043	3.359	4.739	2.195	4.141	5.090	4.025	1.344	-3.422	-5.108	-2.050	-2.463	734.375
-2.509	-1.516	-1.143	-0.631	1.522	0.464	1.981	-0.266	-0.141	-0.300	-0.776	-1.797	4.031	5.283	1.224	1.080	2.463	3.095	4.426	1.904	4.089	4.973	3.838	1.641	-3.339	-4.793	-1.570	-2.155	738.281
-2.928	-1.730	-1.166	-0.691	1.650	0.560	2.204	-0.040	0.092	-0.073	-0.502	-1.459	4.265	5.365	0.881	0.652	1.937	2.896	4.138	1.597	4.018	4.891	3.708	1.957	-3.245	-4.510	-1.115	-1.859	742.188
-3.311	-1.937	-1.184	-0.784	1.710	0.587	2.393	0.124	0.280	0.157	-0.228	-1.128	4.492	5.422	0.591	0.264	1.500	2.758	3.898	1.290	3.931	4.862	3.653	2.280	-3.147	-4.276	-0.710	-1.589	746.094
-3.647	-2.143	-1.210	-0.918	1.687	0.536	2.552	0.216	0.421	0.395	0.039	-0.810	4.714	5.459	0.357	-0.072	1.162	2.659	3.718	0.998	3.831	4.895	3.676	2.602	-3.049	-4.092	-0.359	-1.347	750.000
-3.934	-2.358	-1.262	-1.099	1.575	0.407	2.694	0.240	0.524	0.651	0.306	-0.503	4.936	5.481	0.174	-0.361	0.910	2.571	3.594	0.727	3.723	4.984	3.762	2.924	-2.954	-3.947	-0.050	-1.122	753.906
-4.175	-2.590	-1.358	-1.325	1.380	0.206	2.827	0.211	0.606	0.929	0.579	-0.199	5.162	5.497	0.029	-0.609	0.721	2.469	3.511	0.484	3.611	5.111	3.884	3.241	-2.864	-3.821	0.242	-0.898	757.812
-4.376	-2.839	-1.504	-1.584	1.120	-0.050	2.958	0.150	0.683	1.225	0.863	0.110	5.390	5.509	-0.090	-0.829	0.568	2.338	3.451	0.271	3.498	5.249	4.006	3.550	-2.779	-3.691	0.538	-0.658	761.719
-4.541	-3.095	-1.695	-1.858	0.820	-0.341	3.080	0.079	0.766	1.523	1.157	0.424	5.604	5.513	-0.194	-1.024	0.428	2.174	3.394	0.088	3.386	5.367	4.096	3.837	-2.700	-3.545	0.848	-0.390	765.625
-4.673	-3.339	-1.915	-2.123	0.512	-0.638	3.178	0.017	0.860	1.798	1.451	0.739	5.780	5.498	-0.288	-1.195	0.291	1.990	3.324	-0.068	3.273	5.433	4.130	4.082	-2.625	-3.379	1.172	-0.095	769.531
-4.767	-3.545	-2.134	-2.354	0.226	-0.912	3.233	-0.020	0.960	2.025	1.726	1.037	5.887	5.450	-0.372	-1.333	0.158	1.808	3.235	-0.199	3.155	5.424	4.095	4.261	-2.556	-3.202	1.491	0.216	773.438
-4.817	-3.689	-2.322	-2.529	-0.011	-1.139	3.227	-0.025	1.059	2.179	1.963	1.300	5.896	5.354	-0.438	-1.426	0.042	1.655	3.124	-0.312	3.026	5.327	3.990	4.350	-2.494	-3.032	1.779	0.523	777.344
-4.813	-3.755	-2.452	-2.633	-0.182	-1.302	3.146	0.001	1.147	2.245	2.141	1.508	5.788	5.198	-0.477	-1.467	-0.042	1.554	2.995	-0.411	2.883	5.140	3.827	4.332	-2.443	-2.888	2.010	0.801	781.250
-4.749	-3.737	-2.508	-2.665	-0.280	-1.392	2.988	0.056	1.217	2.223	2.252	1.651	5.555	4.977	-0.483	-1.449	-0.079	1.523	2.855	-0.503	2.721	4.873	3.622	4.203	-2.405	-2.789	2.166	1.033	785.156
-4.625	-3.645	-2.490	-2.634	-0.312	-1.418	2.759	0.131	1.266	2.122	2.297	1.727	5.212	4.696	-0.452	-1.377	-0.065	1.564	2.711	-0.595	2.540	4.541	3.395	3.973	-2.381	-2.739	2.242	1.212	789.062
-4.453	-3.497	-2.412	-2.558	-0.297	-1.397	2.477	0.218	1.296	1.965	2.291	1.752	4.785	4.369	-0.391	-1.265	-0.004	1.665	2.568	-0.691	2.343	4.168	3.161	3.669	-2.367	-2.733	2.253	1.345	792.969
-4.256	-3.322	-2.301	-2.462	-0.259	-1.353	2.167	0.309	1.314	1.781	2.259	1.749	4.315	4.015	-0.311	-1.131	0.084	1.801	2.427	-0.792	2.134	3.779	2.931	3.328	-2.358	-2.755	2.228	1.451	796.875
