FP1	F3	F7	FC3	C3	C5	P3	P7	PO7	PO3	O1	Oz	Pz	CPz	FP2	Fz	F4	F8	FC4	FCz	Cz	C4	C6	P4	P8	PO8	PO4	O2	time
1.504	1.190	0.511	0.878	0.865	-0.103	0.408	0.056	-0.476	-0.441	-0.562	-0.340	0.169	0.808	0.650	1.056	0.182	0.026	0.502	0.838	1.115	-0.209	0.416	-0.278	0.083	-0.336	-0.552	-0.359	-199.219
1.206	0.778	0.279	0.583	0.623	-0.124	0.345	0.038	-0.233	-0.176	-0.333	-0.182	0.221	0.635	0.511	0.760	0.191	-0.096	0.435	0.532	0.838	-0.189	0.490	-0.035	0.150	-0.254	-0.338	-0.244	-195.312
0.939	0.412	0.082	0.317	0.384	-0.155	0.253	-0.006	-0.061	0.020	-0.154	-0.046	0.266	0.485	0.403	0.518	0.221	-0.171	0.409	0.282	0.602	-0.141	0.565	0.179	0.181	-0.209	-0.158	-0.148	-191.406
0.730	0.135	-0.048	0.109	0.159	-0.198	0.115	-0.093	-0.009	0.098	-0.060	0.056	0.306	0.380	0.345	0.366	0.285	-0.173	0.447	0.127	0.436	-0.046	0.638	0.343	0.148	-0.224	-0.036	-0.084	-187.500
0.597	-0.026	-0.101	-0.025	-0.048	-0.255	-0.074	-0.233	-0.103	0.035	-0.069	0.115	0.345	0.335	0.350	0.327	0.388	-0.094	0.560	0.087	0.361	0.103	0.704	0.450	0.045	-0.305	0.021	-0.056	-183.594
0.542	-0.066	-0.081	-0.085	-0.236	-0.330	-0.311	-0.424	-0.338	-0.167	-0.178	0.133	0.388	0.357	0.416	0.399	0.524	0.053	0.738	0.161	0.382	0.302	0.757	0.504	-0.116	-0.435	0.023	-0.059	-179.688
0.555	0.003	-0.013	-0.084	-0.403	-0.422	-0.575	-0.652	-0.680	-0.472	-0.361	0.118	0.442	0.444	0.525	0.559	0.677	0.237	0.956	0.322	0.487	0.537	0.790	0.522	-0.306	-0.582	-0.009	-0.081	-175.781
0.613	0.150	0.077	-0.046	-0.548	-0.527	-0.835	-0.892	-1.068	-0.826	-0.579	0.085	0.513	0.585	0.653	0.766	0.819	0.413	1.175	0.529	0.651	0.783	0.798	0.526	-0.486	-0.705	-0.044	-0.104	-171.875
0.690	0.338	0.161	0.005	-0.666	-0.631	-1.056	-1.108	-1.429	-1.161	-0.786	0.048	0.606	0.762	0.765	0.970	0.920	0.534	1.351	0.733	0.840	1.009	0.780	0.540	-0.622	-0.772	-0.059	-0.117	-167.969
0.756	0.526	0.221	0.048	-0.745	-0.712	-1.197	-1.261	-1.692	-1.412	-0.943	0.019	0.719	0.949	0.830	1.123	0.950	0.562	1.446	0.887	1.016	1.187	0.736	0.576	-0.689	-0.764	-0.039	-0.112	-164.062
0.790	0.682	0.252	0.071	-0.772	-0.748	-1.228	-1.317	-1.803	-1.531	-1.020	0.004	0.848	1.123	0.826	1.192	0.893	0.475	1.434	0.958	1.147	1.292	0.669	0.641	-0.680	-0.685	0.014	-0.091	-160.156
0.778	0.781	0.258	0.071	-0.736	-0.716	-1.132	-1.253	-1.735	-1.496	-1.009	0.001	0.981	1.264	0.744	1.159	0.746	0.271	1.307	0.933	1.213	1.312	0.585	0.724	-0.607	-0.559	0.084	-0.067	-156.250
0.717	0.815	0.249	0.051	-0.630	-0.604	-0.911	-1.064	-1.492	-1.311	-0.917	0.001	1.100	1.358	0.589	1.030	0.527	-0.028	1.081	0.819	1.207	1.249	0.489	0.809	-0.493	-0.419	0.144	-0.056	-152.344
0.615	0.782	0.233	0.019	-0.462	-0.417	-0.588	-0.761	-1.109	-1.009	-0.769	-0.006	1.187	1.397	0.382	0.828	0.268	-0.384	0.789	0.640	1.136	1.116	0.389	0.875	-0.366	-0.302	0.169	-0.072	-148.438
0.484	0.688	0.212	-0.022	-0.251	-0.175	-0.201	-0.376	-0.640	-0.639	-0.594	-0.028	1.225	1.379	0.151	0.587	0.006	-0.747	0.474	0.428	1.014	0.937	0.290	0.905	-0.251	-0.229	0.142	-0.125	-144.531
0.338	0.544	0.183	-0.072	-0.032	0.086	0.197	0.050	-0.148	-0.256	-0.420	-0.069	1.198	1.305	-0.076	0.341	-0.226	-1.066	0.178	0.215	0.861	0.738	0.200	0.887	-0.157	-0.206	0.062	-0.212	-140.625
0.188	0.362	0.134	-0.137	0.155	0.323	0.557	0.471	0.310	0.093	-0.267	-0.125	1.099	1.176	-0.276	0.118	-0.408	-1.298	-0.067	0.024	0.689	0.543	0.120	0.820	-0.082	-0.217	-0.055	-0.315	-136.719
0.040	0.156	0.055	-0.222	0.272	0.493	0.834	0.846	0.691	0.374	-0.140	-0.181	0.930	0.993	-0.434	-0.066	-0.533	-1.416	-0.244	-0.134	0.507	0.364	0.050	0.710	-0.012	-0.231	-0.180	-0.410	-132.812
-0.108	-0.060	-0.062	-0.330	0.295	0.568	1.001	1.145	0.975	0.576	-0.033	-0.219	0.699	0.759	-0.548	-0.207	-0.608	-1.414	-0.353	-0.260	0.316	0.207	-0.011	0.571	0.072	-0.211	-0.276	-0.462	-128.906
-0.260	-0.270	-0.215	-0.458	0.212	0.536	1.050	1.350	1.161	0.702	0.070	-0.217	0.424	0.481	-0.625	-0.311	-0.648	-1.305	-0.410	-0.364	0.117	0.069	-0.067	0.417	0.185	-0.127	-0.313	-0.444	-125.000
-0.420	-0.455	-0.393	-0.593	0.038	0.408	0.991	1.461	1.263	0.770	0.190	-0.159	0.126	0.170	-0.674	-0.387	-0.670	-1.118	-0.433	-0.455	-0.094	-0.059	-0.124	0.262	0.336	0.036	-0.271	-0.337	-121.094
-0.589	-0.598	-0.574	-0.718	-0.196	0.213	0.845	1.487	1.302	0.799	0.338	-0.037	-0.169	-0.160	-0.708	-0.446	-0.684	-0.888	-0.444	-0.541	-0.311	-0.186	-0.183	0.115	0.518	0.272	-0.149	-0.137	-117.188
-0.760	-0.685	-0.730	-0.812	-0.448	-0.007	0.641	1.442	1.295	0.806	0.517	0.145	-0.437	-0.485	-0.733	-0.493	-0.695	-0.654	-0.458	-0.621	-0.525	-0.317	-0.247	-0.019	0.714	0.554	0.036	0.137	-113.281
-0.919	-0.707	-0.833	-0.855	-0.670	-0.208	0.408	1.344	1.250	0.796	0.714	0.368	-0.659	-0.784	-0.751	-0.528	-0.698	-0.447	-0.482	-0.688	-0.721	-0.456	-0.316	-0.138	0.897	0.843	0.253	0.454	-109.375
-1.049	-0.661	-0.860	-0.833	-0.823	-0.351	0.171	1.202	1.168	0.766	0.904	0.604	-0.821	-1.032	-0.762	-0.547	-0.687	-0.288	-0.517	-0.732	-0.881	-0.598	-0.391	-0.239	1.039	1.092	0.466	0.770	-105.469
-1.132	-0.557	-0.800	-0.744	-0.882	-0.415	-0.055	1.023	1.036	0.704	1.054	0.819	-0.915	-1.212	-0.759	-0.545	-0.658	-0.181	-0.557	-0.739	-0.988	-0.736	-0.471	-0.321	1.118	1.265	0.639	1.042	-101.562
-1.157	-0.412	-0.658	-0.596	-0.843	-0.395	-0.260	0.808	0.844	0.599	1.133	0.983	-0.943	-1.313	-0.737	-0.519	-0.611	-0.121	-0.595	-0.701	-1.029	-0.859	-0.553	-0.379	1.119	1.340	0.752	1.234	-97.656
-1.117	-0.250	-0.452	-0.408	-0.718	-0.307	-0.440	0.556	0.586	0.446	1.121	1.073	-0.915	-1.333	-0.691	-0.469	-0.551	-0.091	-0.623	-0.617	-1.001	-0.955	-0.631	-0.408	1.044	1.314	0.796	1.328	-93.750
-1.015	-0.097	-0.210	-0.204	-0.535	-0.180	-0.594	0.268	0.269	0.248	1.012	1.079	-0.844	-1.278	-0.621	-0.397	-0.484	-0.071	-0.631	-0.492	-0.910	-1.009	-0.697	-0.403	0.905	1.203	0.778	1.319	-89.844
-0.860	0.029	0.035	-0.006	-0.326	-0.046	-0.718	-0.046	-0.083	0.025	0.819	1.004	-0.746	-1.160	-0.525	-0.312	-0.416	-0.044	-0.614	-0.337	-0.766	-1.013	-0.740	-0.363	0.722	1.036	0.712	1.220	-85.938
-0.664	0.114	0.255	0.167	-0.123	0.065	-0.806	-0.368	-0.433	-0.197	0.570	0.860	-0.635	-0.996	-0.407	-0.221	-0.351	0.003	-0.569	-0.170	-0.589	-0.962	-0.753	-0.292	0.517	0.842	0.618	1.052	-82.031
-0.442	0.159	0.428	0.304	0.055	0.131	-0.850	-0.674	-0.734	-0.384	0.304	0.669	-0.521	-0.803	-0.272	-0.134	-0.286	0.072	-0.494	-0.007	-0.399	-0.857	-0.732	-0.201	0.307	0.647	0.509	0.838	-78.125
-0.214	0.170	0.544	0.402	0.195	0.144	-0.837	-0.934	-0.942	-0.503	0.058	0.450	-0.409	-0.596	-0.125	-0.061	-0.216	0.160	-0.396	0.135	-0.214	-0.706	-0.676	-0.107	0.105	0.464	0.395	0.600	-74.219
0.001	0.159	0.603	0.463	0.298	0.110	-0.760	-1.121	-1.025	-0.533	-0.136	0.223	-0.299	-0.388	0.024	-0.009	-0.136	0.258	-0.283	0.242	-0.052	-0.523	-0.592	-0.025	-0.082	0.302	0.279	0.356	-70.312
0.178	0.138	0.610	0.495	0.373	0.041	-0.613	-1.213	-0.968	-0.466	-0.258	0.004	-0.190	-0.190	0.163	0.015	-0.041	0.354	-0.166	0.308	0.077	-0.327	-0.488	0.029	-0.249	0.161	0.161	0.119	-66.406
0.297	0.118	0.575	0.505	0.430	-0.042	-0.402	-1.202	-0.781	-0.311	-0.305	-0.194	-0.082	-0.013	0.279	0.010	0.068	0.434	-0.062	0.329	0.163	-0.138	-0.377	0.044	-0.391	0.036	0.040	-0.100	-62.500
0.341	0.101	0.510	0.500	0.480	-0.117	-0.144	-1.088	-0.493	-0.094	-0.286	-0.362	0.024	0.136	0.358	-0.024	0.181	0.487	0.017	0.309	0.205	0.024	-0.271	0.017	-0.504	-0.072	-0.082	-0.294	-58.594
0.303	0.088	0.423	0.486	0.531	-0.165	0.137	-0.888	-0.149	0.151	-0.220	-0.496	0.120	0.245	0.390	-0.085	0.285	0.505	0.057	0.257	0.203	0.138	-0.181	-0.050	-0.580	-0.165	-0.200	-0.456	-54.688
0.191	0.071	0.322	0.464	0.584	-0.171	0.411	-0.626	0.201	0.385	-0.129	-0.590	0.194	0.305	0.371	-0.166	0.362	0.489	0.051	0.184	0.160	0.192	-0.119	-0.150	-0.614	-0.242	-0.305	-0.581	-50.781
0.026	0.044	0.213	0.435	0.634	-0.128	0.647	-0.333	0.508	0.576	-0.037	-0.643	0.233	0.310	0.304	-0.258	0.394	0.446	-0.005	0.101	0.080	0.179	-0.087	-0.271	-0.606	-0.300	-0.391	-0.664	-46.875
-0.163	-0.001	0.103	0.397	0.674	-0.038	0.821	-0.040	0.737	0.700	0.043	-0.657	0.226	0.256	0.200	-0.353	0.372	0.391	-0.104	0.016	-0.029	0.105	-0.086	-0.402	-0.559	-0.340	-0.449	-0.704	-42.969
-0.341	-0.069	0.002	0.347	0.695	0.091	0.918	0.224	0.866	0.751	0.101	-0.634	0.165	0.145	0.075	-0.444	0.293	0.342	-0.236	-0.064	-0.160	-0.013	-0.107	-0.529	-0.483	-0.362	-0.477	-0.701	-39.062
-0.480	-0.158	-0.084	0.288	0.690	0.245	0.936	0.434	0.894	0.732	0.136	-0.583	0.049	-0.014	-0.049	-0.522	0.168	0.318	-0.381	-0.136	-0.304	-0.151	-0.137	-0.640	-0.392	-0.371	-0.475	-0.659	-35.156
-0.558	-0.262	-0.144	0.222	0.659	0.408	0.885	0.579	0.834	0.661	0.153	-0.514	-0.112	-0.206	-0.152	-0.581	0.020	0.334	-0.514	-0.199	-0.452	-0.277	-0.160	-0.727	-0.304	-0.369	-0.449	-0.586	-31.250
-0.568	-0.368	-0.173	0.157	0.606	0.565	0.781	0.652	0.711	0.555	0.157	-0.441	-0.304	-0.414	-0.217	-0.617	-0.118	0.397	-0.612	-0.251	-0.592	-0.362	-0.161	-0.786	-0.232	-0.362	-0.407	-0.492	-27.344
-0.514	-0.462	-0.167	0.105	0.538	0.701	0.646	0.659	0.552	0.433	0.154	-0.376	-0.509	-0.616	-0.233	-0.623	-0.211	0.504	-0.654	-0.291	-0.714	-0.386	-0.132	-0.816	-0.187	-0.355	-0.361	-0.391	-23.438
-0.405	-0.527	-0.126	0.074	0.467	0.805	0.499	0.612	0.383	0.305	0.143	-0.332	-0.708	-0.795	-0.194	-0.598	-0.230	0.646	-0.626	-0.314	-0.811	-0.340	-0.072	-0.823	-0.173	-0.351	-0.322	-0.295	-19.531
-0.258	-0.553	-0.054	0.072	0.399	0.871	0.350	0.525	0.221	0.173	0.121	-0.318	-0.885	-0.936	-0.103	-0.539	-0.155	0.808	-0.525	-0.319	-0.875	-0.229	0.013	-0.815	-0.185	-0.353	-0.301	-0.218	-15.625
-0.085	-0.536	0.039	0.096	0.337	0.893	0.204	0.413	0.074	0.031	0.081	-0.338	-1.029	-1.035	0.031	-0.451	0.017	0.978	-0.360	-0.304	-0.905	-0.072	0.110	-0.806	-0.213	-0.361	-0.303	-0.167	-11.719
0.102	-0.482	0.142	0.139	0.273	0.866	0.055	0.289	-0.058	-0.130	0.017	-0.392	-1.136	-1.093	0.197	-0.339	0.271	1.144	-0.149	-0.272	-0.906	0.107	0.204	-0.804	-0.243	-0.371	-0.331	-0.147	-7.812
0.294	-0.405	0.242	0.181	0.196	0.787	-0.105	0.164	-0.177	-0.319	-0.075	-0.474	-1.207	-1.116	0.377	-0.214	0.577	1.302	0.083	-0.229	-0.886	0.280	0.284	-0.817	-0.260	-0.382	-0.382	-0.157	-3.906
0.481	-0.322	0.327	0.202	0.089	0.656	-0.280	0.044	-0.285	-0.536	-0.193	-0.578	-1.246	-1.116	0.556	-0.089	0.901	1.451	0.310	-0.185	-0.858	0.421	0.343	-0.846	-0.254	-0.389	-0.450	-0.195	0.000
0.652	-0.254	0.388	0.184	-0.056	0.477	-0.469	-0.064	-0.381	-0.771	-0.327	-0.691	-1.256	-1.102	0.717	0.022	1.203	1.594	0.506	-0.148	-0.834	0.515	0.379	-0.886	-0.219	-0.390	-0.525	-0.254	3.906
0.791	-0.214	0.419	0.113	-0.241	0.262	-0.657	-0.156	-0.457	-1.000	-0.461	-0.800	-1.240	-1.081	0.847	0.110	1.453	1.731	0.652	-0.127	-0.823	0.552	0.396	-0.926	-0.157	-0.384	-0.596	-0.326	7.812
0.877	-0.208	0.418	-0.009	-0.452	0.028	-0.819	-0.227	-0.504	-1.193	-0.575	-0.893	-1.196	-1.053	0.937	0.168	1.626	1.859	0.739	-0.124	-0.829	0.533	0.401	-0.956	-0.077	-0.373	-0.654	-0.401	11.719
0.896	-0.232	0.388	-0.169	-0.661	-0.198	-0.926	-0.276	-0.512	-1.318	-0.651	-0.958	-1.118	-1.013	0.979	0.194	1.712	1.969	0.764	-0.137	-0.846	0.464	0.398	-0.962	0.005	-0.362	-0.692	-0.470	15.625
0.836	-0.274	0.335	-0.339	-0.832	-0.390	-0.947	-0.304	-0.478	-1.346	-0.672	-0.986	-1.005	-0.954	0.976	0.192	1.711	2.050	0.732	-0.158	-0.866	0.358	0.388	-0.940	0.067	-0.357	-0.704	-0.526	19.531
0.700	-0.316	0.266	-0.488	-0.930	-0.523	-0.865	-0.312	-0.406	-1.264	-0.633	-0.973	-0.854	-0.867	0.934	0.172	1.635	2.093	0.656	-0.176	-0.874	0.226	0.367	-0.891	0.087	-0.367	-0.692	-0.562	23.438
0.503	-0.340	0.189	-0.582	-0.926	-0.576	-0.681	-0.309	-0.309	-1.077	-0.536	-0.918	-0.673	-0.750	0.866	0.144	1.505	2.089	0.553	-0.181	-0.858	0.081	0.327	-0.821	0.047	-0.402	-0.656	-0.573	27.344
0.271	-0.332	0.111	-0.599	-0.810	-0.545	-0.414	-0.304	-0.207	-0.807	-0.397	-0.828	-0.476	-0.605	0.792	0.123	1.354	2.042	0.447	-0.161	-0.809	-0.063	0.263	-0.742	-0.065	-0.464	-0.601	-0.558	31.250
0.037	-0.285	0.037	-0.529	-0.594	-0.438	-0.105	-0.309	-0.124	-0.495	-0.238	-0.719	-0.284	-0.444	0.731	0.120	1.219	1.962	0.362	-0.111	-0.724	-0.193	0.172	-0.666	-0.243	-0.550	-0.530	-0.519	35.156
-0.172	-0.203	-0.030	-0.379	-0.310	-0.276	0.197	-0.333	-0.082	-0.189	-0.089	-0.613	-0.123	-0.283	0.700	0.147	1.134	1.869	0.321	-0.028	-0.608	-0.292	0.061	-0.603	-0.465	-0.643	-0.443	-0.465	39.062
-0.337	-0.096	-0.088	-0.170	-0.001	-0.089	0.439	-0.384	-0.095	0.060	0.014	-0.541	-0.016	-0.142	0.710	0.207	1.127	1.785	0.340	0.085	-0.469	-0.348	-0.055	-0.553	-0.692	-0.714	-0.340	-0.409	42.969
-0.453	0.020	-0.138	0.065	0.281	0.087	0.577	-0.463	-0.167	0.209	0.038	-0.541	0.013	-0.042	0.757	0.299	1.205	1.730	0.427	0.221	-0.322	-0.351	-0.156	-0.514	-0.870	-0.723	-0.220	-0.375	46.875
-0.533	0.128	-0.181	0.295	0.495	0.222	0.585	-0.562	-0.288	0.230	-0.046	-0.653	-0.049	0.002	0.827	0.415	1.357	1.720	0.578	0.372	-0.178	-0.297	-0.220	-0.477	-0.939	-0.627	-0.087	-0.388	50.781
-0.600	0.215	-0.220	0.489	0.612	0.298	0.461	-0.666	-0.434	0.115	-0.259	-0.916	-0.205	-0.016	0.895	0.541	1.553	1.757	0.774	0.526	-0.050	-0.188	-0.229	-0.435	-0.846	-0.389	0.052	-0.480	54.688
-0.682	0.270	-0.256	0.626	0.626	0.307	0.227	-0.751	-0.566	-0.121	-0.604	-1.354	-0.446	-0.094	0.934	0.659	1.754	1.835	0.989	0.673	0.051	-0.039	-0.172	-0.382	-0.558	0.014	0.184	-0.676	58.594
-0.802	0.287	-0.291	0.694	0.547	0.257	-0.076	-0.786	-0.639	-0.440	-1.068	-1.970	-0.756	-0.226	0.918	0.750	1.917	1.937	1.190	0.796	0.116	0.132	-0.052	-0.322	-0.066	0.577	0.289	-0.993	62.500
-0.973	0.262	-0.330	0.689	0.402	0.165	-0.389	-0.738	-0.603	-0.784	-1.609	-2.735	-1.105	-0.398	0.831	0.795	2.008	2.040	1.344	0.878	0.135	0.298	0.120	-0.263	0.603	1.268	0.349	-1.428	66.406
-1.194	0.193	-0.380	0.613	0.222	0.054	-0.650	-0.574	-0.411	-1.081	-2.165	-3.591	-1.462	-0.596	0.666	0.774	2.002	2.122	1.423	0.897	0.097	0.431	0.316	-0.220	1.396	2.026	0.348	-1.958	70.312
-1.450	0.074	-0.451	0.469	0.038	-0.052	-0.797	-0.267	-0.020	-1.252	-2.651	-4.445	-1.788	-0.806	0.432	0.671	1.891	2.160	1.405	0.831	-0.009	0.502	0.505	-0.208	2.230	2.773	0.277	-2.536	74.219
-1.721	-0.098	-0.551	0.264	-0.125	-0.134	-0.776	0.203	0.598	-1.220	-2.972	-5.185	-2.042	-1.015	0.145	0.472	1.681	2.134	1.277	0.660	-0.190	0.488	0.648	-0.237	3.013	3.419	0.143	-3.096	78.125
-1.988	-0.329	-0.690	0.005	-0.252	-0.180	-0.549	0.836	1.455	-0.917	-3.037	-5.698	-2.182	-1.207	-0.173	0.173	1.387	2.031	1.038	0.374	-0.446	0.372	0.708	-0.310	3.655	3.886	-0.039	-3.564	82.031
-2.239	-0.619	-0.874	-0.298	-0.333	-0.185	-0.097	1.617	2.540	-0.303	-2.776	-5.886	-2.170	-1.366	-0.500	-0.222	1.032	1.839	0.696	-0.027	-0.765	0.149	0.656	-0.414	4.077	4.114	-0.236	-3.867	85.938
-2.476	-0.963	-1.106	-0.629	-0.369	-0.154	0.578	2.509	3.819	0.635	-2.156	-5.689	-1.971	-1.470	-0.817	-0.699	0.639	1.552	0.266	-0.521	-1.123	-0.170	0.475	-0.525	4.230	4.076	-0.409	-3.951	89.844
-2.709	-1.351	-1.384	-0.970	-0.358	-0.099	1.451	3.454	5.229	1.869	-1.191	-5.101	-1.566	-1.494	-1.112	-1.230	0.221	1.169	-0.226	-1.074	-1.481	-0.562	0.165	-0.608	4.092	3.781	-0.515	-3.789	93.750
-2.954	-1.762	-1.703	-1.297	-0.301	-0.033	2.478	4.382	6.689	3.337	0.055	-4.170	-0.949	-1.415	-1.377	-1.781	-0.214	0.697	-0.751	-1.634	-1.795	-0.991	-0.256	-0.626	3.673	3.269	-0.514	-3.388	97.656
-3.229	-2.171	-2.052	-1.583	-0.194	0.033	3.600	5.211	8.101	4.945	1.477	-2.996	-0.137	-1.212	-1.610	-2.311	-0.666	0.154	-1.274	-2.144	-2.016	-1.413	-0.753	-0.547	3.007	2.606	-0.378	-2.793	101.562
-3.539	-2.546	-2.413	-1.800	-0.031	0.093	4.747	5.866	9.366	6.577	2.942	-1.713	0.832	-0.873	-1.805	-2.775	-1.131	-0.426	-1.756	-2.544	-2.100	-1.779	-1.282	-0.352	2.141	1.861	-0.103	-2.078	105.469
-3.878	-2.852	-2.762	-1.919	0.198	0.150	5.849	6.282	10.388	8.110	4.306	-0.475	1.900	-0.393	-1.950	-3.127	-1.589	-0.998	-2.155	-2.778	-2.010	-2.042	-1.792	-0.046	1.126	1.095	0.287	-1.340	109.375
-4.220	-3.051	-3.065	-1.916	0.502	0.216	6.838	6.417	11.087	9.422	5.437	0.573	2.995	0.214	-2.024	-3.321	-2.001	-1.504	-2.428	-2.801	-1.727	-2.167	-2.235	0.344	0.009	0.344	0.740	-0.681	113.281
-4.521	-3.115	-3.284	-1.776	0.882	0.307	7.652	6.256	11.406	10.408	6.228	1.315	4.034	0.919	-2.001	-3.320	-2.310	-1.885	-2.540	-2.590	-1.254	-2.134	-2.571	0.765	-1.165	-0.377	1.181	-0.193	117.188
-4.731	-3.024	-3.381	-1.497	1.325	0.436	8.239	5.815	11.317	10.985	6.613	1.683	4.934	1.674	-1.858	-3.104	-2.455	-2.088	-2.469	-2.145	-0.618	-1.945	-2.777	1.152	-2.351	-1.072	1.525	0.061	121.094
-4.799	-2.774	-3.325	-1.094	1.803	0.610	8.558	5.138	10.830	11.106	6.573	1.666	5.617	2.413	-1.583	-2.677	-2.386	-2.082	-2.216	-1.501	0.125	-1.626	-2.845	1.437	-3.497	-1.744	1.695	0.059	125.000
-4.686	-2.384	-3.099	-0.599	2.271	0.824	8.581	4.294	9.988	10.760	6.145	1.312	6.016	3.058	-1.183	-2.074	-2.085	-1.861	-1.807	-0.719	0.898	-1.223	-2.786	1.556	-4.540	-2.387	1.638	-0.173	128.906
-4.374	-1.889	-2.706	-0.060	2.676	1.059	8.298	3.367	8.869	9.978	5.406	0.718	6.085	3.529	-0.694	-1.359	-1.574	-1.452	-1.297	0.110	1.608	-0.798	-2.631	1.469	-5.410	-2.974	1.333	-0.565	132.812
-3.877	-1.341	-2.169	0.470	2.963	1.286	7.716	2.447	7.573	8.827	4.469	0.010	5.802	3.757	-0.169	-0.616	-0.920	-0.906	-0.756	0.888	2.165	-0.422	-2.418	1.158	-6.034	-3.453	0.804	-1.019	136.719
-3.232	-0.799	-1.527	0.937	3.089	1.474	6.864	1.617	6.214	7.403	3.463	-0.676	5.175	3.691	0.323	0.061	-0.218	-0.291	-0.265	1.516	2.491	-0.159	-2.194	0.634	-6.346	-3.761	0.105	-1.427	140.625
-2.503	-0.321	-0.832	1.293	3.028	1.593	5.792	0.947	4.904	5.823	2.512	-1.223	4.233	3.312	0.713	0.587	0.425	0.321	0.103	1.914	2.535	-0.061	-2.006	-0.066	-6.304	-3.834	-0.682	-1.692	144.531
-1.761	0.045	-0.142	1.504	2.777	1.625	4.567	0.482	3.740	4.205	1.720	-1.546	3.034	2.631	0.945	0.901	0.909	0.865	0.291	2.034	2.279	-0.156	-1.888	-0.886	-5.893	-3.620	-1.466	-1.745	148.438
-1.082	0.266	0.490	1.556	2.357	1.563	3.266	0.241	2.795	2.663	1.160	-1.603	1.651	1.693	0.983	0.969	1.162	1.292	0.268	1.863	1.743	-0.445	-1.863	-1.759	-5.137	-3.095	-2.161	-1.553	152.344
-0.527	0.327	1.023	1.447	1.807	1.417	1.972	0.214	2.110	1.290	0.864	-1.398	0.170	0.570	0.818	0.793	1.149	1.570	0.031	1.426	0.978	-0.905	-1.934	-2.612	-4.086	-2.267	-2.693	-1.125	156.250
-0.142	0.230	1.426	1.197	1.179	1.204	0.761	0.373	1.698	0.159	0.829	-0.974	-1.321	-0.649	0.466	0.400	0.876	1.688	-0.394	0.773	0.057	-1.488	-2.086	-3.373	-2.819	-1.171	-3.013	-0.501	160.156
0.049	-0.007	1.684	0.832	0.529	0.947	-0.300	0.670	1.544	-0.689	1.018	-0.400	-2.735	-1.868	-0.037	-0.161	0.383	1.649	-0.960	-0.024	-0.935	-2.135	-2.291	-3.979	-1.423	0.132	-3.094	0.259	164.062
0.041	-0.354	1.796	0.389	-0.095	0.669	-1.164	1.054	1.613	-1.238	1.375	0.246	-3.993	-2.994	-0.644	-0.829	-0.264	1.466	-1.607	-0.886	-1.911	-2.778	-2.513	-4.378	0.012	1.564	-2.936	1.082	167.969
-0.150	-0.775	1.773	-0.092	-0.652	0.390	-1.802	1.473	1.857	-1.500	1.832	0.884	-5.033	-3.950	-1.299	-1.543	-0.991	1.161	-2.272	-1.738	-2.795	-3.358	-2.714	-4.536	1.402	3.043	-2.559	1.899	171.875
-0.493	-1.229	1.636	-0.575	-1.115	0.121	-2.206	1.880	2.224	-1.505	2.321	1.451	-5.811	-4.679	-1.952	-2.244	-1.721	0.759	-2.897	-2.519	-3.530	-3.825	-2.864	-4.441	2.677	4.483	-2.001	2.649	175.781
-0.946	-1.675	1.410	-1.027	-1.474	-0.132	-2.384	2.244	2.665	-1.295	2.788	1.902	-6.304	-5.152	-2.557	-2.886	-2.391	0.289	-3.436	-3.181	-4.081	-4.151	-2.948	-4.106	3.779	5.809	-1.315	3.288	179.688
-1.462	-2.078	1.119	-1.426	-1.730	-0.366	-2.354	2.550	3.140	-0.913	3.195	2.218	-6.508	-5.366	-3.080	-3.435	-2.959	-0.221	-3.864	-3.701	-4.437	-4.330	-2.967	-3.566	4.666	6.954	-0.553	3.789	183.594
-1.992	-2.414	0.785	-1.759	-1.896	-0.582	-2.140	2.799	3.627	-0.396	3.528	2.401	-6.439	-5.342	-3.500	-3.872	-3.403	-0.746	-4.174	-4.070	-4.608	-4.378	-2.941	-2.877	5.312	7.873	0.230	4.144	187.500
-2.496	-2.669	0.425	-2.023	-1.990	-0.777	-1.765	3.010	4.122	0.228	3.795	2.476	-6.130	-5.121	-3.809	-4.195	-3.728	-1.270	-4.380	-4.302	-4.623	-4.331	-2.904	-2.105	5.707	8.541	0.991	4.361	191.406
-2.940	-2.845	0.051	-2.227	-2.031	-0.947	-1.251	3.208	4.632	0.946	4.024	2.478	-5.621	-4.755	-4.016	-4.415	-3.956	-1.790	-4.511	-4.421	-4.523	-4.235	-2.897	-1.317	5.861	8.960	1.703	4.465	195.312
-3.304	-2.959	-0.332	-2.387	-2.038	-1.087	-0.617	3.425	5.176	1.749	4.251	2.451	-4.959	-4.300	-4.141	-4.557	-4.126	-2.307	-4.604	-4.461	-4.351	-4.138	-2.960	-0.575	5.803	9.157	2.354	4.492	199.219
-3.584	-3.037	-0.723	-2.524	-2.025	-1.190	0.113	3.684	5.769	2.632	4.516	2.440	-4.189	-3.807	-4.210	-4.651	-4.279	-2.831	-4.698	-4.458	-4.148	-4.081	-3.121	0.080	5.579	9.181	2.949	4.485	203.125
-3.789	-3.111	-1.122	-2.661	-2.004	-1.256	0.916	4.001	6.419	3.585	4.847	2.483	-3.353	-3.317	-4.251	-4.731	-4.448	-3.370	-4.819	-4.444	-3.948	-4.092	-3.393	0.626	5.245	9.091	3.505	4.486	207.031
-3.941	-3.210	-1.532	-2.817	-1.982	-1.287	1.760	4.374	7.121	4.584	5.258	2.608	-2.487	-2.857	-4.290	-4.822	-4.652	-3.924	-4.980	-4.442	-3.772	-4.178	-3.764	1.062	4.864	8.949	4.041	4.532	210.938
-4.070	-3.356	-1.953	-3.003	-1.966	-1.292	2.605	4.790	7.854	5.595	5.744	2.827	-1.623	-2.441	-4.343	-4.940	-4.887	-4.485	-5.178	-4.466	-3.630	-4.327	-4.202	1.402	4.491	8.808	4.571	4.647	214.844
-4.205	-3.560	-2.381	-3.224	-1.961	-1.286	3.409	5.222	8.583	6.569	6.280	3.137	-0.784	-2.071	-4.416	-5.087	-5.133	-5.033	-5.390	-4.518	-3.522	-4.510	-4.660	1.668	4.171	8.703	5.098	4.837	218.750
-4.365	-3.820	-2.812	-3.478	-1.971	-1.285	4.125	5.640	9.265	7.451	6.826	3.518	0.007	-1.741	-4.509	-5.260	-5.359	-5.541	-5.587	-4.592	-3.440	-4.687	-5.079	1.886	3.938	8.648	5.611	5.091	222.656
-4.559	-4.124	-3.235	-3.757	-2.000	-1.307	4.715	6.016	9.859	8.186	7.336	3.935	0.731	-1.445	-4.613	-5.448	-5.539	-5.978	-5.739	-4.682	-3.376	-4.816	-5.402	2.075	3.810	8.643	6.082	5.384	226.562
-4.779	-4.457	-3.636	-4.049	-2.053	-1.368	5.150	6.326	10.330	8.730	7.765	4.348	1.372	-1.176	-4.721	-5.641	-5.657	-6.318	-5.821	-4.782	-3.320	-4.860	-5.583	2.250	3.793	8.673	6.481	5.678	230.469
-5.008	-4.803	-3.999	-4.346	-2.131	-1.478	5.417	6.560	10.660	9.056	8.079	4.713	1.915	-0.928	-4.826	-5.835	-5.714	-6.541	-5.819	-4.887	-3.267	-4.791	-5.590	2.422	3.888	8.726	6.776	5.938	234.375
-5.223	-5.150	-4.314	-4.642	-2.235	-1.643	5.520	6.721	10.851	9.159	8.258	4.994	2.350	-0.700	-4.923	-6.028	-5.723	-6.640	-5.732	-4.998	-3.215	-4.595	-5.415	2.599	4.095	8.794	6.949	6.135	238.281
-5.406	-5.493	-4.576	-4.932	-2.364	-1.859	5.478	6.818	10.923	9.057	8.302	5.166	2.672	-0.494	-5.014	-6.222	-5.705	-6.621	-5.571	-5.116	-3.164	-4.273	-5.069	2.790	4.411	8.882	7.000	6.254	242.188
-5.550	-5.829	-4.790	-5.217	-2.516	-2.120	5.323	6.870	10.910	8.788	8.226	5.219	2.881	-0.313	-5.101	-6.419	-5.681	-6.497	-5.354	-5.242	-3.116	-3.843	-4.584	3.005	4.834	9.005	6.950	6.292	246.094
-5.663	-6.160	-4.972	-5.496	-2.685	-2.411	5.093	6.900	10.853	8.403	8.056	5.155	2.984	-0.160	-5.186	-6.615	-5.664	-6.291	-5.101	-5.371	-3.077	-3.333	-4.002	3.252	5.356	9.182	6.832	6.262	250.000
-5.760	-6.483	-5.141	-5.764	-2.864	-2.714	4.827	6.927	10.794	7.956	7.823	4.989	2.987	-0.042	-5.270	-6.805	-5.658	-6.026	-4.834	-5.497	-3.050	-2.782	-3.377	3.531	5.963	9.426	6.688	6.181	253.906
-5.865	-6.787	-5.315	-6.012	-3.043	-3.005	4.556	6.967	10.765	7.502	7.560	4.741	2.903	0.037	-5.352	-6.977	-5.660	-5.723	-4.569	-5.609	-3.038	-2.237	-2.763	3.835	6.624	9.740	6.554	6.066	257.812
-5.994	-7.059	-5.501	-6.225	-3.211	-3.261	4.307	7.031	10.790	7.084	7.293	4.436	2.741	0.071	-5.428	-7.116	-5.657	-5.399	-4.320	-5.690	-3.042	-1.744	-2.214	4.139	7.297	10.103	6.451	5.932	261.719
-6.159	-7.275	-5.696	-6.384	-3.353	-3.459	4.095	7.123	10.875	6.739	7.044	4.099	2.513	0.058	-5.489	-7.206	-5.636	-5.066	-4.098	-5.725	-3.060	-1.346	-1.779	4.410	7.923	10.478	6.383	5.786	265.625
-6.358	-7.416	-5.888	-6.469	-3.455	-3.583	3.930	7.237	11.015	6.488	6.831	3.758	2.235	-0.000	-5.528	-7.232	-5.581	-4.736	-3.907	-5.697	-3.082	-1.073	-1.490	4.609	8.443	10.816	6.335	5.627	269.531
-6.580	-7.465	-6.061	-6.465	-3.505	-3.628	3.814	7.364	11.192	6.345	6.665	3.435	1.928	-0.092	-5.532	-7.183	-5.480	-4.417	-3.743	-5.593	-3.093	-0.935	-1.363	4.700	8.799	11.060	6.284	5.453	273.438
-6.808	-7.414	-6.199	-6.364	-3.496	-3.600	3.747	7.486	11.381	6.312	6.553	3.150	1.620	-0.197	-5.491	-7.054	-5.317	-4.114	-3.598	-5.402	-3.075	-0.922	-1.392	4.658	8.946	11.164	6.204	5.260	277.344
-7.024	-7.269	-6.298	-6.172	-3.426	-3.520	3.726	7.582	11.555	6.386	6.498	2.920	1.342	-0.291	-5.396	-6.843	-5.080	-3.834	-3.454	-5.118	-3.004	-1.002	-1.553	4.481	8.863	11.095	6.077	5.047	281.250
-7.210	-7.044	-6.360	-5.903	-3.302	-3.416	3.747	7.628	11.685	6.554	6.498	2.755	1.131	-0.344	-5.238	-6.553	-4.761	-3.583	-3.288	-4.741	-2.861	-1.129	-1.806	4.187	8.552	10.844	5.899	4.819	285.156
-7.357	-6.762	-6.397	-5.580	-3.138	-3.320	3.805	7.603	11.745	6.797	6.543	2.657	1.019	-0.330	-5.015	-6.192	-4.356	-3.367	-3.079	-4.276	-2.632	-1.250	-2.102	3.814	8.041	10.425	5.681	4.584	289.062
-7.458	-6.445	-6.424	-5.230	-2.949	-3.259	3.892	7.487	11.717	7.087	6.620	2.624	1.027	-0.229	-4.730	-5.766	-3.867	-3.191	-2.808	-3.733	-2.314	-1.315	-2.394	3.414	7.380	9.872	5.446	4.356	292.969
-7.517	-6.116	-6.455	-4.876	-2.751	-3.254	3.998	7.271	11.588	7.387	6.706	2.641	1.165	-0.032	-4.392	-5.284	-3.306	-3.060	-2.463	-3.126	-1.911	-1.286	-2.636	3.041	6.630	9.237	5.224	4.146	296.875
-7.541	-5.786	-6.499	-4.536	-2.556	-3.310	4.107	6.954	11.351	7.655	6.774	2.687	1.425	0.256	-4.016	-4.753	-2.692	-2.975	-2.041	-2.470	-1.441	-1.138	-2.795	2.744	5.854	8.570	5.040	3.959	300.781
-7.538	-5.459	-6.554	-4.216	-2.370	-3.423	4.204	6.544	11.008	7.846	6.792	2.731	1.782	0.622	-3.618	-4.181	-2.047	-2.927	-1.551	-1.784	-0.923	-0.868	-2.849	2.553	5.109	7.920	4.906	3.791	304.688
-7.514	-5.130	-6.612	-3.916	-2.189	-3.573	4.274	6.062	10.570	7.918	6.728	2.738	2.203	1.042	-3.214	-3.576	-1.391	-2.902	-1.006	-1.085	-0.383	-0.486	-2.789	2.476	4.436	7.317	4.817	3.626	308.594
-7.472	-4.787	-6.656	-3.625	-2.006	-3.733	4.305	5.536	10.052	7.840	6.555	2.672	2.644	1.492	-2.814	-2.947	-0.746	-2.876	-0.427	-0.393	0.157	-0.021	-2.617	2.501	3.859	6.776	4.750	3.440	312.500
-7.408	-4.419	-6.667	-3.331	-1.814	-3.872	4.295	5.003	9.481	7.601	6.255	2.504	3.067	1.944	-2.429	-2.308	-0.124	-2.827	0.163	0.275	0.676	0.496	-2.349	2.597	3.388	6.295	4.669	3.204	316.406
-7.316	-4.018	-6.625	-3.027	-1.603	-3.961	4.248	4.503	8.887	7.210	5.830	2.218	3.438	2.377	-2.065	-1.674	0.463	-2.733	0.738	0.898	1.158	1.025	-2.008	2.723	3.018	5.859	4.534	2.897	320.312
-7.189	-3.589	-6.517	-2.710	-1.373	-3.975	4.181	4.076	8.309	6.698	5.299	1.818	3.737	2.772	-1.727	-1.071	1.002	-2.583	1.275	1.454	1.587	1.534	-1.621	2.840	2.738	5.453	4.313	2.508	324.219
-7.026	-3.153	-6.339	-2.391	-1.128	-3.901	4.115	3.757	7.788	6.119	4.703	1.327	3.953	3.115	-1.425	-0.528	1.482	-2.380	1.752	1.916	1.950	1.992	-1.220	2.918	2.537	5.064	3.990	2.047	328.125
-6.832	-2.742	-6.099	-2.092	-0.883	-3.740	4.074	3.574	7.366	5.537	4.099	0.793	4.089	3.394	-1.171	-0.080	1.883	-2.140	2.148	2.258	2.234	2.382	-0.832	2.940	2.407	4.694	3.570	1.546	332.031
-6.621	-2.401	-5.817	-1.844	-0.658	-3.506	4.079	3.538	7.078	5.022	3.553	0.273	4.151	3.598	-0.982	0.238	2.179	-1.891	2.443	2.453	2.424	2.689	-0.479	2.909	2.341	4.353	3.084	1.052	335.938
-6.413	-2.175	-5.523	-1.681	-0.479	-3.226	4.143	3.649	6.953	4.633	3.133	-0.164	4.150	3.719	-0.875	0.393	2.343	-1.661	2.622	2.479	2.506	2.908	-0.178	2.841	2.336	4.067	2.581	0.627	339.844
-6.228	-2.103	-5.249	-1.633	-0.372	-2.934	4.265	3.886	6.998	4.415	2.893	-0.459	4.096	3.750	-0.864	0.363	2.351	-1.480	2.673	2.322	2.466	3.038	0.062	2.761	2.388	3.862	2.117	0.329	343.750
-6.084	-2.203	-5.023	-1.720	-0.354	-2.665	4.435	4.218	7.206	4.387	2.867	-0.567	3.997	3.686	-0.952	0.143	2.193	-1.365	2.596	1.986	2.301	3.080	0.239	2.691	2.489	3.758	1.751	0.206	347.656
-5.990	-2.469	-4.862	-1.943	-0.433	-2.449	4.632	4.601	7.547	4.542	3.061	-0.471	3.860	3.531	-1.128	-0.247	1.883	-1.319	2.399	1.493	2.017	3.039	0.350	2.653	2.623	3.765	1.521	0.275	351.562
-5.946	-2.867	-4.767	-2.278	-0.600	-2.300	4.830	4.986	7.974	4.848	3.445	-0.189	3.694	3.297	-1.367	-0.766	1.463	-1.330	2.109	0.888	1.637	2.922	0.400	2.650	2.765	3.865	1.446	0.521	355.469
-5.937	-3.335	-4.725	-2.680	-0.827	-2.215	5.007	5.329	8.429	5.251	3.958	0.228	3.510	3.009	-1.627	-1.349	0.994	-1.373	1.762	0.233	1.198	2.737	0.390	2.677	2.883	4.022	1.510	0.891	359.375
-5.938	-3.796	-4.707	-3.087	-1.067	-2.172	5.149	5.593	8.847	5.688	4.515	0.697	3.327	2.700	-1.860	-1.918	0.553	-1.415	1.404	-0.397	0.754	2.499	0.324	2.710	2.940	4.172	1.671	1.296	363.281
-5.919	-4.169	-4.679	-3.427	-1.267	-2.136	5.250	5.759	9.172	6.096	5.015	1.117	3.169	2.412	-2.021	-2.397	0.209	-1.423	1.078	-0.927	0.362	2.222	0.207	2.721	2.899	4.244	1.865	1.633	367.188
-5.846	-4.383	-4.605	-3.633	-1.368	-2.066	5.318	5.822	9.357	6.421	5.365	1.391	3.063	2.186	-2.074	-2.719	0.013	-1.377	0.823	-1.292	0.079	1.923	0.043	2.676	2.730	4.166	2.018	1.797	371.094
-5.697	-4.389	-4.457	-3.653	-1.327	-1.924	5.369	5.792	9.379	6.626	5.493	1.444	3.036	2.060	-2.001	-2.847	-0.017	-1.267	0.657	-1.452	-0.051	1.617	-0.163	2.550	2.415	3.885	2.067	1.711	375.000
-5.457	-4.176	-4.223	-3.469	-1.118	-1.689	5.424	5.693	9.241	6.703	5.369	1.245	3.108	2.059	-1.808	-2.772	0.105	-1.106	0.581	-1.397	-0.009	1.315	-0.408	2.329	1.954	3.380	1.970	1.347	378.906
-5.131	-3.767	-3.908	-3.093	-0.746	-1.360	5.505	5.552	8.968	6.671	5.015	0.821	3.290	2.190	-1.522	-2.523	0.334	-0.921	0.574	-1.152	0.200	1.026	-0.689	2.018	1.367	2.670	1.722	0.735	382.812
-4.739	-3.220	-3.538	-2.576	-0.244	-0.960	5.629	5.398	8.606	6.571	4.504	0.254	3.579	2.442	-1.184	-2.156	0.604	-0.754	0.603	-0.772	0.542	0.755	-1.003	1.638	0.690	1.810	1.352	-0.034	386.719
-4.313	-2.618	-3.156	-1.990	0.329	-0.533	5.800	5.252	8.213	6.458	3.943	-0.332	3.956	2.784	-0.845	-1.747	0.846	-0.644	0.625	-0.333	0.962	0.503	-1.345	1.225	-0.029	0.885	0.917	-0.830	390.625
-3.888	-2.050	-2.809	-1.421	0.902	-0.132	6.013	5.126	7.842	6.380	3.455	-0.797	4.390	3.171	-0.551	-1.373	0.994	-0.624	0.606	0.086	1.394	0.275	-1.702	0.819	-0.742	-0.015	0.487	-1.506	394.531
-3.494	-1.591	-2.539	-0.947	1.405	0.191	6.247	5.022	7.533	6.370	3.142	-1.025	4.837	3.551	-0.340	-1.099	1.005	-0.712	0.524	0.416	1.773	0.080	-2.054	0.455	-1.401	-0.805	0.124	-1.943	398.438
-3.152	-1.295	-2.372	-0.622	1.784	0.394	6.469	4.934	7.305	6.430	3.064	-0.949	5.250	3.875	-0.231	-0.966	0.862	-0.899	0.381	0.614	2.051	-0.069	-2.371	0.158	-1.971	-1.430	-0.136	-2.069	402.344
-2.871	-1.176	-2.310	-0.467	2.009	0.461	6.639	4.849	7.151	6.530	3.219	-0.575	5.581	4.106	-0.224	-0.977	0.582	-1.155	0.198	0.671	2.203	-0.152	-2.620	-0.068	-2.427	-1.869	-0.297	-1.887	406.250
-2.642	-1.212	-2.331	-0.465	2.083	0.398	6.717	4.753	7.042	6.609	3.543	0.021	5.788	4.222	-0.297	-1.100	0.213	-1.431	0.019	0.615	2.233	-0.150	-2.765	-0.236	-2.759	-2.138	-0.401	-1.471	410.156
-2.450	-1.349	-2.392	-0.569	2.035	0.236	6.670	4.634	6.933	6.593	3.929	0.705	5.843	4.224	-0.414	-1.278	-0.171	-1.666	-0.107	0.502	2.173	-0.048	-2.780	-0.377	-2.967	-2.282	-0.521	-0.951	414.062
-2.268	-1.519	-2.443	-0.710	1.916	0.023	6.480	4.488	6.777	6.412	4.251	1.319	5.735	4.127	-0.531	-1.436	-0.487	-1.801	-0.129	0.403	2.072	0.158	-2.657	-0.528	-3.065	-2.367	-0.739	-0.477	417.969
-2.073	-1.649	-2.437	-0.817	1.783	-0.189	6.149	4.317	6.538	6.022	4.398	1.719	5.470	3.962	-0.601	-1.503	-0.658	-1.794	-0.014	0.386	1.984	0.458	-2.406	-0.725	-3.077	-2.461	-1.125	-0.190	421.875
-1.845	-1.683	-2.343	-0.831	1.688	-0.354	5.699	4.130	6.197	5.414	4.299	1.809	5.075	3.766	-0.591	-1.425	-0.635	-1.626	0.246	0.504	1.959	0.825	-2.060	-0.991	-3.036	-2.622	-1.718	-0.181	425.781
-1.574	-1.593	-2.151	-0.719	1.669	-0.436	5.170	3.940	5.755	4.619	3.939	1.562	4.592	3.574	-0.486	-1.182	-0.406	-1.308	0.634	0.777	2.027	1.221	-1.664	-1.332	-2.981	-2.886	-2.508	-0.478	429.688
-1.264	-1.376	-1.873	-0.476	1.742	-0.421	4.610	3.760	5.234	3.708	3.359	1.018	4.071	3.416	-0.288	-0.787	-0.001	-0.875	1.106	1.196	2.200	1.601	-1.270	-1.732	-2.950	-3.266	-3.445	-1.040	433.594
-0.928	-1.058	-1.535	-0.122	1.905	-0.308	4.073	3.600	4.669	2.768	2.641	0.273	3.561	3.308	-0.019	-0.283	0.518	-0.380	1.604	1.720	2.464	1.922	-0.925	-2.164	-2.981	-3.754	-4.448	-1.780	437.500
-0.589	-0.678	-1.168	0.302	2.138	-0.113	3.601	3.468	4.101	1.893	1.884	-0.551	3.103	3.259	0.288	0.272	1.070	0.125	2.068	2.294	2.791	2.154	-0.666	-2.593	-3.103	-4.329	-5.425	-2.587	441.406
-0.270	-0.279	-0.804	0.753	2.412	0.142	3.227	3.366	3.569	1.160	1.180	-1.341	2.726	3.261	0.598	0.813	1.578	0.593	2.450	2.857	3.143	2.281	-0.507	-2.991	-3.339	-4.965	-6.299	-3.359	445.312
0.008	0.104	-0.461	1.190	2.701	0.433	2.965	3.293	3.102	0.620	0.598	-2.011	2.439	3.301	0.881	1.291	1.982	0.995	2.723	3.357	3.479	2.306	-0.447	-3.339	-3.696	-5.639	-7.020	-4.024	449.219
0.232	0.448	-0.150	1.584	2.978	0.736	2.811	3.245	2.723	0.293	0.173	-2.520	2.236	3.358	1.117	1.671	2.253	1.322	2.881	3.759	3.767	2.245	-0.469	-3.634	-4.167	-6.333	-7.570	-4.550	453.125
0.399	0.743	0.129	1.920	3.226	1.031	2.751	3.221	2.443	0.168	-0.089	-2.865	2.097	3.407	1.300	1.942	2.390	1.577	2.939	4.048	3.981	2.126	-0.545	-3.884	-4.728	-7.028	-7.959	-4.941	457.031
0.509	0.992	0.377	2.196	3.435	1.302	2.762	3.216	2.268	0.215	-0.206	-3.071	1.999	3.429	1.428	2.108	2.412	1.770	2.921	4.224	4.109	1.974	-0.651	-4.103	-5.344	-7.700	-8.209	-5.223	460.938
0.570	1.200	0.595	2.413	3.598	1.534	2.819	3.231	2.199	0.393	-0.204	-3.171	1.918	3.406	1.508	2.185	2.348	1.911	2.851	4.300	4.149	1.812	-0.770	-4.301	-5.968	-8.320	-8.344	-5.421	464.844
0.581	1.371	0.776	2.578	3.712	1.714	2.899	3.263	2.232	0.661	-0.109	-3.192	1.841	3.331	1.544	2.191	2.226	2.006	2.749	4.295	4.107	1.652	-0.894	-4.480	-6.552	-8.850	-8.376	-5.554	468.750
0.543	1.504	0.907	2.690	3.775	1.831	2.984	3.310	2.358	0.983	0.064	-3.144	1.763	3.207	1.538	2.140	2.065	2.052	2.623	4.227	3.996	1.500	-1.022	-4.631	-7.050	-9.249	-8.302	-5.619	472.656
0.445	1.590	0.969	2.745	3.780	1.873	3.059	3.362	2.563	1.332	0.306	-3.020	1.695	3.049	1.488	2.041	1.876	2.039	2.477	4.110	3.831	1.359	-1.156	-4.729	-7.427	-9.483	-8.109	-5.595	476.562
0.277	1.617	0.942	2.737	3.726	1.833	3.114	3.408	2.822	1.688	0.616	-2.805	1.654	2.876	1.394	1.895	1.663	1.958	2.312	3.958	3.630	1.232	-1.295	-4.745	-7.660	-9.528	-7.781	-5.454	480.469
0.034	1.573	0.817	2.657	3.609	1.714	3.141	3.431	3.103	2.031	0.984	-2.485	1.662	2.719	1.254	1.704	1.431	1.809	2.132	3.779	3.414	1.128	-1.427	-4.651	-7.745	-9.383	-7.313	-5.176	484.375
-0.278	1.456	0.596	2.508	3.436	1.525	3.136	3.412	3.365	2.339	1.392	-2.062	1.737	2.604	1.077	1.471	1.190	1.599	1.950	3.582	3.203	1.061	-1.535	-4.427	-7.692	-9.076	-6.720	-4.758	488.281
-0.637	1.278	0.308	2.303	3.222	1.291	3.095	3.333	3.565	2.582	1.804	-1.565	1.888	2.557	0.880	1.209	0.958	1.352	1.786	3.377	3.018	1.049	-1.590	-4.076	-7.526	-8.656	-6.047	-4.231	492.188
-0.998	1.068	-0.002	2.070	2.995	1.046	3.014	3.182	3.660	2.725	2.167	-1.049	2.105	2.594	0.688	0.940	0.762	1.102	1.667	3.179	2.878	1.111	-1.564	-3.620	-7.282	-8.194	-5.368	-3.656	496.094
-1.305	0.870	-0.271	1.851	2.787	0.834	2.894	2.954	3.613	2.726	2.416	-0.591	2.364	2.716	0.531	0.698	0.631	0.891	1.623	3.005	2.800	1.260	-1.435	-3.104	-7.000	-7.768	-4.770	-3.118	500.000
-1.497	0.730	-0.436	1.690	2.635	0.697	2.734	2.656	3.403	2.550	2.491	-0.273	2.624	2.913	0.439	0.517	0.592	0.758	1.672	2.872	2.797	1.496	-1.196	-2.584	-6.718	-7.444	-4.344	-2.707	503.906
-1.521	0.691	-0.443	1.625	2.569	0.669	2.539	2.302	3.027	2.174	2.348	-0.164	2.837	3.156	0.433	0.430	0.659	0.732	1.822	2.795	2.867	1.805	-0.855	-2.123	-6.463	-7.265	-4.159	-2.498	507.812
-1.348	0.775	-0.265	1.677	2.605	0.771	2.315	1.919	2.506	1.602	1.973	-0.304	2.951	3.407	0.523	0.455	0.833	0.828	2.061	2.778	3.000	2.156	-0.439	-1.774	-6.249	-7.238	-4.248	-2.530	511.719
-0.982	0.982	0.092	1.845	2.742	0.999	2.072	1.541	1.882	0.863	1.388	-0.690	2.924	3.617	0.700	0.592	1.099	1.038	2.361	2.813	3.168	2.507	0.011	-1.572	-6.071	-7.329	-4.596	-2.795	515.625
-0.458	1.281	0.590	2.100	2.953	1.328	1.822	1.200	1.217	0.016	0.656	-1.275	2.728	3.737	0.939	0.818	1.423	1.341	2.678	2.879	3.334	2.808	0.450	-1.526	-5.908	-7.471	-5.137	-3.239	519.531
0.158	1.618	1.161	2.391	3.195	1.713	1.577	0.927	0.578	-0.862	-0.136	-1.975	2.359	3.728	1.205	1.089	1.766	1.701	2.965	2.942	3.452	3.017	0.832	-1.615	-5.728	-7.577	-5.764	-3.768	523.438
0.785	1.929	1.722	2.654	3.414	2.096	1.348	0.739	0.029	-1.684	-0.887	-2.685	1.838	3.567	1.457	1.354	2.080	2.076	3.179	2.964	3.482	3.102	1.128	-1.796	-5.499	-7.559	-6.348	-4.269	527.344
1.338	2.147	2.192	2.829	3.557	2.418	1.143	0.639	-0.381	-2.368	-1.504	-3.300	1.210	3.253	1.658	1.558	2.326	2.424	3.289	2.910	3.392	3.057	1.320	-2.006	-5.196	-7.347	-6.760	-4.635	531.250
1.748	2.224	2.506	2.868	3.583	2.627	0.970	0.613	-0.629	-2.854	-1.921	-3.734	0.540	2.816	1.781	1.660	2.473	2.711	3.280	2.758	3.175	2.896	1.409	-2.177	-4.812	-6.912	-6.898	-4.785	535.156
1.975	2.137	2.627	2.752	3.475	2.693	0.832	0.633	-0.718	-3.109	-2.109	-3.940	-0.097	2.304	1.818	1.639	2.509	2.913	3.162	2.505	2.845	2.655	1.414	-2.249	-4.359	-6.268	-6.705	-4.685	539.062
2.017	1.894	2.552	2.490	3.243	2.610	0.732	0.666	-0.678	-3.133	-2.082	-3.913	-0.628	1.786	1.774	1.497	2.440	3.015	2.961	2.171	2.442	2.386	1.364	-2.181	-3.874	-5.477	-6.184	-4.352	542.969
1.908	1.533	2.314	2.122	2.921	2.396	0.673	0.677	-0.555	-2.955	-1.888	-3.690	-0.997	1.330	1.677	1.263	2.290	3.019	2.719	1.796	2.023	2.147	1.295	-1.958	-3.405	-4.635	-5.392	-3.846	546.875
1.713	1.114	1.964	1.705	2.561	2.093	0.656	0.639	-0.402	-2.624	-1.598	-3.340	-1.168	0.996	1.561	0.981	2.097	2.935	2.485	1.429	1.648	1.992	1.245	-1.594	-3.008	-3.856	-4.436	-3.260	550.781
1.510	0.703	1.570	1.303	2.221	1.750	0.681	0.540	-0.265	-2.201	-1.287	-2.943	-1.133	0.824	1.467	0.702	1.903	2.787	2.305	1.122	1.372	1.963	1.245	-1.126	-2.730	-3.244	-3.441	-2.697	554.688
1.372	0.360	1.189	0.972	1.947	1.417	0.748	0.382	-0.175	-1.740	-1.018	-2.577	-0.912	0.829	1.429	0.472	1.748	2.601	2.216	0.915	1.232	2.078	1.320	-0.609	-2.604	-2.880	-2.537	-2.247	558.594
1.349	0.125	0.867	0.746	1.773	1.134	0.853	0.181	-0.142	-1.287	-0.829	-2.300	-0.547	0.997	1.466	0.324	1.657	2.409	2.233	0.829	1.240	2.333	1.476	-0.105	-2.639	-2.802	-1.827	-1.973	562.500
1.462	0.011	0.625	0.635	1.704	0.923	0.992	-0.035	-0.155	-0.869	-0.728	-2.140	-0.091	1.293	1.580	0.271	1.637	2.238	2.353	0.863	1.386	2.696	1.707	0.330	-2.822	-3.005	-1.372	-1.899	566.406
1.695	-0.001	0.462	0.621	1.726	0.790	1.158	-0.236	-0.190	-0.496	-0.698	-2.095	0.400	1.668	1.758	0.303	1.676	2.108	2.547	0.997	1.634	3.118	1.987	0.656	-3.119	-3.439	-1.188	-2.009	570.312
2.012	0.050	0.358	0.668	1.812	0.723	1.342	-0.392	-0.217	-0.165	-0.703	-2.138	0.876	2.068	1.971	0.394	1.747	2.034	2.778	1.194	1.941	3.540	2.281	0.851	-3.483	-4.025	-1.243	-2.258	574.219
2.360	0.110	0.285	0.732	1.926	0.705	1.536	-0.483	-0.206	0.131	-0.702	-2.227	1.299	2.446	2.189	0.511	1.819	2.020	2.999	1.415	2.259	3.907	2.548	0.917	-3.864	-4.670	-1.474	-2.583	578.125
2.690	0.129	0.216	0.773	2.036	0.714	1.729	-0.496	-0.139	0.401	-0.664	-2.317	1.649	2.767	2.383	0.620	1.865	2.062	3.174	1.619	2.547	4.174	2.753	0.875	-4.213	-5.278	-1.801	-2.916	582.031
2.964	0.072	0.131	0.763	2.121	0.735	1.915	-0.435	-0.014	0.645	-0.573	-2.377	1.919	3.011	2.533	0.695	1.870	2.155	3.276	1.780	2.779	4.318	2.871	0.762	-4.487	-5.771	-2.145	-3.200	585.938
3.163	-0.073	0.022	0.690	2.172	0.758	2.084	-0.313	0.155	0.851	-0.439	-2.393	2.112	3.177	2.634	0.722	1.834	2.289	3.302	1.881	2.943	4.338	2.898	0.619	-4.657	-6.097	-2.446	-3.401	589.844
3.284	-0.293	-0.104	0.565	2.192	0.782	2.222	-0.154	0.336	0.996	-0.296	-2.376	2.235	3.271	2.690	0.706	1.774	2.457	3.262	1.921	3.040	4.259	2.848	0.483	-4.707	-6.233	-2.672	-3.511	593.750
3.344	-0.553	-0.226	0.411	2.191	0.812	2.315	0.009	0.487	1.045	-0.195	-2.357	2.291	3.305	2.716	0.663	1.719	2.656	3.184	1.912	3.085	4.119	2.753	0.380	-4.634	-6.190	-2.823	-3.549	597.656
3.370	-0.804	-0.319	0.260	2.183	0.855	2.345	0.146	0.562	0.963	-0.193	-2.382	2.281	3.294	2.731	0.619	1.702	2.883	3.104	1.870	3.093	3.968	2.658	0.317	-4.450	-6.005	-2.929	-3.555	601.562
3.397	-0.993	-0.351	0.144	2.179	0.918	2.296	0.228	0.522	0.723	-0.340	-2.498	2.200	3.245	2.755	0.601	1.756	3.136	3.055	1.816	3.083	3.849	2.607	0.285	-4.175	-5.731	-3.032	-3.577	605.469
3.457	-1.079	-0.302	0.087	2.185	1.006	2.159	0.237	0.341	0.313	-0.662	-2.738	2.040	3.165	2.806	0.635	1.900	3.413	3.065	1.768	3.065	3.797	2.634	0.263	-3.835	-5.425	-3.178	-3.660	609.375
3.576	-1.039	-0.159	0.102	2.202	1.116	1.933	0.167	0.017	-0.253	-1.156	-3.110	1.800	3.053	2.893	0.730	2.136	3.707	3.146	1.735	3.045	3.824	2.758	0.225	-3.463	-5.136	-3.398	-3.829	613.281
3.763	-0.875	0.072	0.184	2.224	1.242	1.635	0.028	-0.426	-0.932	-1.783	-3.593	1.484	2.909	3.014	0.885	2.448	4.010	3.294	1.719	3.019	3.927	2.974	0.149	-3.089	-4.900	-3.699	-4.088	617.188
4.009	-0.609	0.370	0.317	2.241	1.377	1.295	-0.154	-0.942	-1.658	-2.475	-4.139	1.111	2.734	3.162	1.080	2.803	4.311	3.492	1.711	2.979	4.082	3.255	0.020	-2.747	-4.735	-4.066	-4.416	621.094
4.286	-0.284	0.706	0.474	2.244	1.512	0.954	-0.345	-1.463	-2.347	-3.144	-4.681	0.709	2.531	3.316	1.284	3.155	4.595	3.706	1.697	2.915	4.251	3.562	-0.163	-2.468	-4.649	-4.459	-4.772	625.000
4.555	0.049	1.042	0.625	2.226	1.640	0.660	-0.503	-1.918	-2.911	-3.700	-5.147	0.318	2.309	3.457	1.462	3.461	4.846	3.900	1.657	2.814	4.397	3.843	-0.388	-2.279	-4.635	-4.830	-5.110	628.906
4.772	0.340	1.346	0.743	2.187	1.758	0.459	-0.590	-2.236	-3.273	-4.069	-5.478	-0.025	2.079	3.562	1.580	3.682	5.048	4.036	1.576	2.669	4.481	4.053	-0.633	-2.200	-4.688	-5.134	-5.386	632.812
4.898	0.549	1.591	0.809	2.131	1.864	0.383	-0.579	-2.366	-3.383	-4.203	-5.636	-0.283	1.857	3.617	1.614	3.798	5.192	4.088	1.443	2.479	4.480	4.157	-0.867	-2.242	-4.798	-5.335	-5.569	636.719
4.910	0.653	1.760	0.812	2.063	1.954	0.448	-0.457	-2.286	-3.222	-4.095	-5.615	-0.430	1.660	3.613	1.554	3.803	5.268	4.045	1.257	2.251	4.386	4.140	-1.060	-2.401	-4.953	-5.416	-5.647	640.625
4.800	0.643	1.847	0.751	1.992	2.026	0.647	-0.232	-2.002	-2.814	-3.772	-5.437	-0.457	1.505	3.552	1.406	3.708	5.279	3.911	1.028	1.997	4.209	4.007	-1.183	-2.658	-5.140	-5.380	-5.627	644.531
4.581	0.532	1.853	0.634	1.922	2.073	0.954	0.071	-1.552	-2.214	-3.293	-5.147	-0.367	1.403	3.443	1.188	3.534	5.230	3.709	0.773	1.736	3.973	3.786	-1.215	-2.980	-5.340	-5.243	-5.529	648.438
4.283	0.342	1.786	0.473	1.856	2.087	1.325	0.415	-0.999	-1.503	-2.737	-4.801	-0.180	1.363	3.301	0.930	3.306	5.131	3.468	0.517	1.490	3.712	3.512	-1.145	-3.326	-5.531	-5.030	-5.381	652.344
3.943	0.107	1.661	0.286	1.791	2.064	1.711	0.753	-0.419	-0.771	-2.185	-4.455	0.073	1.384	3.141	0.666	3.051	4.996	3.224	0.284	1.280	3.463	3.231	-0.978	-3.652	-5.686	-4.772	-5.214	656.250
3.603	-0.137	1.499	0.092	1.725	2.001	2.060	1.035	0.109	-0.108	-1.712	-4.155	0.356	1.460	2.983	0.429	2.796	4.840	3.010	0.097	1.125	3.261	2.981	-0.731	-3.922	-5.784	-4.496	-5.050	660.156
3.298	-0.354	1.323	-0.089	1.655	1.902	2.326	1.220	0.513	0.409	-1.373	-3.933	0.631	1.579	2.843	0.249	2.564	4.684	2.851	-0.024	1.036	3.131	2.795	-0.434	-4.107	-5.812	-4.230	-4.908	664.062
3.053	-0.512	1.159	-0.235	1.577	1.777	2.474	1.278	0.740	0.728	-1.203	-3.803	0.863	1.723	2.735	0.148	2.380	4.549	2.764	-0.066	1.019	3.087	2.693	-0.129	-4.199	-5.772	-3.998	-4.797	667.969
2.877	-0.589	1.034	-0.332	1.494	1.640	2.485	1.194	0.763	0.822	-1.209	-3.767	1.026	1.870	2.671	0.136	2.268	4.463	2.756	-0.027	1.071	3.130	2.680	0.138	-4.205	-5.680	-3.824	-4.725	671.875
2.767	-0.575	0.966	-0.370	1.409	1.508	2.354	0.977	0.582	0.693	-1.377	-3.813	1.100	2.000	2.657	0.215	2.246	4.450	2.823	0.088	1.180	3.249	2.751	0.325	-4.144	-5.565	-3.730	-4.694	675.781
2.712	-0.476	0.962	-0.349	1.325	1.394	2.097	0.652	0.230	0.371	-1.672	-3.924	1.079	2.093	2.693	0.372	2.326	4.528	2.954	0.261	1.328	3.423	2.888	0.398	-4.045	-5.457	-3.733	-4.704	679.688
2.693	-0.313	1.020	-0.282	1.245	1.308	1.745	0.265	-0.237	-0.091	-2.046	-4.077	0.971	2.138	2.773	0.585	2.501	4.703	3.131	0.469	1.492	3.625	3.068	0.340	-3.939	-5.386	-3.840	-4.751	683.594
2.689	-0.122	1.120	-0.189	1.172	1.254	1.344	-0.129	-0.750	-0.625	-2.442	-4.246	0.797	2.135	2.882	0.820	2.752	4.962	3.330	0.679	1.651	3.829	3.267	0.160	-3.848	-5.369	-4.043	-4.826	687.500
2.678	0.054	1.234	-0.101	1.101	1.224	0.946	-0.474	-1.233	-1.154	-2.806	-4.404	0.592	2.094	2.998	1.035	3.039	5.274	3.526	0.860	1.788	4.015	3.461	-0.110	-3.788	-5.407	-4.315	-4.912	691.406
2.638	0.168	1.327	-0.049	1.031	1.207	0.608	-0.720	-1.617	-1.605	-3.086	-4.523	0.400	2.038	3.095	1.190	3.315	5.594	3.698	0.983	1.891	4.170	3.634	-0.417	-3.758	-5.484	-4.609	-4.986	695.312
2.549	0.182	1.363	-0.063	0.954	1.186	0.376	-0.837	-1.852	-1.917	-3.244	-4.576	0.266	1.995	3.146	1.250	3.534	5.872	3.827	1.026	1.960	4.295	3.775	-0.696	-3.746	-5.569	-4.867	-5.018	699.219
2.391	0.068	1.313	-0.164	0.866	1.142	0.282	-0.810	-1.910	-2.046	-3.256	-4.541	0.227	1.991	3.130	1.189	3.653	6.057	3.900	0.980	1.999	4.395	3.882	-0.880	-3.727	-5.620	-5.028	-4.977	703.125
2.153	-0.181	1.159	-0.360	0.763	1.062	0.337	-0.649	-1.789	-1.978	-3.116	-4.401	0.308	2.047	3.031	0.999	3.646	6.112	3.910	0.846	2.016	4.482	3.956	-0.916	-3.675	-5.592	-5.037	-4.838	707.031
1.830	-0.554	0.898	-0.645	0.644	0.939	0.529	-0.386	-1.513	-1.722	-2.837	-4.155	0.511	2.169	2.845	0.685	3.504	6.014	3.856	0.635	2.019	4.562	4.003	-0.774	-3.558	-5.448	-4.861	-4.587	710.938
1.428	-1.022	0.545	-1.000	0.512	0.772	0.825	-0.064	-1.128	-1.317	-2.452	-3.812	0.820	2.349	2.575	0.272	3.231	5.761	3.739	0.368	2.015	4.640	4.027	-0.454	-3.356	-5.163	-4.490	-4.223	714.844
0.962	-1.542	0.127	-1.397	0.372	0.572	1.176	0.267	-0.690	-0.817	-2.005	-3.394	1.202	2.567	2.234	-0.206	2.846	5.370	3.563	0.072	2.008	4.711	4.032	0.019	-3.059	-4.732	-3.940	-3.761	718.750
0.453	-2.068	-0.322	-1.799	0.234	0.354	1.531	0.561	-0.258	-0.286	-1.543	-2.931	1.616	2.797	1.843	-0.708	2.379	4.871	3.335	-0.227	1.996	4.766	4.019	0.600	-2.671	-4.169	-3.250	-3.233	722.656
-0.074	-2.558	-0.765	-2.173	0.109	0.139	1.846	0.785	0.123	0.218	-1.110	-2.456	2.021	3.010	1.423	-1.193	1.865	4.305	3.064	-0.503	1.979	4.795	3.986	1.229	-2.216	-3.509	-2.473	-2.675	726.562
-0.596	-2.976	-1.169	-2.489	0.010	-0.053	2.091	0.927	0.424	0.653	-0.735	-1.997	2.383	3.187	1.002	-1.625	1.342	3.715	2.760	-0.738	1.955	4.788	3.928	1.848	-1.730	-2.802	-1.672	-2.126	730.469
-1.091	-3.297	-1.508	-2.724	-0.051	-0.203	2.257	0.990	0.642	0.996	-0.427	-1.572	2.682	3.317	0.601	-1.980	0.843	3.139	2.434	-0.923	1.923	4.737	3.840	2.403	-1.260	-2.106	-0.906	-1.621	734.375
-1.540	-3.510	-1.767	-2.866	-0.066	-0.299	2.352	0.994	0.791	1.250	-0.182	-1.189	2.911	3.400	0.241	-2.246	0.398	2.607	2.100	-1.055	1.887	4.639	3.716	2.853	-0.857	-1.480	-0.228	-1.186	738.281
-1.930	-3.614	-1.942	-2.911	-0.033	-0.334	2.401	0.966	0.897	1.434	0.021	-0.847	3.076	3.443	-0.062	-2.422	0.030	2.144	1.770	-1.141	1.849	4.497	3.553	3.171	-0.562	-0.977	0.320	-0.834	742.188
-2.251	-3.616	-2.037	-2.867	0.044	-0.313	2.431	0.931	0.989	1.574	0.202	-0.540	3.187	3.460	-0.297	-2.515	-0.250	1.765	1.458	-1.188	1.815	4.317	3.354	3.347	-0.408	-0.633	0.710	-0.572	746.094
-2.492	-3.532	-2.065	-2.751	0.155	-0.249	2.468	0.906	1.088	1.698	0.381	-0.263	3.259	3.465	-0.455	-2.539	-0.432	1.481	1.179	-1.207	1.791	4.112	3.130	3.382	-0.406	-0.471	0.927	-0.395	750.000
-2.649	-3.381	-2.042	-2.584	0.281	-0.159	2.526	0.897	1.203	1.824	0.566	-0.014	3.305	3.468	-0.534	-2.506	-0.519	1.299	0.945	-1.204	1.780	3.896	2.893	3.288	-0.553	-0.492	0.971	-0.298	753.906
-2.719	-3.187	-1.989	-2.390	0.403	-0.068	2.606	0.901	1.329	1.957	0.754	0.201	3.331	3.475	-0.535	-2.429	-0.515	1.223	0.769	-1.182	1.784	3.682	2.662	3.087	-0.823	-0.681	0.855	-0.269	757.812
-2.705	-2.972	-1.922	-2.194	0.503	0.005	2.698	0.908	1.452	2.089	0.931	0.371	3.341	3.488	-0.463	-2.317	-0.432	1.248	0.659	-1.143	1.805	3.487	2.454	2.808	-1.181	-1.004	0.606	-0.299	761.719
-2.620	-2.757	-1.859	-2.017	0.568	0.042	2.782	0.905	1.551	2.203	1.077	0.481	3.337	3.504	-0.332	-2.174	-0.286	1.365	0.616	-1.082	1.840	3.323	2.287	2.487	-1.578	-1.415	0.263	-0.379	765.625
-2.486	-2.557	-1.809	-1.872	0.592	0.034	2.839	0.881	1.604	2.275	1.167	0.517	3.319	3.520	-0.158	-2.002	-0.092	1.556	0.641	-0.994	1.887	3.203	2.174	2.165	-1.963	-1.861	-0.127	-0.498	769.531
-2.336	-2.382	-1.774	-1.767	0.579	-0.019	2.850	0.830	1.592	2.285	1.179	0.464	3.286	3.532	0.039	-1.798	0.136	1.798	0.726	-0.873	1.947	3.136	2.126	1.882	-2.288	-2.286	-0.512	-0.651	773.438
-2.210	-2.235	-1.752	-1.699	0.539	-0.109	2.806	0.751	1.503	2.218	1.097	0.315	3.240	3.538	0.237	-1.561	0.390	2.066	0.865	-0.716	2.017	3.131	2.148	1.674	-2.511	-2.644	-0.847	-0.833	777.344
-2.144	-2.114	-1.735	-1.663	0.488	-0.221	2.705	0.647	1.335	2.069	0.915	0.069	3.183	3.535	0.420	-1.287	0.668	2.336	1.048	-0.522	2.097	3.190	2.239	1.566	-2.609	-2.900	-1.097	-1.039	781.250
-2.165	-2.011	-1.714	-1.647	0.440	-0.342	2.552	0.523	1.094	1.843	0.636	-0.265	3.118	3.523	0.575	-0.975	0.970	2.591	1.266	-0.292	2.187	3.311	2.393	1.567	-2.575	-3.041	-1.248	-1.267	785.156
-2.281	-1.917	-1.683	-1.639	0.406	-0.458	2.361	0.388	0.794	1.556	0.274	-0.672	3.049	3.504	0.700	-0.629	1.295	2.820	1.508	-0.032	2.287	3.482	2.597	1.666	-2.426	-3.074	-1.304	-1.514	789.062
-2.480	-1.824	-1.639	-1.632	0.391	-0.563	2.145	0.248	0.456	1.226	-0.144	-1.127	2.977	3.479	0.798	-0.256	1.642	3.025	1.765	0.249	2.393	3.688	2.832	1.838	-2.194	-3.029	-1.287	-1.773	792.969
-2.728	-1.727	-1.584	-1.618	0.391	-0.656	1.920	0.107	0.101	0.878	-0.588	-1.605	2.905	3.452	0.881	0.133	2.001	3.214	2.024	0.541	2.504	3.909	3.080	2.045	-1.924	-2.944	-1.233	-2.040	796.875
