FP1	F3	F7	FC3	C3	C5	P3	P7	PO7	PO3	O1	Oz	Pz	CPz	FP2	Fz	F4	F8	FC4	FCz	Cz	C4	C6	P4	P8	PO8	PO4	O2	time
0.853	-0.604	1.002	-0.541	-0.717	-0.351	-0.055	0.061	-0.720	-0.142	0.092	0.315	0.097	-0.528	-0.543	-1.421	-0.842	-0.748	-1.197	-1.883	-1.411	-1.039	-0.506	-0.283	0.555	0.666	-0.210	0.355	-199.219
0.329	-0.473	0.820	-0.246	-0.307	-0.076	0.438	0.311	-0.370	0.153	0.132	0.204	0.299	-0.283	-0.570	-1.327	-0.712	-0.770	-1.012	-1.659	-1.150	-0.848	-0.520	-0.007	0.368	0.390	-0.013	0.159	-195.312
-0.188	-0.394	0.635	-0.012	0.045	0.168	0.915	0.578	0.022	0.493	0.237	0.148	0.492	-0.074	-0.635	-1.287	-0.656	-0.829	-0.885	-1.497	-0.944	-0.689	-0.554	0.276	0.221	0.184	0.213	0.025	-191.406
-0.683	-0.404	0.446	0.114	0.288	0.352	1.346	0.867	0.477	0.898	0.444	0.186	0.663	0.071	-0.761	-1.337	-0.717	-0.943	-0.849	-1.439	-0.831	-0.585	-0.617	0.566	0.144	0.099	0.482	-0.002	-187.500
-1.130	-0.517	0.258	0.105	0.388	0.453	1.697	1.165	0.983	1.356	0.759	0.331	0.804	0.139	-0.948	-1.482	-0.904	-1.111	-0.915	-1.492	-0.824	-0.542	-0.703	0.851	0.152	0.155	0.791	0.101	-183.594
-1.499	-0.720	0.079	-0.036	0.334	0.458	1.930	1.441	1.499	1.822	1.153	0.566	0.904	0.130	-1.172	-1.697	-1.185	-1.308	-1.061	-1.634	-0.913	-0.552	-0.796	1.112	0.244	0.339	1.117	0.322	-179.688
-1.759	-0.975	-0.081	-0.282	0.138	0.367	2.011	1.655	1.963	2.229	1.565	0.850	0.958	0.059	-1.394	-1.931	-1.498	-1.495	-1.240	-1.814	-1.061	-0.592	-0.871	1.323	0.400	0.609	1.420	0.625	-175.781
-1.888	-1.230	-0.206	-0.584	-0.164	0.192	1.916	1.767	2.305	2.504	1.922	1.125	0.960	-0.047	-1.565	-2.120	-1.763	-1.622	-1.394	-1.965	-1.219	-0.636	-0.905	1.458	0.590	0.903	1.656	0.954	-171.875
-1.879	-1.435	-0.281	-0.887	-0.522	-0.041	1.643	1.749	2.469	2.588	2.153	1.335	0.908	-0.163	-1.645	-2.205	-1.906	-1.649	-1.469	-2.026	-1.336	-0.655	-0.877	1.493	0.777	1.155	1.784	1.247	-167.969
-1.743	-1.547	-0.297	-1.139	-0.882	-0.297	1.210	1.593	2.425	2.452	2.210	1.435	0.806	-0.262	-1.608	-2.147	-1.874	-1.549	-1.426	-1.951	-1.371	-0.632	-0.776	1.418	0.926	1.312	1.777	1.455	-164.062
-1.507	-1.548	-0.252	-1.300	-1.191	-0.543	0.661	1.313	2.177	2.104	2.079	1.404	0.659	-0.329	-1.452	-1.938	-1.656	-1.316	-1.250	-1.729	-1.305	-0.557	-0.605	1.235	1.010	1.348	1.632	1.547	-160.156
-1.210	-1.441	-0.152	-1.355	-1.414	-0.745	0.054	0.942	1.761	1.587	1.778	1.244	0.475	-0.359	-1.196	-1.600	-1.278	-0.969	-0.956	-1.377	-1.140	-0.433	-0.378	0.962	1.018	1.261	1.367	1.515	-156.250
-0.899	-1.250	-0.016	-1.307	-1.528	-0.883	-0.544	0.526	1.238	0.973	1.354	0.985	0.268	-0.358	-0.881	-1.183	-0.799	-0.546	-0.580	-0.943	-0.902	-0.272	-0.116	0.632	0.955	1.079	1.022	1.377	-152.344
-0.612	-1.012	0.133	-1.174	-1.531	-0.945	-1.070	0.111	0.677	0.342	0.868	0.666	0.051	-0.339	-0.551	-0.746	-0.298	-0.096	-0.169	-0.486	-0.626	-0.091	0.154	0.281	0.836	0.844	0.645	1.164	-148.438
-0.379	-0.765	0.267	-0.984	-1.432	-0.932	-1.473	-0.266	0.140	-0.232	0.383	0.333	-0.163	-0.316	-0.249	-0.346	0.149	0.332	0.225	-0.065	-0.353	0.089	0.406	-0.052	0.686	0.598	0.281	0.913	-144.531
-0.210	-0.539	0.366	-0.760	-1.250	-0.855	-1.722	-0.580	-0.325	-0.696	-0.050	0.026	-0.359	-0.304	-0.004	-0.020	0.488	0.697	0.561	0.277	-0.116	0.252	0.617	-0.337	0.531	0.378	-0.033	0.658	-140.625
-0.099	-0.350	0.415	-0.525	-1.007	-0.729	-1.808	-0.819	-0.693	-1.021	-0.397	-0.225	-0.526	-0.308	0.170	0.215	0.690	0.970	0.811	0.516	0.066	0.381	0.769	-0.556	0.391	0.203	-0.279	0.424	-136.719
-0.030	-0.201	0.408	-0.289	-0.724	-0.574	-1.742	-0.986	-0.958	-1.203	-0.645	-0.403	-0.655	-0.328	0.278	0.362	0.761	1.136	0.962	0.653	0.186	0.466	0.854	-0.700	0.279	0.077	-0.451	0.228	-132.812
0.019	-0.085	0.347	-0.062	-0.421	-0.408	-1.547	-1.086	-1.128	-1.258	-0.792	-0.504	-0.735	-0.354	0.333	0.442	0.728	1.193	1.013	0.705	0.254	0.500	0.866	-0.772	0.200	-0.004	-0.553	0.080	-128.906
0.060	0.010	0.240	0.152	-0.117	-0.250	-1.257	-1.127	-1.215	-1.205	-0.847	-0.529	-0.757	-0.371	0.354	0.481	0.631	1.144	0.975	0.699	0.285	0.483	0.808	-0.778	0.151	-0.052	-0.592	-0.015	-125.000
0.101	0.092	0.095	0.343	0.170	-0.116	-0.905	-1.115	-1.231	-1.067	-0.819	-0.485	-0.711	-0.364	0.358	0.500	0.512	1.000	0.864	0.662	0.296	0.419	0.683	-0.724	0.127	-0.074	-0.572	-0.052	-121.094
0.139	0.164	-0.083	0.498	0.422	-0.018	-0.522	-1.050	-1.177	-0.857	-0.713	-0.381	-0.593	-0.319	0.352	0.514	0.398	0.774	0.699	0.615	0.305	0.317	0.505	-0.614	0.120	-0.072	-0.491	-0.031	-117.188
0.164	0.216	-0.288	0.600	0.624	0.033	-0.130	-0.929	-1.047	-0.584	-0.536	-0.227	-0.401	-0.229	0.340	0.523	0.302	0.482	0.498	0.567	0.318	0.190	0.288	-0.453	0.124	-0.042	-0.346	0.046	-113.281
0.167	0.237	-0.517	0.636	0.761	0.035	0.251	-0.751	-0.829	-0.253	-0.292	-0.036	-0.145	-0.096	0.318	0.519	0.217	0.146	0.278	0.520	0.338	0.052	0.053	-0.245	0.133	0.025	-0.133	0.174	-109.375
0.140	0.209	-0.763	0.596	0.827	-0.011	0.608	-0.518	-0.519	0.128	0.009	0.180	0.159	0.069	0.276	0.489	0.122	-0.210	0.054	0.468	0.360	-0.084	-0.179	0.002	0.147	0.134	0.143	0.338	-105.469
0.077	0.122	-1.013	0.481	0.819	-0.099	0.929	-0.238	-0.124	0.540	0.347	0.402	0.483	0.249	0.209	0.421	-0.003	-0.555	-0.163	0.402	0.374	-0.208	-0.388	0.274	0.167	0.287	0.470	0.518	-101.562
-0.021	-0.025	-1.247	0.303	0.743	-0.217	1.198	0.068	0.328	0.953	0.693	0.612	0.797	0.424	0.112	0.311	-0.174	-0.857	-0.363	0.316	0.374	-0.313	-0.557	0.552	0.193	0.474	0.823	0.692	-97.656
-0.148	-0.221	-1.442	0.085	0.608	-0.349	1.399	0.371	0.790	1.324	1.005	0.787	1.068	0.571	-0.009	0.163	-0.388	-1.084	-0.534	0.210	0.355	-0.394	-0.671	0.810	0.226	0.679	1.169	0.835	-93.750
-0.291	-0.443	-1.576	-0.146	0.427	-0.482	1.512	0.634	1.202	1.604	1.242	0.910	1.264	0.675	-0.142	-0.003	-0.623	-1.207	-0.665	0.090	0.317	-0.444	-0.722	1.024	0.265	0.875	1.468	0.927	-89.844
-0.434	-0.658	-1.631	-0.366	0.214	-0.604	1.520	0.820	1.498	1.750	1.364	0.963	1.364	0.724	-0.265	-0.162	-0.839	-1.204	-0.744	-0.031	0.263	-0.459	-0.707	1.170	0.302	1.029	1.681	0.953	-85.938
-0.555	-0.835	-1.601	-0.552	-0.018	-0.704	1.410	0.900	1.629	1.727	1.346	0.941	1.359	0.714	-0.353	-0.284	-0.989	-1.068	-0.759	-0.139	0.201	-0.434	-0.626	1.231	0.327	1.110	1.776	0.907	-82.031
-0.633	-0.944	-1.492	-0.692	-0.257	-0.780	1.184	0.858	1.565	1.527	1.184	0.844	1.248	0.649	-0.384	-0.344	-1.032	-0.803	-0.705	-0.221	0.138	-0.367	-0.487	1.196	0.325	1.091	1.734	0.791	-78.125
-0.649	-0.970	-1.318	-0.781	-0.488	-0.828	0.853	0.699	1.313	1.166	0.898	0.686	1.048	0.536	-0.344	-0.331	-0.945	-0.435	-0.585	-0.266	0.081	-0.262	-0.305	1.068	0.284	0.957	1.554	0.618	-74.219
-0.594	-0.908	-1.099	-0.821	-0.696	-0.843	0.443	0.448	0.912	0.684	0.531	0.487	0.779	0.390	-0.232	-0.243	-0.731	-0.003	-0.414	-0.273	0.035	-0.134	-0.100	0.855	0.193	0.712	1.249	0.407	-70.312
-0.464	-0.766	-0.854	-0.813	-0.860	-0.821	-0.006	0.146	0.426	0.139	0.134	0.271	0.470	0.223	-0.065	-0.096	-0.420	0.440	-0.216	-0.246	0.001	0.001	0.105	0.578	0.051	0.380	0.851	0.177	-66.406
-0.271	-0.562	-0.600	-0.761	-0.959	-0.754	-0.450	-0.157	-0.068	-0.403	-0.237	0.060	0.147	0.053	0.131	0.083	-0.062	0.839	-0.020	-0.193	-0.021	0.125	0.287	0.262	-0.130	-0.001	0.396	-0.052	-62.500
-0.033	-0.315	-0.347	-0.665	-0.974	-0.633	-0.847	-0.417	-0.497	-0.882	-0.539	-0.130	-0.167	-0.106	0.324	0.268	0.286	1.146	0.151	-0.122	-0.030	0.223	0.430	-0.065	-0.330	-0.383	-0.076	-0.269	-58.594
0.221	-0.044	-0.100	-0.525	-0.891	-0.453	-1.159	-0.599	-0.811	-1.256	-0.751	-0.294	-0.455	-0.244	0.484	0.433	0.573	1.327	0.281	-0.039	-0.025	0.292	0.528	-0.378	-0.520	-0.721	-0.527	-0.468	-54.688
0.467	0.236	0.138	-0.339	-0.708	-0.215	-1.364	-0.690	-0.989	-1.503	-0.874	-0.435	-0.708	-0.349	0.590	0.565	0.769	1.374	0.370	0.057	0.000	0.336	0.584	-0.652	-0.674	-0.976	-0.933	-0.654	-50.781
0.686	0.516	0.365	-0.109	-0.433	0.074	-1.451	-0.696	-1.042	-1.628	-0.932	-0.563	-0.920	-0.416	0.640	0.664	0.870	1.297	0.430	0.171	0.051	0.370	0.609	-0.875	-0.771	-1.133	-1.275	-0.832	-46.875
0.868	0.790	0.577	0.158	-0.090	0.398	-1.429	-0.640	-1.007	-1.654	-0.962	-0.689	-1.093	-0.439	0.645	0.744	0.894	1.132	0.482	0.313	0.136	0.409	0.616	-1.039	-0.804	-1.194	-1.548	-1.011	-42.969
1.016	1.055	0.767	0.449	0.292	0.734	-1.315	-0.554	-0.934	-1.615	-1.000	-0.824	-1.223	-0.419	0.630	0.824	0.876	0.923	0.548	0.491	0.261	0.463	0.614	-1.147	-0.783	-1.183	-1.755	-1.192	-39.062
1.141	1.307	0.929	0.748	0.678	1.053	-1.136	-0.471	-0.874	-1.545	-1.076	-0.970	-1.311	-0.355	0.623	0.922	0.857	0.719	0.639	0.708	0.423	0.534	0.606	-1.209	-0.734	-1.136	-1.904	-1.374	-35.156
1.253	1.543	1.057	1.035	1.034	1.329	-0.917	-0.415	-0.864	-1.472	-1.201	-1.123	-1.350	-0.254	0.648	1.052	0.867	0.560	0.757	0.958	0.617	0.613	0.586	-1.238	-0.691	-1.097	-2.004	-1.549	-31.250
1.355	1.755	1.145	1.292	1.333	1.537	-0.686	-0.398	-0.916	-1.408	-1.362	-1.268	-1.337	-0.122	0.716	1.216	0.924	0.466	0.888	1.228	0.825	0.680	0.544	-1.246	-0.688	-1.102	-2.064	-1.704	-27.344
1.443	1.936	1.194	1.502	1.555	1.659	-0.460	-0.415	-1.017	-1.352	-1.531	-1.385	-1.266	0.030	0.823	1.405	1.021	0.438	1.005	1.491	1.026	0.711	0.466	-1.240	-0.749	-1.172	-2.088	-1.824	-23.438
1.501	2.078	1.203	1.655	1.692	1.687	-0.253	-0.448	-1.132	-1.287	-1.667	-1.453	-1.134	0.190	0.947	1.595	1.135	0.454	1.076	1.719	1.193	0.685	0.343	-1.224	-0.882	-1.302	-2.074	-1.890	-19.531
1.509	2.170	1.175	1.741	1.739	1.621	-0.069	-0.471	-1.213	-1.189	-1.725	-1.448	-0.946	0.348	1.056	1.759	1.224	0.478	1.070	1.882	1.304	0.589	0.169	-1.191	-1.073	-1.469	-2.015	-1.886	-15.625
1.446	2.199	1.108	1.756	1.701	1.470	0.089	-0.460	-1.212	-1.037	-1.672	-1.357	-0.710	0.489	1.116	1.863	1.250	0.474	0.966	1.955	1.342	0.419	-0.051	-1.131	-1.288	-1.627	-1.897	-1.795	-11.719
1.299	2.154	1.001	1.696	1.581	1.245	0.218	-0.395	-1.091	-0.817	-1.488	-1.172	-0.446	0.603	1.100	1.884	1.182	0.411	0.762	1.923	1.297	0.188	-0.306	-1.036	-1.483	-1.724	-1.708	-1.611	-7.812
1.070	2.028	0.854	1.556	1.385	0.965	0.315	-0.267	-0.837	-0.528	-1.178	-0.902	-0.178	0.676	0.998	1.806	1.014	0.278	0.472	1.784	1.170	-0.085	-0.575	-0.901	-1.611	-1.711	-1.444	-1.332	-3.906
0.782	1.822	0.671	1.340	1.121	0.649	0.372	-0.082	-0.457	-0.185	-0.766	-0.564	0.062	0.697	0.816	1.633	0.764	0.082	0.129	1.547	0.968	-0.370	-0.835	-0.729	-1.638	-1.559	-1.110	-0.971	0.000
0.470	1.548	0.462	1.059	0.799	0.322	0.383	0.147	0.016	0.181	-0.294	-0.187	0.242	0.655	0.583	1.383	0.473	-0.153	-0.222	1.238	0.708	-0.642	-1.066	-0.539	-1.551	-1.266	-0.730	-0.553	3.906
0.183	1.232	0.245	0.733	0.437	0.007	0.339	0.396	0.532	0.531	0.188	0.191	0.335	0.544	0.334	1.087	0.193	-0.389	-0.532	0.888	0.408	-0.876	-1.251	-0.358	-1.360	-0.862	-0.344	-0.113	7.812
-0.036	0.907	0.046	0.390	0.059	-0.269	0.238	0.641	1.034	0.825	0.627	0.532	0.322	0.364	0.111	0.780	-0.026	-0.584	-0.760	0.534	0.092	-1.056	-1.381	-0.219	-1.101	-0.402	-0.004	0.303	11.719
-0.154	0.609	-0.109	0.067	-0.305	-0.483	0.082	0.857	1.465	1.026	0.978	0.801	0.196	0.122	-0.054	0.497	-0.147	-0.701	-0.879	0.212	-0.218	-1.176	-1.453	-0.150	-0.820	0.047	0.239	0.652	15.625
-0.160	0.370	-0.198	-0.201	-0.624	-0.618	-0.121	1.023	1.776	1.110	1.209	0.973	-0.031	-0.165	-0.143	0.264	-0.155	-0.716	-0.879	-0.051	-0.498	-1.235	-1.469	-0.170	-0.567	0.416	0.344	0.898	19.531
-0.065	0.209	-0.210	-0.388	-0.869	-0.666	-0.355	1.124	1.936	1.067	1.306	1.038	-0.332	-0.471	-0.152	0.098	-0.060	-0.620	-0.767	-0.236	-0.729	-1.235	-1.430	-0.280	-0.382	0.654	0.292	1.021	23.438
0.100	0.132	-0.150	-0.480	-1.021	-0.631	-0.604	1.150	1.933	0.904	1.272	0.999	-0.670	-0.765	-0.093	-0.000	0.116	-0.426	-0.569	-0.333	-0.895	-1.184	-1.339	-0.463	-0.288	0.736	0.090	1.019	27.344
0.297	0.124	-0.037	-0.483	-1.075	-0.533	-0.846	1.102	1.773	0.639	1.126	0.874	-1.001	-1.018	0.012	-0.038	0.335	-0.159	-0.318	-0.348	-0.985	-1.089	-1.197	-0.687	-0.283	0.666	-0.226	0.911	31.250
0.487	0.160	0.099	-0.417	-1.040	-0.401	-1.065	0.986	1.486	0.303	0.899	0.689	-1.284	-1.202	0.138	-0.031	0.559	0.146	-0.051	-0.293	-0.999	-0.959	-1.007	-0.912	-0.349	0.476	-0.605	0.724	35.156
0.642	0.211	0.224	-0.313	-0.941	-0.269	-1.244	0.816	1.113	-0.070	0.624	0.469	-1.490	-1.302	0.262	0.003	0.756	0.452	0.196	-0.187	-0.943	-0.807	-0.779	-1.098	-0.449	0.219	-0.983	0.493	39.062
0.750	0.248	0.308	-0.208	-0.806	-0.171	-1.373	0.613	0.704	-0.445	0.329	0.233	-1.604	-1.315	0.369	0.048	0.903	0.729	0.391	-0.054	-0.831	-0.648	-0.527	-1.215	-0.540	-0.045	-1.303	0.249	42.969
0.812	0.255	0.331	-0.129	-0.668	-0.131	-1.445	0.400	0.310	-0.794	0.035	-0.010	-1.632	-1.254	0.450	0.093	0.989	0.952	0.515	0.083	-0.682	-0.501	-0.273	-1.244	-0.577	-0.254	-1.517	0.012	46.875
0.840	0.226	0.292	-0.095	-0.552	-0.161	-1.463	0.204	-0.022	-1.092	-0.248	-0.266	-1.597	-1.146	0.504	0.133	1.018	1.109	0.558	0.205	-0.523	-0.386	-0.042	-1.185	-0.524	-0.356	-1.598	-0.206	50.781
0.847	0.168	0.198	-0.110	-0.478	-0.257	-1.435	0.046	-0.257	-1.327	-0.523	-0.550	-1.533	-1.029	0.531	0.166	0.998	1.196	0.519	0.296	-0.381	-0.321	0.141	-1.047	-0.354	-0.308	-1.536	-0.405	54.688
0.845	0.096	0.068	-0.168	-0.456	-0.405	-1.375	-0.054	-0.368	-1.489	-0.794	-0.881	-1.481	-0.943	0.533	0.191	0.942	1.218	0.406	0.345	-0.283	-0.322	0.256	-0.853	-0.055	-0.083	-1.339	-0.593	58.594
0.833	0.023	-0.079	-0.257	-0.489	-0.584	-1.299	-0.082	-0.343	-1.575	-1.066	-1.274	-1.475	-0.923	0.508	0.207	0.862	1.179	0.235	0.347	-0.253	-0.396	0.293	-0.625	0.374	0.329	-1.029	-0.781	62.500
0.802	-0.042	-0.228	-0.361	-0.572	-0.771	-1.223	-0.029	-0.175	-1.578	-1.337	-1.735	-1.535	-0.995	0.451	0.209	0.765	1.087	0.024	0.298	-0.305	-0.540	0.252	-0.386	0.920	0.922	-0.636	-0.977	66.406
0.736	-0.096	-0.372	-0.472	-0.702	-0.947	-1.156	0.109	0.141	-1.487	-1.593	-2.253	-1.664	-1.165	0.356	0.187	0.656	0.942	-0.210	0.197	-0.447	-0.744	0.144	-0.154	1.558	1.671	-0.194	-1.187	70.312
0.613	-0.148	-0.516	-0.586	-0.869	-1.102	-1.094	0.334	0.609	-1.286	-1.805	-2.801	-1.840	-1.421	0.216	0.129	0.534	0.748	-0.449	0.044	-0.674	-0.989	-0.016	0.062	2.253	2.529	0.258	-1.412	74.219
0.419	-0.219	-0.674	-0.707	-1.066	-1.231	-1.020	0.647	1.232	-0.949	-1.932	-3.335	-2.022	-1.730	0.029	0.021	0.398	0.503	-0.681	-0.162	-0.971	-1.252	-0.208	0.257	2.956	3.432	0.681	-1.645	78.125
0.144	-0.331	-0.865	-0.848	-1.281	-1.339	-0.903	1.047	2.018	-0.445	-1.926	-3.801	-2.157	-2.048	-0.204	-0.150	0.243	0.211	-0.897	-0.420	-1.313	-1.508	-0.416	0.434	3.612	4.303	1.039	-1.876	82.031
-0.211	-0.513	-1.112	-1.024	-1.502	-1.435	-0.704	1.531	2.969	0.253	-1.742	-4.143	-2.187	-2.321	-0.474	-0.392	0.064	-0.123	-1.094	-0.727	-1.669	-1.733	-0.626	0.597	4.169	5.059	1.306	-2.090	85.938
-0.638	-0.784	-1.437	-1.247	-1.715	-1.534	-0.384	2.095	4.080	1.162	-1.344	-4.312	-2.063	-2.500	-0.769	-0.707	-0.147	-0.487	-1.271	-1.076	-2.005	-1.910	-0.831	0.754	4.581	5.634	1.468	-2.271	89.844
-1.124	-1.157	-1.854	-1.525	-1.906	-1.646	0.083	2.725	5.330	2.278	-0.722	-4.277	-1.756	-2.549	-1.077	-1.090	-0.396	-0.867	-1.428	-1.454	-2.289	-2.027	-1.028	0.917	4.821	5.989	1.530	-2.399	93.750
-1.655	-1.627	-2.367	-1.858	-2.062	-1.784	0.700	3.400	6.681	3.566	0.108	-4.031	-1.266	-2.452	-1.385	-1.528	-0.691	-1.248	-1.569	-1.845	-2.498	-2.082	-1.215	1.095	4.891	6.122	1.518	-2.451	97.656
-2.213	-2.176	-2.963	-2.235	-2.177	-1.948	1.444	4.090	8.072	4.961	1.098	-3.593	-0.623	-2.216	-1.686	-1.998	-1.031	-1.615	-1.695	-2.229	-2.620	-2.082	-1.393	1.297	4.821	6.072	1.473	-2.412	101.562
-2.776	-2.769	-3.614	-2.635	-2.247	-2.133	2.264	4.755	9.426	6.372	2.172	-3.009	0.117	-1.876	-1.974	-2.476	-1.414	-1.956	-1.813	-2.587	-2.658	-2.045	-1.565	1.524	4.658	5.909	1.438	-2.268	105.469
-3.314	-3.359	-4.270	-3.026	-2.268	-2.318	3.090	5.353	10.653	7.689	3.240	-2.343	0.876	-1.483	-2.243	-2.932	-1.830	-2.259	-1.927	-2.899	-2.626	-1.996	-1.733	1.763	4.460	5.708	1.448	-2.024	109.375
-3.784	-3.891	-4.867	-3.370	-2.239	-2.475	3.845	5.842	11.664	8.801	4.205	-1.669	1.572	-1.094	-2.484	-3.333	-2.259	-2.513	-2.044	-3.151	-2.544	-1.963	-1.898	1.987	4.275	5.533	1.512	-1.699	113.281
-4.135	-4.311	-5.335	-3.626	-2.153	-2.570	4.459	6.188	12.377	9.612	4.982	-1.058	2.129	-0.765	-2.682	-3.650	-2.674	-2.703	-2.168	-3.331	-2.435	-1.973	-2.061	2.159	4.130	5.416	1.610	-1.326	117.188
-4.319	-4.575	-5.612	-3.759	-2.007	-2.574	4.876	6.366	12.736	10.052	5.512	-0.563	2.493	-0.536	-2.821	-3.858	-3.040	-2.815	-2.299	-3.431	-2.320	-2.046	-2.219	2.232	4.024	5.351	1.701	-0.946	121.094
-4.300	-4.653	-5.655	-3.747	-1.800	-2.469	5.067	6.369	12.716	10.095	5.772	-0.209	2.634	-0.430	-2.884	-3.945	-3.321	-2.838	-2.433	-3.452	-2.212	-2.189	-2.368	2.168	3.940	5.308	1.733	-0.596	125.000
-4.071	-4.540	-5.451	-3.589	-1.539	-2.257	5.026	6.206	12.331	9.757	5.778	0.013	2.553	-0.448	-2.863	-3.911	-3.489	-2.771	-2.565	-3.401	-2.118	-2.400	-2.505	1.944	3.845	5.247	1.663	-0.296	128.906
-3.660	-4.258	-5.027	-3.301	-1.245	-1.962	4.772	5.904	11.636	9.096	5.584	0.145	2.276	-0.573	-2.762	-3.774	-3.529	-2.624	-2.690	-3.294	-2.044	-2.664	-2.626	1.560	3.717	5.140	1.475	-0.043	132.812
-3.129	-3.853	-4.442	-2.925	-0.950	-1.628	4.340	5.506	10.720	8.203	5.271	0.251	1.845	-0.782	-2.604	-3.571	-3.448	-2.427	-2.804	-3.155	-1.992	-2.960	-2.731	1.047	3.550	4.990	1.189	0.194	136.719
-2.565	-3.391	-3.781	-2.518	-0.696	-1.309	3.776	5.065	9.695	7.186	4.930	0.405	1.312	-1.047	-2.428	-3.349	-3.278	-2.218	-2.910	-3.016	-1.970	-3.264	-2.825	0.462	3.365	4.836	0.859	0.462	140.625
-2.065	-2.946	-3.140	-2.145	-0.525	-1.063	3.129	4.639	8.680	6.156	4.650	0.671	0.730	-1.343	-2.282	-3.162	-3.070	-2.047	-3.017	-2.911	-1.987	-3.551	-2.913	-0.121	3.208	4.751	0.563	0.818	144.531
-1.714	-2.591	-2.611	-1.869	-0.474	-0.937	2.447	4.281	7.788	5.209	4.499	1.090	0.141	-1.651	-2.218	-3.061	-2.890	-1.962	-3.137	-2.873	-2.054	-3.805	-3.003	-0.622	3.143	4.821	0.389	1.307	148.438
-1.570	-2.387	-2.262	-1.739	-0.569	-0.957	1.772	4.034	7.106	4.420	4.517	1.670	-0.424	-1.961	-2.277	-3.089	-2.804	-2.001	-3.287	-2.928	-2.182	-4.016	-3.099	-0.969	3.235	5.133	0.414	1.959	152.344
-1.657	-2.370	-2.132	-1.786	-0.815	-1.131	1.138	3.923	6.688	3.831	4.710	2.381	-0.947	-2.271	-2.486	-3.268	-2.868	-2.187	-3.484	-3.091	-2.377	-4.183	-3.207	-1.110	3.535	5.746	0.688	2.775	156.250
-1.962	-2.551	-2.221	-2.012	-1.199	-1.441	0.569	3.955	6.550	3.453	5.053	3.171	-1.426	-2.583	-2.850	-3.604	-3.118	-2.520	-3.741	-3.363	-2.639	-4.316	-3.329	-1.022	4.072	6.687	1.228	3.726	160.156
-2.441	-2.911	-2.497	-2.396	-1.691	-1.851	0.080	4.117	6.670	3.268	5.502	3.968	-1.865	-2.905	-3.354	-4.077	-3.561	-2.979	-4.065	-3.731	-2.962	-4.430	-3.467	-0.713	4.844	7.940	2.016	4.766	164.062
-3.035	-3.407	-2.903	-2.895	-2.253	-2.317	-0.321	4.380	7.002	3.243	6.005	4.703	-2.274	-3.241	-3.964	-4.656	-4.176	-3.530	-4.454	-4.171	-3.334	-4.545	-3.619	-0.215	5.822	9.452	3.004	5.834	167.969
-3.681	-3.981	-3.374	-3.455	-2.842	-2.795	-0.634	4.708	7.485	3.339	6.515	5.323	-2.661	-3.597	-4.635	-5.295	-4.918	-4.128	-4.899	-4.650	-3.737	-4.674	-3.784	0.419	6.953	11.145	4.126	6.868	171.875
-4.322	-4.571	-3.848	-4.023	-3.418	-3.247	-0.862	5.062	8.057	3.520	6.997	5.800	-3.027	-3.971	-5.321	-5.948	-5.724	-4.734	-5.381	-5.137	-4.155	-4.829	-3.956	1.132	8.174	12.928	5.309	7.818	175.781
-4.919	-5.125	-4.276	-4.554	-3.950	-3.650	-1.008	5.409	8.666	3.764	7.436	6.131	-3.367	-4.353	-5.978	-6.574	-6.531	-5.315	-5.876	-5.602	-4.569	-5.012	-4.131	1.865	9.418	14.709	6.481	8.647	179.688
-5.451	-5.606	-4.633	-5.019	-4.417	-3.992	-1.076	5.725	9.275	4.061	7.837	6.339	-3.665	-4.727	-6.576	-7.144	-7.281	-5.854	-6.359	-6.024	-4.964	-5.216	-4.303	2.571	10.622	16.401	7.583	9.334	183.594
-5.912	-6.001	-4.920	-5.406	-4.807	-4.276	-1.064	6.000	9.867	4.419	8.212	6.459	-3.901	-5.071	-7.095	-7.642	-7.932	-6.347	-6.804	-6.392	-5.327	-5.430	-4.466	3.216	11.735	17.934	8.573	9.875	187.500
-6.310	-6.316	-5.155	-5.721	-5.115	-4.511	-0.967	6.233	10.440	4.848	8.582	6.529	-4.050	-5.358	-7.528	-8.062	-8.462	-6.798	-7.192	-6.703	-5.645	-5.638	-4.611	3.780	12.719	19.251	9.422	10.273	191.406
-6.658	-6.575	-5.376	-5.980	-5.343	-4.713	-0.781	6.435	10.999	5.360	8.958	6.583	-4.089	-5.560	-7.877	-8.412	-8.864	-7.216	-7.510	-6.960	-5.907	-5.817	-4.728	4.258	13.552	20.315	10.120	10.538	195.312
-6.974	-6.811	-5.622	-6.205	-5.496	-4.898	-0.501	6.618	11.547	5.959	9.346	6.642	-4.000	-5.654	-8.147	-8.702	-9.149	-7.607	-7.751	-7.169	-6.103	-5.951	-4.805	4.661	14.227	21.108	10.673	10.686	199.219
-7.274	-7.060	-5.933	-6.422	-5.583	-5.079	-0.125	6.793	12.086	6.635	9.737	6.717	-3.773	-5.623	-8.351	-8.948	-9.332	-7.972	-7.918	-7.335	-6.226	-6.020	-4.828	5.005	14.751	21.630	11.097	10.734	203.125
-7.574	-7.351	-6.333	-6.649	-5.618	-5.266	0.337	6.971	12.606	7.365	10.117	6.808	-3.409	-5.464	-8.499	-9.163	-9.436	-8.307	-8.018	-7.465	-6.273	-6.017	-4.787	5.316	15.145	21.903	11.421	10.702	207.031
-7.884	-7.701	-6.831	-6.899	-5.613	-5.463	0.871	7.157	13.091	8.116	10.463	6.909	-2.917	-5.185	-8.604	-9.359	-9.484	-8.603	-8.066	-7.564	-6.245	-5.937	-4.675	5.616	15.436	21.965	11.672	10.612	210.938
-8.206	-8.112	-7.414	-7.175	-5.581	-5.668	1.454	7.354	13.520	8.848	10.755	7.012	-2.320	-4.806	-8.679	-9.547	-9.497	-8.851	-8.074	-7.641	-6.152	-5.787	-4.492	5.927	15.659	21.864	11.879	10.486	214.844
-8.535	-8.575	-8.047	-7.472	-5.534	-5.868	2.059	7.561	13.873	9.521	10.979	7.108	-1.647	-4.356	-8.736	-9.736	-9.498	-9.044	-8.061	-7.703	-6.007	-5.585	-4.249	6.260	15.846	21.656	12.062	10.341	218.750
-8.856	-9.066	-8.685	-7.775	-5.475	-6.046	2.658	7.777	14.139	10.101	11.123	7.185	-0.937	-3.870	-8.785	-9.932	-9.505	-9.180	-8.043	-7.759	-5.828	-5.352	-3.963	6.616	16.024	21.395	12.230	10.190	222.656
-9.151	-9.556	-9.274	-8.066	-5.406	-6.179	3.224	8.002	14.314	10.565	11.187	7.234	-0.229	-3.383	-8.836	-10.141	-9.535	-9.264	-8.034	-7.820	-5.636	-5.120	-3.658	6.986	16.212	21.127	12.381	10.040	226.562
-9.400	-10.011	-9.767	-8.324	-5.323	-6.244	3.734	8.235	14.407	10.897	11.171	7.243	0.433	-2.929	-8.897	-10.362	-9.603	-9.303	-8.048	-7.892	-5.452	-4.916	-3.364	7.352	16.417	20.885	12.500	9.890	230.469
-9.589	-10.401	-10.126	-8.528	-5.222	-6.223	4.168	8.478	14.436	11.093	11.081	7.201	1.010	-2.536	-8.971	-10.590	-9.712	-9.307	-8.092	-7.977	-5.293	-4.764	-3.104	7.688	16.636	20.691	12.569	9.732	234.375
-9.709	-10.699	-10.334	-8.665	-5.101	-6.109	4.509	8.730	14.421	11.153	10.924	7.095	1.464	-2.225	-9.058	-10.810	-9.853	-9.284	-8.163	-8.073	-5.174	-4.675	-2.896	7.969	16.859	20.551	12.567	9.558	238.281
-9.756	-10.889	-10.389	-8.725	-4.963	-5.906	4.742	8.986	14.378	11.083	10.705	6.915	1.768	-2.008	-9.148	-11.003	-10.000	-9.237	-8.246	-8.168	-5.101	-4.645	-2.742	8.172	17.068	20.458	12.477	9.356	242.188
-9.732	-10.963	-10.306	-8.708	-4.815	-5.633	4.853	9.239	14.320	10.889	10.427	6.656	1.903	-1.890	-9.224	-11.143	-10.116	-9.162	-8.316	-8.246	-5.072	-4.650	-2.630	8.285	17.244	20.394	12.288	9.116	246.094
-9.638	-10.920	-10.111	-8.621	-4.668	-5.317	4.836	9.471	14.249	10.580	10.094	6.316	1.867	-1.863	-9.266	-11.206	-10.156	-9.052	-8.338	-8.285	-5.077	-4.654	-2.533	8.305	17.370	20.336	11.999	8.833	250.000
-9.478	-10.771	-9.838	-8.476	-4.532	-4.996	4.688	9.662	14.158	10.170	9.710	5.902	1.672	-1.912	-9.252	-11.172	-10.084	-8.900	-8.276	-8.264	-5.095	-4.611	-2.421	8.238	17.429	20.256	11.620	8.505	253.906
-9.257	-10.531	-9.519	-8.286	-4.421	-4.707	4.419	9.788	14.035	9.678	9.283	5.425	1.345	-2.011	-9.167	-11.030	-9.875	-8.701	-8.103	-8.167	-5.103	-4.482	-2.261	8.102	17.408	20.124	11.166	8.134	257.812
-8.977	-10.221	-9.186	-8.067	-4.342	-4.483	4.047	9.824	13.863	9.131	8.823	4.903	0.930	-2.132	-9.001	-10.782	-9.531	-8.454	-7.807	-7.984	-5.075	-4.241	-2.033	7.915	17.295	19.915	10.662	7.727	261.719
-8.643	-9.863	-8.860	-7.832	-4.299	-4.347	3.604	9.755	13.630	8.562	8.349	4.360	0.478	-2.243	-8.754	-10.441	-9.074	-8.166	-7.395	-7.719	-4.991	-3.886	-1.736	7.699	17.083	19.608	10.132	7.292	265.625
-8.261	-9.477	-8.555	-7.592	-4.289	-4.306	3.132	9.572	13.329	8.008	7.879	3.823	0.042	-2.317	-8.438	-10.032	-8.543	-7.851	-6.891	-7.381	-4.841	-3.436	-1.386	7.470	16.765	19.191	9.603	6.839	269.531
-7.844	-9.082	-8.276	-7.355	-4.307	-4.356	2.678	9.282	12.966	7.508	7.437	3.319	-0.323	-2.332	-8.069	-9.583	-7.987	-7.528	-6.333	-6.992	-4.623	-2.930	-1.017	7.244	16.340	18.663	9.098	6.379	273.438
-7.410	-8.693	-8.023	-7.128	-4.344	-4.476	2.290	8.906	12.559	7.100	7.047	2.876	-0.576	-2.274	-7.671	-9.123	-7.449	-7.219	-5.765	-6.576	-4.349	-2.419	-0.675	7.029	15.812	18.034	8.635	5.925	277.344
-6.982	-8.323	-7.794	-6.916	-4.390	-4.639	2.007	8.473	12.139	6.815	6.730	2.517	-0.685	-2.139	-7.265	-8.678	-6.963	-6.945	-5.231	-6.161	-4.035	-1.955	-0.404	6.830	15.193	17.326	8.230	5.495	281.250
-6.585	-7.980	-7.586	-6.724	-4.437	-4.814	1.856	8.022	11.743	6.669	6.502	2.259	-0.642	-1.933	-6.872	-8.268	-6.547	-6.719	-4.767	-5.771	-3.705	-1.579	-0.238	6.650	14.504	16.571	7.890	5.106	285.156
-6.244	-7.671	-7.402	-6.555	-4.480	-4.975	1.842	7.590	11.408	6.664	6.369	2.112	-0.456	-1.675	-6.510	-7.903	-6.205	-6.546	-4.394	-5.427	-3.384	-1.319	-0.194	6.488	13.774	15.811	7.619	4.779	289.062
-5.977	-7.404	-7.244	-6.413	-4.519	-5.100	1.948	7.213	11.162	6.785	6.329	2.074	-0.155	-1.390	-6.190	-7.592	-5.927	-6.422	-4.122	-5.145	-3.098	-1.181	-0.269	6.342	13.037	15.086	7.412	4.528	292.969
-5.795	-7.181	-7.117	-6.300	-4.554	-5.180	2.140	6.915	11.021	6.997	6.369	2.130	0.212	-1.111	-5.916	-7.337	-5.694	-6.329	-3.943	-4.934	-2.867	-1.155	-0.441	6.207	12.331	14.435	7.260	4.364	296.875
-5.695	-7.004	-7.023	-6.215	-4.591	-5.214	2.369	6.714	10.984	7.254	6.467	2.256	0.589	-0.871	-5.689	-7.134	-5.486	-6.246	-3.838	-4.797	-2.707	-1.219	-0.677	6.074	11.689	13.884	7.144	4.283	300.781
-5.664	-6.868	-6.957	-6.154	-4.631	-5.207	2.585	6.614	11.039	7.506	6.591	2.416	0.918	-0.702	-5.504	-6.976	-5.278	-6.150	-3.781	-4.727	-2.626	-1.339	-0.936	5.936	11.136	13.442	7.040	4.269	304.688
-5.678	-6.761	-6.911	-6.106	-4.672	-5.167	2.744	6.611	11.161	7.701	6.710	2.569	1.146	-0.626	-5.350	-6.851	-5.051	-6.020	-3.742	-4.713	-2.623	-1.481	-1.176	5.781	10.689	13.102	6.920	4.293	308.594
-5.709	-6.668	-6.869	-6.059	-4.707	-5.099	2.818	6.694	11.320	7.799	6.790	2.674	1.241	-0.652	-5.217	-6.744	-4.792	-5.845	-3.693	-4.735	-2.686	-1.611	-1.360	5.605	10.350	12.847	6.757	4.317	312.500
-5.732	-6.570	-6.814	-5.999	-4.727	-5.006	2.797	6.843	11.487	7.775	6.805	2.697	1.187	-0.773	-5.095	-6.636	-4.495	-5.622	-3.612	-4.771	-2.797	-1.704	-1.460	5.403	10.117	12.649	6.530	4.302	316.406
-5.728	-6.451	-6.731	-5.914	-4.719	-4.892	2.691	7.033	11.633	7.621	6.737	2.614	0.995	-0.968	-4.975	-6.512	-4.160	-5.359	-3.488	-4.797	-2.930	-1.741	-1.462	5.179	9.979	12.481	6.228	4.218	320.312
-5.689	-6.301	-6.613	-5.796	-4.675	-4.761	2.524	7.234	11.736	7.347	6.577	2.420	0.697	-1.204	-4.854	-6.357	-3.795	-5.071	-3.317	-4.792	-3.055	-1.715	-1.363	4.940	9.919	12.320	5.852	4.046	324.219
-5.619	-6.117	-6.458	-5.645	-4.588	-4.616	2.327	7.414	11.779	6.977	6.330	2.126	0.338	-1.441	-4.729	-6.166	-3.413	-4.779	-3.104	-4.739	-3.143	-1.629	-1.177	4.700	9.918	12.153	5.420	3.790	328.125
-5.530	-5.905	-6.277	-5.467	-4.459	-4.467	2.135	7.545	11.753	6.550	6.018	1.763	-0.027	-1.638	-4.602	-5.939	-3.032	-4.506	-2.860	-4.628	-3.171	-1.495	-0.931	4.476	9.953	11.976	4.961	3.472	332.031
-5.441	-5.681	-6.087	-5.271	-4.291	-4.324	1.974	7.601	11.657	6.110	5.672	1.376	-0.345	-1.761	-4.478	-5.684	-2.674	-4.276	-2.602	-4.460	-3.122	-1.328	-0.659	4.285	9.995	11.791	4.514	3.132	335.938
-5.372	-5.468	-5.911	-5.074	-4.096	-4.200	1.865	7.568	11.500	5.706	5.339	1.025	-0.570	-1.788	-4.365	-5.419	-2.364	-4.108	-2.351	-4.245	-2.992	-1.148	-0.398	4.144	10.016	11.604	4.124	2.825	339.844
-5.343	-5.288	-5.772	-4.890	-3.885	-4.105	1.821	7.444	11.301	5.383	5.069	0.767	-0.669	-1.708	-4.271	-5.164	-2.128	-4.018	-2.125	-3.998	-2.787	-0.976	-0.188	4.062	9.985	11.424	3.830	2.604	343.750
-5.371	-5.164	-5.694	-4.731	-3.670	-4.045	1.846	7.240	11.084	5.183	4.911	0.655	-0.623	-1.525	-4.203	-4.939	-1.985	-4.014	-1.942	-3.738	-2.522	-0.829	-0.058	4.045	9.877	11.256	3.664	2.515	347.656
-5.466	-5.105	-5.688	-4.603	-3.460	-4.021	1.939	6.976	10.876	5.135	4.900	0.719	-0.428	-1.253	-4.166	-4.758	-1.942	-4.093	-1.813	-3.479	-2.218	-0.720	-0.030	4.088	9.672	11.096	3.642	2.584	351.562
-5.629	-5.108	-5.757	-4.501	-3.260	-4.027	2.094	6.680	10.702	5.250	5.050	0.962	-0.091	-0.912	-4.155	-4.622	-1.986	-4.241	-1.735	-3.225	-1.891	-0.654	-0.111	4.182	9.363	10.936	3.755	2.802	355.469
-5.849	-5.155	-5.889	-4.412	-3.066	-4.050	2.304	6.382	10.577	5.519	5.343	1.345	0.370	-0.521	-4.156	-4.516	-2.086	-4.436	-1.696	-2.969	-1.555	-0.627	-0.293	4.307	8.950	10.754	3.976	3.127	359.375
-6.103	-5.211	-6.064	-4.314	-2.871	-4.070	2.559	6.106	10.500	5.914	5.729	1.798	0.930	-0.100	-4.148	-4.412	-2.194	-4.649	-1.671	-2.692	-1.211	-0.626	-0.552	4.440	8.447	10.526	4.251	3.482	363.281
-6.352	-5.234	-6.253	-4.180	-2.664	-4.069	2.847	5.872	10.459	6.384	6.131	2.221	1.556	0.339	-4.104	-4.274	-2.253	-4.848	-1.626	-2.364	-0.854	-0.633	-0.857	4.557	7.874	10.220	4.516	3.769	367.188
-6.552	-5.184	-6.425	-3.987	-2.434	-4.030	3.156	5.688	10.427	6.870	6.459	2.509	2.216	0.790	-3.995	-4.063	-2.210	-5.003	-1.527	-1.956	-0.466	-0.626	-1.170	4.633	7.254	9.810	4.699	3.885	371.094
-6.662	-5.030	-6.555	-3.719	-2.172	-3.945	3.471	5.551	10.374	7.309	6.627	2.573	2.877	1.249	-3.801	-3.747	-2.026	-5.093	-1.348	-1.447	-0.032	-0.582	-1.456	4.653	6.613	9.280	4.742	3.750	375.000
-6.652	-4.759	-6.627	-3.374	-1.877	-3.814	3.779	5.450	10.270	7.651	6.576	2.366	3.506	1.712	-3.513	-3.314	-1.687	-5.105	-1.073	-0.829	0.461	-0.489	-1.688	4.608	5.974	8.631	4.610	3.327	378.906
-6.516	-4.386	-6.642	-2.968	-1.555	-3.651	4.069	5.371	10.096	7.863	6.289	1.897	4.075	2.174	-3.138	-2.774	-1.207	-5.039	-0.709	-0.122	1.012	-0.340	-1.851	4.502	5.359	7.885	4.301	2.637	382.812
-6.269	-3.947	-6.613	-2.533	-1.224	-3.477	4.328	5.296	9.850	7.940	5.801	1.236	4.560	2.620	-2.703	-2.163	-0.633	-4.909	-0.281	0.636	1.604	-0.145	-1.941	4.349	4.791	7.090	3.853	1.765	386.719
-5.955	-3.499	-6.566	-2.116	-0.909	-3.320	4.548	5.214	9.546	7.900	5.193	0.503	4.943	3.030	-2.251	-1.537	-0.030	-4.735	0.168	1.384	2.202	0.081	-1.961	4.171	4.290	6.314	3.328	0.839	390.625
-5.626	-3.105	-6.533	-1.767	-0.642	-3.209	4.720	5.118	9.215	7.780	4.575	-0.161	5.210	3.377	-1.831	-0.967	0.523	-4.540	0.587	2.051	2.757	0.313	-1.923	3.992	3.883	5.632	2.806	0.009	394.531
-5.341	-2.822	-6.539	-1.531	-0.452	-3.165	4.838	5.012	8.894	7.624	4.059	-0.623	5.353	3.634	-1.491	-0.519	0.955	-4.345	0.930	2.571	3.220	0.524	-1.838	3.833	3.591	5.112	2.358	-0.590	398.438
-5.139	-2.686	-6.601	-1.437	-0.361	-3.198	4.893	4.904	8.617	7.468	3.729	-0.798	5.373	3.777	-1.266	-0.241	1.216	-4.160	1.159	2.894	3.544	0.691	-1.718	3.706	3.432	4.799	2.029	-0.875	402.344
-5.036	-2.704	-6.711	-1.490	-0.376	-3.299	4.884	4.806	8.402	7.333	3.621	-0.670	5.279	3.799	-1.170	-0.156	1.288	-3.986	1.258	3.001	3.706	0.799	-1.574	3.611	3.413	4.703	1.825	-0.833	406.250
-5.013	-2.851	-6.844	-1.669	-0.488	-3.447	4.808	4.730	8.250	7.215	3.711	-0.295	5.091	3.709	-1.191	-0.247	1.189	-3.815	1.235	2.908	3.706	0.840	-1.419	3.534	3.523	4.791	1.709	-0.529	410.156
-5.027	-3.073	-6.962	-1.931	-0.670	-3.609	4.668	4.681	8.137	7.088	3.920	0.206	4.838	3.534	-1.295	-0.465	0.969	-3.630	1.118	2.663	3.575	0.820	-1.262	3.452	3.734	4.990	1.611	-0.092	414.062
-5.019	-3.304	-7.019	-2.215	-0.886	-3.747	4.470	4.656	8.021	6.910	4.132	0.682	4.555	3.315	-1.429	-0.739	0.700	-3.414	0.951	2.339	3.362	0.755	-1.111	3.341	4.002	5.204	1.450	0.320	417.969
-4.927	-3.476	-6.977	-2.465	-1.099	-3.832	4.219	4.645	7.848	6.636	4.228	0.988	4.277	3.097	-1.539	-0.987	0.457	-3.151	0.780	2.018	3.129	0.666	-0.972	3.184	4.271	5.333	1.156	0.555	421.875
-4.699	-3.537	-6.811	-2.633	-1.279	-3.847	3.926	4.627	7.566	6.230	4.109	1.022	4.035	2.922	-1.575	-1.142	0.306	-2.837	0.650	1.768	2.929	0.579	-0.845	2.972	4.485	5.294	0.694	0.509	425.781
-4.306	-3.458	-6.517	-2.692	-1.410	-3.788	3.598	4.582	7.139	5.677	3.727	0.751	3.848	2.815	-1.505	-1.159	0.281	-2.476	0.587	1.633	2.801	0.511	-0.729	2.716	4.597	5.041	0.071	0.147	429.688
-3.744	-3.241	-6.108	-2.639	-1.487	-3.666	3.248	4.490	6.552	4.988	3.095	0.212	3.721	2.781	-1.321	-1.030	0.385	-2.084	0.596	1.624	2.756	0.471	-0.625	2.433	4.576	4.571	-0.658	-0.490	433.594
-3.040	-2.912	-5.612	-2.489	-1.514	-3.499	2.893	4.341	5.821	4.208	2.283	-0.496	3.647	2.808	-1.036	-0.779	0.584	-1.686	0.662	1.722	2.785	0.454	-0.537	2.148	4.405	3.921	-1.413	-1.300	437.500
-2.239	-2.510	-5.067	-2.270	-1.499	-3.304	2.556	4.139	4.991	3.401	1.401	-1.248	3.613	2.868	-0.684	-0.455	0.822	-1.308	0.754	1.884	2.859	0.445	-0.475	1.882	4.086	3.151	-2.106	-2.153	441.406
-1.403	-2.080	-4.511	-2.009	-1.446	-3.094	2.266	3.900	4.130	2.649	0.576	-1.919	3.597	2.932	-0.309	-0.117	1.035	-0.977	0.836	2.058	2.947	0.420	-0.454	1.643	3.629	2.327	-2.670	-2.923	445.312
-0.595	-1.660	-3.977	-1.726	-1.348	-2.869	2.052	3.651	3.320	2.030	-0.080	-2.418	3.584	2.975	0.047	0.181	1.169	-0.714	0.877	2.204	3.023	0.358	-0.489	1.427	3.049	1.503	-3.072	-3.525	449.219
0.127	-1.276	-3.487	-1.432	-1.195	-2.624	1.941	3.425	2.639	1.608	-0.488	-2.703	3.562	2.986	0.352	0.405	1.199	-0.531	0.863	2.296	3.074	0.249	-0.589	1.218	2.362	0.708	-3.324	-3.922	453.125
0.723	-0.939	-3.056	-1.128	-0.976	-2.349	1.952	3.256	2.155	1.421	-0.612	-2.783	3.531	2.968	0.590	0.548	1.132	-0.429	0.801	2.334	3.102	0.097	-0.757	0.993	1.581	-0.056	-3.473	-4.137	457.031
1.170	-0.645	-2.686	-0.808	-0.682	-2.036	2.088	3.165	1.909	1.478	-0.468	-2.707	3.496	2.935	0.764	0.629	1.008	-0.400	0.719	2.343	3.123	-0.082	-0.983	0.725	0.719	-0.812	-3.591	-4.229	460.938
1.464	-0.380	-2.376	-0.464	-0.314	-1.687	2.335	3.162	1.911	1.752	-0.108	-2.547	3.467	2.910	0.891	0.686	0.889	-0.429	0.661	2.361	3.162	-0.257	-1.246	0.395	-0.211	-1.595	-3.752	-4.280	464.844
1.617	-0.125	-2.119	-0.090	0.119	-1.310	2.664	3.241	2.138	2.194	0.387	-2.377	3.456	2.917	0.996	0.768	0.842	-0.493	0.670	2.434	3.243	-0.394	-1.519	-0.004	-1.192	-2.438	-4.016	-4.370	468.750
1.652	0.138	-1.910	0.317	0.596	-0.923	3.036	3.381	2.541	2.736	0.931	-2.261	3.470	2.973	1.107	0.917	0.919	-0.569	0.784	2.600	3.386	-0.462	-1.768	-0.466	-2.202	-3.361	-4.416	-4.556	472.656
1.593	0.425	-1.745	0.749	1.088	-0.550	3.405	3.555	3.057	3.306	1.440	-2.238	3.514	3.084	1.239	1.158	1.144	-0.640	1.020	2.879	3.599	-0.439	-1.962	-0.971	-3.214	-4.356	-4.951	-4.865	476.562
1.466	0.737	-1.621	1.194	1.564	-0.214	3.730	3.730	3.612	3.838	1.853	-2.319	3.582	3.244	1.396	1.492	1.506	-0.691	1.371	3.268	3.875	-0.317	-2.077	-1.484	-4.187	-5.387	-5.584	-5.287	480.469
1.293	1.068	-1.535	1.630	1.994	0.065	3.977	3.878	4.141	4.281	2.135	-2.489	3.663	3.434	1.569	1.894	1.960	-0.720	1.806	3.734	4.195	-0.104	-2.102	-1.965	-5.077	-6.390	-6.253	-5.779	484.375
1.093	1.397	-1.486	2.032	2.352	0.274	4.124	3.979	4.589	4.603	2.279	-2.714	3.738	3.629	1.734	2.315	2.435	-0.732	2.274	4.226	4.526	0.177	-2.039	-2.369	-5.834	-7.282	-6.881	-6.278	488.281
0.885	1.698	-1.462	2.376	2.624	0.414	4.163	4.023	4.919	4.789	2.301	-2.948	3.788	3.798	1.865	2.698	2.854	-0.738	2.713	4.681	4.833	0.489	-1.907	-2.661	-6.411	-7.980	-7.394	-6.713	492.188
0.686	1.942	-1.452	2.641	2.806	0.494	4.100	4.009	5.110	4.838	2.230	-3.148	3.791	3.915	1.934	2.987	3.146	-0.752	3.065	5.040	5.080	0.791	-1.733	-2.820	-6.772	-8.418	-7.734	-7.020	496.094
0.516	2.106	-1.435	2.816	2.905	0.533	3.945	3.943	5.153	4.754	2.095	-3.283	3.729	3.960	1.926	3.144	3.268	-0.782	3.287	5.259	5.241	1.043	-1.551	-2.845	-6.903	-8.562	-7.877	-7.162	500.000
0.398	2.183	-1.390	2.903	2.941	0.556	3.717	3.832	5.048	4.542	1.914	-3.346	3.590	3.928	1.842	3.159	3.211	-0.828	3.362	5.322	5.306	1.219	-1.385	-2.753	-6.811	-8.424	-7.838	-7.133	503.906
0.353	2.178	-1.295	2.917	2.939	0.589	3.434	3.685	4.802	4.204	1.691	-3.352	3.372	3.826	1.701	3.050	3.007	-0.879	3.301	5.242	5.282	1.311	-1.251	-2.579	-6.525	-8.053	-7.667	-6.965	507.812
0.404	2.115	-1.133	2.885	2.926	0.651	3.116	3.508	4.426	3.741	1.415	-3.340	3.083	3.676	1.534	2.858	2.713	-0.914	3.143	5.058	5.193	1.331	-1.147	-2.364	-6.094	-7.531	-7.435	-6.715	511.719
0.565	2.025	-0.897	2.836	2.925	0.755	2.780	3.306	3.935	3.157	1.066	-3.359	2.740	3.507	1.380	2.637	2.404	-0.909	2.943	4.824	5.072	1.310	-1.053	-2.146	-5.569	-6.948	-7.219	-6.456	515.625
0.837	1.944	-0.594	2.795	2.950	0.902	2.444	3.083	3.352	2.467	0.626	-3.456	2.369	3.347	1.275	2.441	2.147	-0.845	2.758	4.590	4.955	1.289	-0.945	-1.949	-5.000	-6.381	-7.076	-6.255	519.531
1.205	1.892	-0.248	2.775	3.002	1.079	2.125	2.841	2.710	1.701	0.095	-3.659	1.998	3.222	1.239	2.301	1.989	-0.712	2.634	4.397	4.865	1.304	-0.794	-1.779	-4.424	-5.880	-7.032	-6.155	523.438
1.634	1.874	0.101	2.771	3.065	1.259	1.839	2.588	2.052	0.909	-0.503	-3.969	1.656	3.143	1.276	2.229	1.946	-0.519	2.592	4.257	4.811	1.379	-0.583	-1.623	-3.856	-5.453	-7.068	-6.163	527.344
2.069	1.871	0.401	2.756	3.111	1.408	1.602	2.336	1.432	0.159	-1.119	-4.348	1.369	3.104	1.366	2.203	2.001	-0.291	2.628	4.156	4.779	1.520	-0.309	-1.453	-3.298	-5.071	-7.125	-6.247	531.250
2.443	1.844	0.599	2.691	3.102	1.488	1.423	2.100	0.905	-0.473	-1.678	-4.733	1.154	3.090	1.474	2.182	2.111	-0.063	2.710	4.059	4.742	1.709	0.013	-1.235	-2.739	-4.683	-7.121	-6.345	535.156
2.691	1.746	0.646	2.530	3.001	1.465	1.312	1.898	0.524	-0.910	-2.099	-5.041	1.023	3.074	1.557	2.112	2.216	0.121	2.793	3.914	4.664	1.915	0.354	-0.941	-2.167	-4.230	-6.967	-6.377	539.062
2.760	1.529	0.516	2.234	2.780	1.319	1.273	1.746	0.325	-1.092	-2.306	-5.191	0.980	3.028	1.571	1.938	2.257	0.227	2.825	3.670	4.506	2.097	0.676	-0.553	-1.581	-3.672	-6.595	-6.271	542.969
2.626	1.167	0.208	1.785	2.430	1.046	1.305	1.660	0.325	-0.985	-2.249	-5.118	1.023	2.932	1.488	1.623	2.186	0.233	2.764	3.291	4.245	2.216	0.941	-0.078	-0.995	-3.000	-5.978	-5.975	546.875
2.300	0.658	-0.246	1.191	1.964	0.665	1.405	1.647	0.516	-0.592	-1.911	-4.795	1.145	2.778	1.300	1.156	1.977	0.135	2.585	2.766	3.873	2.243	1.115	0.460	-0.442	-2.243	-5.134	-5.480	550.781
1.835	0.033	-0.791	0.491	1.416	0.214	1.561	1.704	0.864	0.050	-1.319	-4.234	1.336	2.570	1.022	0.555	1.632	-0.051	2.286	2.113	3.404	2.164	1.177	1.017	0.034	-1.465	-4.129	-4.812	554.688
1.314	-0.649	-1.353	-0.252	0.842	-0.255	1.762	1.823	1.316	0.870	-0.541	-3.488	1.579	2.327	0.691	-0.133	1.178	-0.297	1.889	1.378	2.874	1.981	1.121	1.540	0.384	-0.751	-3.066	-4.039	558.594
0.836	-1.312	-1.853	-0.958	0.302	-0.685	1.986	1.983	1.807	1.773	0.327	-2.642	1.856	2.077	0.354	-0.840	0.659	-0.568	1.431	0.631	2.333	1.714	0.955	1.975	0.567	-0.187	-2.061	-3.248	562.500
0.502	-1.874	-2.224	-1.547	-0.140	-1.023	2.210	2.158	2.268	2.654	1.173	-1.798	2.141	1.848	0.067	-1.490	0.137	-0.827	0.966	-0.051	1.837	1.391	0.701	2.276	0.561	0.156	-1.226	-2.537	566.406
0.389	-2.265	-2.417	-1.949	-0.435	-1.227	2.412	2.320	2.638	3.412	1.888	-1.061	2.409	1.669	-0.124	-2.009	-0.327	-1.046	0.548	-0.595	1.441	1.051	0.395	2.411	0.364	0.233	-0.652	-1.991	570.312
0.545	-2.435	-2.412	-2.118	-0.550	-1.279	2.566	2.441	2.868	3.962	2.381	-0.518	2.635	1.561	-0.183	-2.342	-0.673	-1.199	0.229	-0.944	1.186	0.731	0.077	2.371	0.002	0.036	-0.392	-1.678	574.219
0.976	-2.364	-2.217	-2.039	-0.477	-1.179	2.654	2.499	2.929	4.245	2.590	-0.232	2.799	1.536	-0.093	-2.456	-0.858	-1.269	0.049	-1.066	1.099	0.468	-0.209	2.163	-0.484	-0.412	-0.464	-1.630	578.125
1.651	-2.063	-1.863	-1.730	-0.231	-0.949	2.664	2.478	2.810	4.237	2.490	-0.232	2.886	1.594	0.147	-2.345	-0.854	-1.244	0.033	-0.959	1.183	0.289	-0.421	1.816	-1.040	-1.061	-0.846	-1.851	582.031
2.511	-1.572	-1.399	-1.236	0.151	-0.625	2.591	2.373	2.519	3.940	2.090	-0.515	2.887	1.724	0.516	-2.031	-0.661	-1.117	0.185	-0.650	1.422	0.216	-0.529	1.367	-1.609	-1.844	-1.491	-2.314	585.938
3.479	-0.954	-0.882	-0.624	0.619	-0.254	2.438	2.188	2.079	3.388	1.432	-1.046	2.801	1.904	0.983	-1.561	-0.301	-0.890	0.488	-0.189	1.776	0.254	-0.511	0.864	-2.138	-2.685	-2.328	-2.968	589.844
4.473	-0.285	-0.368	0.028	1.115	0.118	2.214	1.936	1.524	2.639	0.581	-1.768	2.632	2.107	1.503	-0.996	0.183	-0.570	0.910	0.357	2.194	0.402	-0.362	0.360	-2.585	-3.508	-3.275	-3.746	593.750
5.410	0.359	0.096	0.644	1.581	0.448	1.937	1.640	0.901	1.763	-0.383	-2.607	2.393	2.303	2.031	-0.404	0.736	-0.176	1.406	0.918	2.621	0.648	-0.089	-0.095	-2.919	-4.243	-4.244	-4.573	597.656
6.217	0.905	0.470	1.158	1.971	0.703	1.630	1.327	0.261	0.845	-1.370	-3.481	2.102	2.464	2.518	0.148	1.296	0.266	1.926	1.425	3.000	0.971	0.287	-0.455	-3.121	-4.834	-5.149	-5.375	601.562
6.838	1.298	0.729	1.524	2.251	0.865	1.318	1.027	-0.339	-0.032	-2.293	-4.307	1.786	2.572	2.925	0.603	1.810	0.723	2.419	1.823	3.290	1.346	0.734	-0.681	-3.187	-5.239	-5.912	-6.079	605.469
7.234	1.505	0.862	1.717	2.408	0.930	1.029	0.770	-0.847	-0.787	-3.071	-5.007	1.475	2.618	3.222	0.916	2.230	1.156	2.840	2.076	3.462	1.742	1.210	-0.751	-3.124	-5.436	-6.467	-6.629	609.375
7.394	1.517	0.874	1.739	2.442	0.910	0.792	0.581	-1.215	-1.353	-3.637	-5.521	1.201	2.605	3.391	1.064	2.524	1.523	3.150	2.168	3.507	2.122	1.666	-0.661	-2.956	-5.425	-6.773	-6.982	613.281
7.331	1.357	0.781	1.618	2.373	0.826	0.630	0.475	-1.411	-1.680	-3.950	-5.808	0.994	2.545	3.428	1.045	2.671	1.787	3.320	2.104	3.433	2.445	2.049	-0.430	-2.713	-5.231	-6.814	-7.119	617.188
7.078	1.068	0.614	1.397	2.231	0.711	0.561	0.456	-1.422	-1.748	-3.997	-5.858	0.878	2.456	3.343	0.881	2.668	1.917	3.337	1.910	3.265	2.675	2.311	-0.094	-2.437	-4.895	-6.608	-7.045	621.094
6.686	0.709	0.413	1.131	2.053	0.598	0.597	0.514	-1.262	-1.566	-3.796	-5.690	0.865	2.358	3.158	0.612	2.527	1.898	3.202	1.629	3.036	2.781	2.420	0.294	-2.172	-4.480	-6.202	-6.794	625.000
6.219	0.348	0.216	0.875	1.876	0.517	0.735	0.627	-0.964	-1.169	-3.398	-5.352	0.955	2.273	2.905	0.292	2.272	1.733	2.936	1.314	2.786	2.746	2.359	0.677	-1.957	-4.052	-5.668	-6.420	628.906
5.742	0.047	0.061	0.676	1.734	0.490	0.962	0.768	-0.581	-0.622	-2.876	-4.913	1.136	2.218	2.621	-0.020	1.941	1.443	2.574	1.021	2.557	2.574	2.135	1.001	-1.829	-3.682	-5.092	-5.993	632.812
5.317	-0.143	-0.025	0.570	1.647	0.527	1.257	0.907	-0.174	-0.002	-2.317	-4.455	1.385	2.205	2.346	-0.266	1.576	1.065	2.162	0.799	2.383	2.284	1.777	1.222	-1.809	-3.431	-4.562	-5.587	636.719
4.996	-0.189	-0.024	0.572	1.627	0.625	1.588	1.018	0.195	0.606	-1.807	-4.056	1.670	2.237	2.116	-0.397	1.227	0.647	1.753	0.690	2.290	1.916	1.331	1.312	-1.907	-3.341	-4.155	-5.271	640.625
4.819	-0.079	0.070	0.683	1.670	0.769	1.918	1.086	0.479	1.125	-1.420	-3.784	1.955	2.310	1.964	-0.383	0.941	0.240	1.396	0.718	2.291	1.518	0.853	1.261	-2.118	-3.435	-3.924	-5.096	644.531
4.801	0.176	0.250	0.885	1.763	0.938	2.210	1.104	0.646	1.495	-1.205	-3.678	2.204	2.413	1.909	-0.213	0.760	-0.113	1.132	0.885	2.388	1.141	0.398	1.079	-2.425	-3.707	-3.893	-5.089	648.438
4.938	0.546	0.500	1.149	1.882	1.105	2.430	1.075	0.683	1.678	-1.181	-3.749	2.388	2.530	1.957	0.102	0.714	-0.376	0.983	1.178	2.566	0.831	0.017	0.789	-2.797	-4.127	-4.052	-5.243	652.344
5.198	0.984	0.797	1.433	2.003	1.245	2.551	1.009	0.597	1.666	-1.333	-3.975	2.485	2.640	2.099	0.526	0.813	-0.530	0.957	1.563	2.802	0.619	-0.255	0.430	-3.196	-4.642	-4.364	-5.527	656.250
5.532	1.428	1.107	1.696	2.098	1.334	2.557	0.915	0.407	1.476	-1.621	-4.307	2.486	2.726	2.310	1.009	1.049	-0.572	1.041	1.995	3.062	0.519	-0.399	0.047	-3.580	-5.184	-4.765	-5.882	660.156
5.874	1.818	1.394	1.894	2.145	1.356	2.440	0.803	0.140	1.146	-1.990	-4.680	2.398	2.772	2.554	1.488	1.388	-0.513	1.209	2.425	3.311	0.530	-0.414	-0.313	-3.908	-5.684	-5.182	-6.242	664.062
6.157	2.098	1.624	1.998	2.127	1.305	2.208	0.682	-0.175	0.721	-2.380	-5.028	2.236	2.774	2.789	1.904	1.784	-0.373	1.426	2.803	3.517	0.634	-0.317	-0.605	-4.142	-6.076	-5.545	-6.538	667.969
6.327	2.230	1.769	1.987	2.039	1.184	1.877	0.553	-0.514	0.252	-2.739	-5.295	2.026	2.734	2.980	2.208	2.185	-0.177	1.659	3.093	3.657	0.806	-0.136	-0.793	-4.257	-6.310	-5.795	-6.721	671.875
6.349	2.203	1.818	1.863	1.888	1.007	1.475	0.418	-0.859	-0.220	-3.036	-5.450	1.796	2.665	3.100	2.372	2.541	0.052	1.881	3.270	3.721	1.018	0.099	-0.854	-4.241	-6.360	-5.898	-6.765	675.781
6.219	2.029	1.771	1.642	1.687	0.798	1.035	0.276	-1.197	-0.662	-3.258	-5.485	1.576	2.586	3.138	2.387	2.818	0.293	2.075	3.328	3.711	1.248	0.356	-0.781	-4.102	-6.226	-5.847	-6.673	679.688
5.958	1.745	1.647	1.354	1.460	0.585	0.595	0.128	-1.518	-1.053	-3.411	-5.422	1.392	2.519	3.102	2.271	3.003	0.531	2.235	3.273	3.642	1.480	0.612	-0.581	-3.862	-5.939	-5.662	-6.476	683.594
5.610	1.402	1.475	1.037	1.230	0.394	0.196	-0.021	-1.811	-1.380	-3.510	-5.296	1.264	2.483	3.011	2.055	3.102	0.754	2.367	3.122	3.534	1.704	0.853	-0.276	-3.557	-5.547	-5.382	-6.221	687.500
5.228	1.057	1.291	0.727	1.021	0.248	-0.127	-0.162	-2.062	-1.633	-3.576	-5.153	1.201	2.493	2.890	1.781	3.131	0.953	2.478	2.899	3.410	1.918	1.074	0.100	-3.232	-5.114	-5.059	-5.960	691.406
4.862	0.759	1.124	0.457	0.851	0.162	-0.342	-0.282	-2.254	-1.807	-3.621	-5.029	1.208	2.551	2.764	1.489	3.114	1.120	2.575	2.630	3.289	2.121	1.278	0.507	-2.928	-4.704	-4.746	-5.740	695.312
4.549	0.539	1.000	0.249	0.732	0.143	-0.428	-0.365	-2.369	-1.896	-3.653	-4.952	1.277	2.651	2.650	1.212	3.067	1.248	2.658	2.340	3.183	2.309	1.468	0.905	-2.680	-4.369	-4.486	-5.590	699.219
4.309	0.411	0.927	0.110	0.672	0.187	-0.376	-0.398	-2.395	-1.899	-3.670	-4.929	1.399	2.780	2.554	0.969	2.999	1.332	2.720	2.050	3.099	2.477	1.649	1.256	-2.506	-4.141	-4.305	-5.519	703.125
4.142	0.367	0.907	0.040	0.670	0.287	-0.192	-0.374	-2.328	-1.815	-3.663	-4.954	1.558	2.920	2.474	0.767	2.904	1.365	2.748	1.774	3.033	2.615	1.816	1.532	-2.411	-4.029	-4.209	-5.515	707.031
4.035	0.384	0.928	0.029	0.725	0.428	0.109	-0.294	-2.178	-1.651	-3.625	-5.008	1.738	3.053	2.398	0.601	2.773	1.346	2.723	1.523	2.984	2.712	1.963	1.715	-2.383	-4.020	-4.186	-5.552	710.938
3.966	0.430	0.976	0.061	0.830	0.596	0.495	-0.165	-1.962	-1.419	-3.550	-5.064	1.926	3.164	2.312	0.458	2.592	1.275	2.633	1.303	2.945	2.756	2.074	1.802	-2.405	-4.081	-4.206	-5.598	714.844
3.907	0.474	1.034	0.119	0.975	0.773	0.932	-0.004	-1.709	-1.134	-3.436	-5.095	2.111	3.244	2.206	0.323	2.355	1.154	2.476	1.117	2.915	2.740	2.134	1.803	-2.459	-4.178	-4.236	-5.621	718.750
3.838	0.488	1.085	0.189	1.148	0.943	1.378	0.168	-1.448	-0.816	-3.283	-5.081	2.284	3.290	2.076	0.185	2.068	0.993	2.262	0.967	2.891	2.668	2.134	1.737	-2.531	-4.275	-4.239	-5.596	722.656
3.740	0.457	1.118	0.255	1.328	1.085	1.792	0.332	-1.204	-0.484	-3.098	-5.004	2.441	3.306	1.926	0.039	1.752	0.809	2.017	0.854	2.874	2.552	2.071	1.632	-2.611	-4.347	-4.187	-5.513	726.562
3.603	0.374	1.123	0.304	1.494	1.182	2.139	0.466	-0.997	-0.157	-2.885	-4.860	2.577	3.296	1.769	-0.113	1.441	0.625	1.778	0.778	2.864	2.412	1.957	1.515	-2.699	-4.379	-4.063	-5.369	730.469
3.424	0.243	1.094	0.321	1.617	1.218	2.389	0.557	-0.841	0.147	-2.651	-4.650	2.691	3.265	1.622	-0.263	1.176	0.466	1.584	0.738	2.859	2.275	1.812	1.411	-2.796	-4.369	-3.867	-5.172	734.375
3.208	0.076	1.033	0.296	1.672	1.181	2.525	0.593	-0.742	0.410	-2.404	-4.383	2.782	3.219	1.501	-0.399	0.991	0.357	1.467	0.727	2.850	2.167	1.666	1.338	-2.899	-4.321	-3.606	-4.936	738.281
2.968	-0.114	0.943	0.219	1.638	1.064	2.539	0.570	-0.704	0.619	-2.154	-4.073	2.851	3.161	1.420	-0.514	0.907	0.319	1.445	0.735	2.832	2.107	1.546	1.309	-3.005	-4.243	-3.302	-4.673	742.188
2.723	-0.312	0.833	0.084	1.501	0.873	2.438	0.490	-0.728	0.759	-1.913	-3.740	2.904	3.097	1.384	-0.601	0.928	0.358	1.516	0.749	2.794	2.105	1.476	1.328	-3.105	-4.148	-2.977	-4.400	746.094
2.494	-0.505	0.711	-0.108	1.265	0.620	2.238	0.362	-0.810	0.823	-1.695	-3.404	2.946	3.032	1.391	-0.663	1.038	0.473	1.660	0.752	2.731	2.157	1.469	1.392	-3.187	-4.046	-2.659	-4.128	750.000
2.300	-0.687	0.589	-0.352	0.944	0.325	1.967	0.199	-0.945	0.808	-1.511	-3.083	2.987	2.971	1.432	-0.705	1.209	0.648	1.843	0.731	2.642	2.252	1.524	1.493	-3.240	-3.949	-2.367	-3.868	753.906
2.154	-0.853	0.473	-0.632	0.568	0.016	1.657	0.021	-1.118	0.721	-1.372	-2.795	3.035	2.921	1.494	-0.739	1.405	0.858	2.029	0.676	2.531	2.369	1.628	1.620	-3.257	-3.864	-2.118	-3.629	757.812
2.061	-1.003	0.368	-0.930	0.174	-0.281	1.345	-0.150	-1.308	0.580	-1.279	-2.550	3.094	2.887	1.560	-0.771	1.590	1.072	2.182	0.587	2.408	2.490	1.760	1.760	-3.236	-3.798	-1.919	-3.420	761.719
2.017	-1.135	0.277	-1.221	-0.198	-0.540	1.063	-0.292	-1.486	0.413	-1.229	-2.358	3.165	2.874	1.617	-0.807	1.736	1.258	2.281	0.471	2.288	2.597	1.895	1.904	-3.183	-3.752	-1.769	-3.247	765.625
2.010	-1.248	0.195	-1.477	-0.508	-0.741	0.841	-0.382	-1.617	0.252	-1.211	-2.219	3.244	2.882	1.653	-0.844	1.826	1.384	2.317	0.345	2.188	2.681	2.010	2.042	-3.105	-3.719	-1.659	-3.112	769.531
2.022	-1.337	0.114	-1.674	-0.729	-0.874	0.702	-0.405	-1.670	0.131	-1.212	-2.133	3.321	2.912	1.661	-0.876	1.854	1.427	2.296	0.231	2.122	2.743	2.089	2.171	-3.011	-3.690	-1.577	-3.016	773.438
2.033	-1.400	0.023	-1.795	-0.843	-0.938	0.654	-0.353	-1.618	0.078	-1.218	-2.092	3.385	2.956	1.639	-0.890	1.827	1.371	2.234	0.152	2.101	2.789	2.124	2.291	-2.908	-3.648	-1.506	-2.950	777.344
2.023	-1.433	-0.091	-1.830	-0.849	-0.940	0.700	-0.227	-1.448	0.111	-1.217	-2.089	3.425	3.009	1.587	-0.874	1.755	1.209	2.152	0.125	2.129	2.830	2.119	2.405	-2.800	-3.577	-1.431	-2.904	781.250
1.977	-1.436	-0.236	-1.784	-0.759	-0.897	0.830	-0.035	-1.158	0.235	-1.201	-2.113	3.435	3.063	1.508	-0.822	1.656	0.949	2.071	0.159	2.203	2.876	2.082	2.519	-2.687	-3.464	-1.339	-2.866	785.156
1.891	-1.414	-0.415	-1.671	-0.596	-0.823	1.024	0.207	-0.767	0.439	-1.167	-2.153	3.413	3.112	1.410	-0.731	1.543	0.608	2.005	0.253	2.316	2.936	2.026	2.638	-2.567	-3.304	-1.223	-2.825	789.062
1.768	-1.375	-0.624	-1.514	-0.390	-0.737	1.258	0.480	-0.301	0.702	-1.116	-2.200	3.366	3.153	1.299	-0.608	1.431	0.212	1.961	0.393	2.454	3.014	1.963	2.765	-2.442	-3.103	-1.081	-2.774	792.969
1.621	-1.328	-0.852	-1.338	-0.169	-0.653	1.506	0.765	0.200	0.995	-1.053	-2.243	3.303	3.189	1.185	-0.467	1.327	-0.207	1.937	0.559	2.602	3.106	1.901	2.901	-2.314	-2.877	-0.920	-2.712	796.875
