FP1	F3	F7	FC3	C3	C5	P3	P7	PO7	PO3	O1	Oz	Pz	CPz	FP2	Fz	F4	F8	FC4	FCz	Cz	C4	C6	P4	P8	PO8	PO4	O2	time
-0.119	-0.112	-0.320	0.292	0.633	0.580	0.595	1.403	1.339	0.798	0.430	0.021	-0.184	-0.236	-0.336	-0.591	-1.032	0.206	-0.617	0.061	0.211	-0.457	0.368	-0.168	-0.678	-0.992	-0.228	-0.157	-199.219
-0.574	-0.391	-0.586	0.006	0.629	0.516	0.909	1.387	1.380	1.018	0.620	0.329	0.287	0.122	-0.422	-0.698	-0.838	-0.056	-0.626	-0.184	0.311	-0.402	0.052	0.200	-0.440	-0.559	0.152	0.172	-195.312
-0.977	-0.626	-0.823	-0.248	0.615	0.449	1.173	1.325	1.366	1.194	0.762	0.596	0.719	0.464	-0.492	-0.786	-0.661	-0.280	-0.610	-0.384	0.419	-0.317	-0.201	0.551	-0.201	-0.156	0.494	0.461	-191.406
-1.276	-0.779	-0.995	-0.444	0.583	0.375	1.344	1.186	1.262	1.286	0.821	0.790	1.072	0.767	-0.527	-0.835	-0.503	-0.431	-0.550	-0.504	0.538	-0.186	-0.348	0.862	0.031	0.187	0.766	0.675	-187.500
-1.437	-0.830	-1.079	-0.566	0.520	0.292	1.386	0.951	1.044	1.266	0.772	0.888	1.312	1.007	-0.517	-0.830	-0.368	-0.486	-0.440	-0.522	0.662	-0.007	-0.370	1.113	0.249	0.448	0.945	0.794	-183.594
-1.443	-0.776	-1.065	-0.612	0.417	0.193	1.280	0.615	0.707	1.115	0.605	0.885	1.414	1.161	-0.456	-0.765	-0.255	-0.435	-0.284	-0.437	0.780	0.207	-0.271	1.286	0.446	0.624	1.024	0.812	-179.688
-1.301	-0.633	-0.955	-0.591	0.267	0.075	1.025	0.195	0.265	0.835	0.331	0.787	1.368	1.213	-0.349	-0.640	-0.160	-0.287	-0.098	-0.267	0.873	0.429	-0.082	1.371	0.618	0.720	1.012	0.739	-175.781
-1.037	-0.432	-0.766	-0.522	0.073	-0.060	0.641	-0.273	-0.242	0.446	-0.020	0.617	1.183	1.154	-0.205	-0.466	-0.074	-0.062	0.094	-0.042	0.923	0.626	0.151	1.365	0.755	0.748	0.924	0.597	-171.875
-0.693	-0.209	-0.519	-0.430	-0.157	-0.203	0.170	-0.736	-0.759	-0.013	-0.404	0.407	0.880	0.989	-0.041	-0.258	0.014	0.207	0.266	0.198	0.915	0.766	0.370	1.274	0.847	0.721	0.785	0.415	-167.969
-0.318	0.003	-0.239	-0.335	-0.405	-0.338	-0.331	-1.134	-1.220	-0.489	-0.768	0.189	0.498	0.735	0.129	-0.037	0.119	0.485	0.399	0.416	0.842	0.821	0.524	1.109	0.877	0.647	0.616	0.222	-164.062
0.037	0.181	0.049	-0.252	-0.644	-0.444	-0.799	-1.410	-1.567	-0.922	-1.063	-0.006	0.082	0.421	0.289	0.177	0.252	0.736	0.478	0.585	0.706	0.779	0.573	0.889	0.828	0.526	0.435	0.043	-160.156
0.330	0.312	0.320	-0.188	-0.847	-0.501	-1.177	-1.528	-1.753	-1.263	-1.247	-0.157	-0.317	0.088	0.428	0.370	0.416	0.933	0.503	0.692	0.524	0.647	0.502	0.635	0.687	0.359	0.254	-0.105	-156.250
0.533	0.396	0.553	-0.142	-0.991	-0.499	-1.422	-1.477	-1.764	-1.475	-1.303	-0.254	-0.651	-0.222	0.536	0.530	0.604	1.059	0.485	0.736	0.321	0.451	0.322	0.377	0.456	0.147	0.080	-0.216	-152.344
0.629	0.442	0.728	-0.103	-1.057	-0.437	-1.512	-1.279	-1.613	-1.545	-1.235	-0.304	-0.883	-0.469	0.610	0.654	0.798	1.109	0.443	0.732	0.127	0.231	0.069	0.143	0.148	-0.102	-0.080	-0.293	-148.438
0.620	0.461	0.830	-0.060	-1.036	-0.328	-1.452	-0.985	-1.346	-1.486	-1.071	-0.320	-0.990	-0.622	0.649	0.741	0.973	1.088	0.402	0.699	-0.028	0.037	-0.203	-0.035	-0.205	-0.370	-0.220	-0.345	-144.531
0.522	0.465	0.847	-0.005	-0.933	-0.193	-1.268	-0.663	-1.024	-1.328	-0.856	-0.325	-0.965	-0.661	0.655	0.793	1.104	1.013	0.383	0.659	-0.122	-0.083	-0.431	-0.135	-0.557	-0.633	-0.332	-0.385	-140.625
0.361	0.461	0.780	0.066	-0.762	-0.063	-1.001	-0.385	-0.717	-1.115	-0.641	-0.342	-0.819	-0.584	0.635	0.815	1.171	0.902	0.405	0.628	-0.143	-0.094	-0.565	-0.142	-0.862	-0.862	-0.409	-0.426	-136.719
0.169	0.451	0.639	0.150	-0.546	0.035	-0.697	-0.207	-0.480	-0.890	-0.469	-0.383	-0.578	-0.405	0.596	0.810	1.167	0.772	0.474	0.615	-0.090	0.022	-0.570	-0.054	-1.076	-1.031	-0.443	-0.475	-132.812
-0.023	0.433	0.444	0.234	-0.314	0.078	-0.400	-0.165	-0.349	-0.688	-0.366	-0.452	-0.277	-0.152	0.543	0.777	1.095	0.636	0.584	0.618	0.022	0.252	-0.442	0.114	-1.169	-1.119	-0.430	-0.530	-128.906
-0.191	0.401	0.222	0.298	-0.098	0.058	-0.142	-0.257	-0.328	-0.526	-0.335	-0.539	0.041	0.139	0.480	0.717	0.965	0.499	0.715	0.628	0.172	0.564	-0.202	0.331	-1.129	-1.113	-0.372	-0.584	-125.000
-0.318	0.349	0.005	0.322	0.075	-0.023	0.059	-0.454	-0.395	-0.405	-0.359	-0.621	0.334	0.425	0.406	0.626	0.792	0.363	0.840	0.628	0.327	0.903	0.107	0.559	-0.961	-1.014	-0.278	-0.622	-121.094
-0.394	0.273	-0.179	0.289	0.181	-0.151	0.198	-0.703	-0.507	-0.313	-0.404	-0.675	0.562	0.661	0.319	0.500	0.589	0.226	0.929	0.598	0.453	1.207	0.431	0.752	-0.687	-0.828	-0.164	-0.627	-117.188
-0.416	0.173	-0.309	0.191	0.209	-0.303	0.279	-0.940	-0.614	-0.231	-0.432	-0.677	0.696	0.809	0.215	0.338	0.367	0.091	0.952	0.519	0.519	1.417	0.716	0.869	-0.341	-0.574	-0.046	-0.588	-113.281
-0.389	0.053	-0.375	0.030	0.158	-0.452	0.312	-1.106	-0.668	-0.142	-0.413	-0.613	0.713	0.840	0.097	0.144	0.135	-0.036	0.892	0.383	0.501	1.489	0.922	0.883	0.041	-0.272	0.055	-0.496	-109.375
-0.322	-0.077	-0.381	-0.176	0.040	-0.571	0.309	-1.157	-0.640	-0.039	-0.330	-0.482	0.609	0.739	-0.034	-0.069	-0.098	-0.141	0.748	0.188	0.386	1.402	1.024	0.782	0.418	0.051	0.127	-0.356	-105.469
-0.227	-0.204	-0.337	-0.399	-0.120	-0.642	0.281	-1.076	-0.520	0.077	-0.186	-0.297	0.393	0.513	-0.166	-0.282	-0.318	-0.213	0.532	-0.050	0.176	1.163	1.019	0.576	0.756	0.369	0.164	-0.177	-101.562
-0.117	-0.312	-0.263	-0.604	-0.292	-0.653	0.234	-0.871	-0.320	0.195	-0.000	-0.082	0.089	0.186	-0.286	-0.470	-0.509	-0.243	0.274	-0.306	-0.108	0.807	0.923	0.292	1.026	0.656	0.165	0.020	-97.656
-0.005	-0.383	-0.181	-0.756	-0.442	-0.604	0.173	-0.576	-0.071	0.300	0.199	0.129	-0.267	-0.200	-0.379	-0.605	-0.653	-0.229	0.012	-0.546	-0.433	0.388	0.763	-0.028	1.205	0.889	0.140	0.210	-93.750
0.099	-0.404	-0.109	-0.826	-0.544	-0.504	0.101	-0.241	0.190	0.375	0.378	0.304	-0.630	-0.594	-0.432	-0.663	-0.735	-0.181	-0.215	-0.735	-0.754	-0.030	0.574	-0.341	1.283	1.047	0.100	0.369	-89.844
0.188	-0.367	-0.060	-0.799	-0.580	-0.368	0.018	0.081	0.423	0.409	0.509	0.418	-0.956	-0.941	-0.438	-0.631	-0.746	-0.113	-0.378	-0.843	-1.027	-0.391	0.386	-0.609	1.257	1.119	0.059	0.477	-85.938
0.258	-0.274	-0.037	-0.674	-0.546	-0.219	-0.074	0.341	0.593	0.399	0.574	0.454	-1.206	-1.194	-0.394	-0.508	-0.683	-0.045	-0.458	-0.853	-1.210	-0.652	0.223	-0.804	1.133	1.102	0.024	0.521	-82.031
0.312	-0.133	-0.038	-0.464	-0.451	-0.077	-0.175	0.502	0.677	0.346	0.569	0.411	-1.353	-1.321	-0.305	-0.308	-0.552	0.005	-0.455	-0.760	-1.276	-0.793	0.095	-0.920	0.928	1.005	0.000	0.498	-78.125
0.354	0.042	-0.050	-0.197	-0.313	0.040	-0.284	0.547	0.666	0.256	0.499	0.300	-1.387	-1.311	-0.182	-0.054	-0.368	0.027	-0.381	-0.579	-1.214	-0.822	0.001	-0.970	0.664	0.840	-0.018	0.415	-74.219
0.394	0.233	-0.058	0.098	-0.155	0.123	-0.397	0.480	0.559	0.135	0.376	0.142	-1.315	-1.172	-0.039	0.222	-0.153	0.016	-0.261	-0.333	-1.036	-0.762	-0.068	-0.978	0.368	0.627	-0.042	0.285	-70.312
0.441	0.419	-0.046	0.388	0.004	0.169	-0.509	0.318	0.368	-0.009	0.218	-0.040	-1.158	-0.935	0.106	0.486	0.068	-0.024	-0.122	-0.057	-0.766	-0.651	-0.123	-0.979	0.066	0.386	-0.089	0.124	-66.406
0.502	0.585	-0.003	0.646	0.147	0.184	-0.612	0.097	0.114	-0.171	0.043	-0.220	-0.945	-0.638	0.238	0.707	0.265	-0.081	0.007	0.215	-0.443	-0.526	-0.174	-1.002	-0.219	0.136	-0.172	-0.048	-62.500
0.581	0.715	0.076	0.851	0.267	0.179	-0.698	-0.142	-0.173	-0.343	-0.129	-0.375	-0.706	-0.329	0.341	0.861	0.414	-0.144	0.108	0.446	-0.112	-0.417	-0.226	-1.061	-0.468	-0.107	-0.297	-0.213	-58.594
0.675	0.799	0.186	0.990	0.361	0.167	-0.754	-0.354	-0.457	-0.515	-0.283	-0.488	-0.468	-0.050	0.406	0.934	0.494	-0.201	0.166	0.611	0.182	-0.344	-0.278	-1.155	-0.666	-0.329	-0.458	-0.355	-54.688
0.775	0.830	0.312	1.058	0.431	0.162	-0.766	-0.500	-0.698	-0.669	-0.400	-0.548	-0.252	0.165	0.428	0.922	0.500	-0.244	0.180	0.690	0.404	-0.312	-0.325	-1.263	-0.803	-0.518	-0.638	-0.461	-50.781
0.870	0.807	0.434	1.057	0.481	0.173	-0.725	-0.547	-0.854	-0.783	-0.466	-0.553	-0.066	0.297	0.410	0.831	0.435	-0.269	0.151	0.678	0.528	-0.317	-0.357	-1.355	-0.876	-0.665	-0.812	-0.522	-46.875
0.942	0.729	0.532	0.992	0.514	0.202	-0.621	-0.477	-0.890	-0.830	-0.469	-0.506	0.086	0.339	0.356	0.674	0.315	-0.275	0.087	0.579	0.544	-0.352	-0.370	-1.397	-0.884	-0.762	-0.950	-0.536	-42.969
0.971	0.601	0.587	0.874	0.534	0.247	-0.455	-0.288	-0.785	-0.788	-0.400	-0.416	0.208	0.302	0.274	0.468	0.160	-0.268	-0.005	0.405	0.456	-0.406	-0.361	-1.359	-0.834	-0.804	-1.026	-0.504	-39.062
0.937	0.430	0.590	0.718	0.542	0.303	-0.233	0.004	-0.534	-0.641	-0.259	-0.297	0.304	0.206	0.169	0.233	-0.012	-0.261	-0.121	0.178	0.285	-0.469	-0.338	-1.228	-0.735	-0.787	-1.020	-0.431	-35.156
0.827	0.227	0.543	0.539	0.539	0.358	0.029	0.367	-0.154	-0.385	-0.052	-0.162	0.379	0.078	0.043	-0.014	-0.187	-0.268	-0.255	-0.080	0.059	-0.535	-0.308	-1.006	-0.602	-0.709	-0.926	-0.327	-31.250
0.639	0.005	0.455	0.351	0.526	0.405	0.308	0.759	0.316	-0.036	0.207	-0.021	0.435	-0.054	-0.100	-0.254	-0.356	-0.307	-0.401	-0.341	-0.186	-0.597	-0.286	-0.712	-0.450	-0.571	-0.747	-0.200	-27.344
0.386	-0.221	0.346	0.170	0.505	0.435	0.579	1.133	0.822	0.378	0.496	0.118	0.473	-0.163	-0.255	-0.471	-0.510	-0.392	-0.551	-0.579	-0.414	-0.648	-0.282	-0.379	-0.292	-0.378	-0.497	-0.057	-23.438
0.093	-0.436	0.233	0.006	0.479	0.444	0.815	1.442	1.302	0.813	0.787	0.250	0.490	-0.233	-0.413	-0.651	-0.644	-0.527	-0.691	-0.771	-0.593	-0.682	-0.304	-0.047	-0.144	-0.139	-0.200	0.096	-19.531
-0.204	-0.624	0.138	-0.130	0.450	0.432	0.992	1.651	1.693	1.221	1.053	0.372	0.483	-0.257	-0.563	-0.782	-0.748	-0.705	-0.805	-0.898	-0.700	-0.689	-0.350	0.242	-0.017	0.131	0.114	0.251	-15.625
-0.471	-0.773	0.075	-0.235	0.422	0.404	1.094	1.738	1.948	1.556	1.264	0.483	0.453	-0.237	-0.691	-0.857	-0.814	-0.907	-0.872	-0.950	-0.726	-0.666	-0.413	0.451	0.081	0.409	0.412	0.402	-11.719
-0.675	-0.875	0.054	-0.307	0.401	0.366	1.115	1.701	2.038	1.780	1.401	0.578	0.397	-0.186	-0.782	-0.874	-0.836	-1.106	-0.879	-0.922	-0.672	-0.607	-0.479	0.553	0.142	0.667	0.663	0.541	-7.812
-0.795	-0.924	0.079	-0.346	0.392	0.330	1.058	1.554	1.961	1.872	1.453	0.655	0.321	-0.119	-0.830	-0.837	-0.811	-1.273	-0.817	-0.819	-0.552	-0.517	-0.529	0.538	0.166	0.876	0.842	0.659	-3.906
-0.816	-0.921	0.146	-0.356	0.400	0.305	0.934	1.332	1.742	1.830	1.419	0.712	0.228	-0.054	-0.830	-0.758	-0.745	-1.388	-0.691	-0.657	-0.384	-0.404	-0.549	0.409	0.155	1.014	0.931	0.748	0.000
-0.741	-0.872	0.249	-0.343	0.427	0.303	0.764	1.079	1.426	1.669	1.315	0.749	0.125	-0.006	-0.790	-0.654	-0.652	-1.441	-0.519	-0.455	-0.193	-0.288	-0.532	0.184	0.119	1.068	0.928	0.804	3.906
-0.582	-0.787	0.372	-0.313	0.470	0.326	0.568	0.841	1.073	1.422	1.165	0.768	0.019	0.013	-0.723	-0.546	-0.553	-1.437	-0.332	-0.238	-0.005	-0.193	-0.482	-0.107	0.069	1.039	0.840	0.828	7.812
-0.364	-0.682	0.500	-0.276	0.521	0.375	0.369	0.662	0.742	1.129	0.998	0.774	-0.086	-0.004	-0.647	-0.453	-0.472	-1.390	-0.165	-0.034	0.157	-0.143	-0.413	-0.432	0.021	0.943	0.685	0.824	11.719
-0.116	-0.576	0.612	-0.239	0.567	0.440	0.182	0.571	0.487	0.833	0.847	0.777	-0.189	-0.059	-0.580	-0.389	-0.427	-1.323	-0.052	0.133	0.275	-0.162	-0.350	-0.757	-0.010	0.805	0.486	0.803	15.625
0.130	-0.484	0.691	-0.211	0.596	0.508	0.017	0.579	0.341	0.570	0.737	0.784	-0.289	-0.149	-0.538	-0.363	-0.432	-1.257	-0.016	0.244	0.336	-0.263	-0.317	-1.056	-0.015	0.651	0.266	0.777	19.531
0.346	-0.415	0.727	-0.196	0.592	0.560	-0.121	0.682	0.318	0.364	0.686	0.802	-0.388	-0.268	-0.528	-0.373	-0.486	-1.210	-0.066	0.288	0.334	-0.446	-0.338	-1.311	0.011	0.508	0.045	0.755	23.438
0.515	-0.373	0.714	-0.192	0.548	0.580	-0.236	0.857	0.406	0.228	0.698	0.837	-0.487	-0.408	-0.550	-0.408	-0.579	-1.189	-0.192	0.262	0.270	-0.696	-0.426	-1.513	0.064	0.390	-0.160	0.748	27.344
0.626	-0.352	0.659	-0.198	0.462	0.552	-0.332	1.075	0.581	0.159	0.769	0.889	-0.584	-0.555	-0.595	-0.456	-0.693	-1.194	-0.369	0.173	0.151	-0.985	-0.580	-1.659	0.133	0.304	-0.337	0.761	31.250
0.677	-0.346	0.574	-0.206	0.341	0.472	-0.416	1.302	0.805	0.146	0.885	0.954	-0.673	-0.700	-0.653	-0.504	-0.809	-1.212	-0.563	0.037	-0.012	-1.275	-0.782	-1.750	0.204	0.249	-0.477	0.792	35.156
0.671	-0.343	0.472	-0.211	0.199	0.341	-0.490	1.512	1.040	0.173	1.022	1.020	-0.748	-0.828	-0.710	-0.542	-0.909	-1.229	-0.737	-0.128	-0.204	-1.526	-1.003	-1.787	0.257	0.219	-0.571	0.837	39.062
0.616	-0.336	0.367	-0.206	0.057	0.174	-0.552	1.682	1.252	0.222	1.154	1.069	-0.800	-0.929	-0.755	-0.566	-0.979	-1.227	-0.861	-0.300	-0.406	-1.702	-1.205	-1.771	0.276	0.204	-0.614	0.883	42.969
0.519	-0.321	0.268	-0.189	-0.063	-0.011	-0.596	1.803	1.419	0.277	1.254	1.074	-0.822	-0.994	-0.779	-0.576	-1.011	-1.193	-0.912	-0.456	-0.600	-1.780	-1.352	-1.700	0.252	0.201	-0.599	0.913	46.875
0.389	-0.299	0.180	-0.159	-0.141	-0.191	-0.614	1.872	1.533	0.328	1.298	1.007	-0.815	-1.019	-0.781	-0.572	-1.004	-1.125	-0.884	-0.577	-0.768	-1.750	-1.415	-1.572	0.183	0.209	-0.527	0.906	50.781
0.231	-0.270	0.099	-0.119	-0.166	-0.348	-0.598	1.894	1.598	0.372	1.267	0.839	-0.783	-1.005	-0.761	-0.558	-0.964	-1.026	-0.788	-0.647	-0.897	-1.624	-1.386	-1.389	0.082	0.236	-0.402	0.839	54.688
0.049	-0.238	0.019	-0.071	-0.134	-0.468	-0.542	1.882	1.634	0.414	1.154	0.549	-0.740	-0.960	-0.728	-0.531	-0.899	-0.910	-0.646	-0.660	-0.977	-1.427	-1.271	-1.157	-0.022	0.300	-0.233	0.696	58.594
-0.153	-0.204	-0.066	-0.020	-0.050	-0.548	-0.444	1.852	1.672	0.464	0.962	0.132	-0.704	-0.898	-0.694	-0.493	-0.825	-0.797	-0.491	-0.616	-1.009	-1.200	-1.098	-0.890	-0.092	0.425	-0.034	0.470	62.500
-0.374	-0.171	-0.164	0.028	0.068	-0.590	-0.308	1.821	1.745	0.536	0.709	-0.403	-0.697	-0.838	-0.674	-0.444	-0.759	-0.708	-0.358	-0.525	-1.002	-0.987	-0.904	-0.605	-0.082	0.638	0.177	0.165	66.406
-0.610	-0.143	-0.284	0.066	0.200	-0.608	-0.142	1.810	1.886	0.646	0.422	-1.025	-0.735	-0.798	-0.679	-0.391	-0.712	-0.659	-0.278	-0.407	-0.976	-0.832	-0.731	-0.327	0.050	0.959	0.383	-0.202	70.312
-0.857	-0.126	-0.431	0.087	0.319	-0.614	0.045	1.835	2.123	0.808	0.138	-1.690	-0.828	-0.799	-0.720	-0.341	-0.695	-0.662	-0.270	-0.290	-0.953	-0.765	-0.614	-0.080	0.331	1.397	0.567	-0.605	74.219
-1.110	-0.131	-0.614	0.079	0.401	-0.628	0.245	1.916	2.476	1.037	-0.104	-2.344	-0.970	-0.852	-0.800	-0.310	-0.709	-0.717	-0.341	-0.204	-0.961	-0.803	-0.575	0.115	0.770	1.941	0.712	-1.011	78.125
-1.366	-0.179	-0.838	0.028	0.424	-0.662	0.457	2.069	2.960	1.348	-0.258	-2.926	-1.141	-0.961	-0.919	-0.320	-0.753	-0.816	-0.484	-0.180	-1.023	-0.944	-0.620	0.245	1.348	2.564	0.811	-1.385	82.031
-1.627	-0.292	-1.113	-0.085	0.372	-0.730	0.688	2.309	3.584	1.759	-0.278	-3.375	-1.303	-1.116	-1.076	-0.395	-0.828	-0.948	-0.686	-0.250	-1.159	-1.170	-0.741	0.308	2.023	3.220	0.862	-1.693	85.938
-1.900	-0.497	-1.444	-0.277	0.234	-0.838	0.953	2.648	4.354	2.290	-0.122	-3.638	-1.409	-1.299	-1.270	-0.563	-0.942	-1.103	-0.931	-0.436	-1.374	-1.456	-0.918	0.315	2.737	3.862	0.879	-1.903	89.844
-2.196	-0.819	-1.835	-0.564	0.014	-0.988	1.274	3.093	5.272	2.962	0.243	-3.672	-1.407	-1.480	-1.503	-0.849	-1.114	-1.276	-1.212	-0.756	-1.665	-1.774	-1.132	0.291	3.426	4.446	0.886	-1.988	93.750
-2.532	-1.275	-2.288	-0.954	-0.277	-1.176	1.673	3.643	6.333	3.791	0.836	-3.457	-1.253	-1.625	-1.783	-1.271	-1.370	-1.476	-1.524	-1.210	-2.012	-2.097	-1.363	0.267	4.035	4.942	0.917	-1.930	97.656
-2.919	-1.865	-2.794	-1.442	-0.615	-1.392	2.167	4.283	7.517	4.775	1.650	-2.997	-0.922	-1.703	-2.115	-1.832	-1.736	-1.714	-1.870	-1.782	-2.385	-2.404	-1.601	0.279	4.525	5.340	1.012	-1.720	101.562
-3.359	-2.569	-3.339	-2.007	-0.965	-1.621	2.757	4.984	8.784	5.892	2.646	-2.326	-0.411	-1.688	-2.498	-2.511	-2.223	-2.007	-2.249	-2.439	-2.743	-2.675	-1.836	0.357	4.874	5.644	1.199	-1.369	105.469
-3.840	-3.344	-3.898	-2.609	-1.286	-1.844	3.428	5.702	10.068	7.089	3.754	-1.510	0.254	-1.565	-2.920	-3.266	-2.821	-2.361	-2.653	-3.126	-3.041	-2.897	-2.064	0.521	5.080	5.865	1.489	-0.905	109.375
-4.335	-4.127	-4.435	-3.193	-1.536	-2.038	4.146	6.384	11.283	8.288	4.878	-0.635	1.025	-1.329	-3.353	-4.033	-3.489	-2.768	-3.060	-3.775	-3.236	-3.059	-2.283	0.769	5.152	6.011	1.868	-0.376	113.281
-4.803	-4.845	-4.909	-3.699	-1.678	-2.181	4.861	6.970	12.329	9.389	5.908	0.201	1.835	-0.994	-3.759	-4.733	-4.162	-3.199	-3.440	-4.317	-3.292	-3.152	-2.486	1.081	5.100	6.077	2.292	0.157	117.188
-5.193	-5.426	-5.277	-4.071	-1.690	-2.256	5.514	7.406	13.106	10.288	6.736	0.907	2.608	-0.583	-4.090	-5.293	-4.759	-3.606	-3.752	-4.689	-3.190	-3.170	-2.666	1.416	4.935	6.046	2.700	0.629	121.094
-5.459	-5.812	-5.500	-4.267	-1.568	-2.249	6.045	7.650	13.535	10.889	7.280	1.417	3.272	-0.134	-4.304	-5.651	-5.203	-3.936	-3.962	-4.849	-2.935	-3.115	-2.812	1.724	4.667	5.897	3.023	0.989	125.000
-5.567	-5.970	-5.555	-4.269	-1.331	-2.160	6.399	7.680	13.569	11.125	7.497	1.701	3.762	0.309	-4.370	-5.775	-5.434	-4.137	-4.043	-4.783	-2.552	-2.995	-2.914	1.952	4.308	5.616	3.200	1.207	128.906
-5.501	-5.894	-5.434	-4.086	-1.017	-1.996	6.533	7.497	13.206	10.964	7.389	1.771	4.034	0.699	-4.281	-5.665	-5.425	-4.177	-3.986	-4.508	-2.086	-2.825	-2.966	2.054	3.878	5.207	3.196	1.283	132.812
-5.268	-5.611	-5.152	-3.751	-0.677	-1.779	6.422	7.125	12.486	10.418	7.005	1.675	4.061	0.988	-4.055	-5.354	-5.187	-4.051	-3.802	-4.072	-1.599	-2.625	-2.970	2.005	3.408	4.704	3.010	1.249	136.719
-4.898	-5.169	-4.742	-3.320	-0.369	-1.536	6.060	6.607	11.491	9.539	6.430	1.490	3.836	1.137	-3.729	-4.898	-4.764	-3.784	-3.519	-3.540	-1.154	-2.421	-2.933	1.801	2.943	4.170	2.674	1.164	140.625
-4.438	-4.633	-4.251	-2.857	-0.145	-1.303	5.462	5.996	10.330	8.411	5.769	1.299	3.374	1.119	-3.356	-4.369	-4.222	-3.425	-3.177	-2.985	-0.809	-2.235	-2.868	1.463	2.541	3.695	2.252	1.097	144.531
-3.945	-4.074	-3.735	-2.426	-0.048	-1.115	4.659	5.353	9.121	7.135	5.124	1.179	2.704	0.923	-2.994	-3.836	-3.638	-3.036	-2.817	-2.478	-0.608	-2.087	-2.793	1.036	2.265	3.376	1.828	1.120	148.438
-3.478	-3.556	-3.250	-2.085	-0.101	-1.003	3.700	4.731	7.976	5.818	4.585	1.180	1.868	0.555	-2.693	-3.360	-3.080	-2.679	-2.479	-2.077	-0.574	-1.991	-2.720	0.577	2.178	3.306	1.485	1.284	152.344
-3.084	-3.133	-2.847	-1.872	-0.303	-0.991	2.644	4.178	6.990	4.557	4.210	1.322	0.914	0.035	-2.489	-2.983	-2.603	-2.400	-2.196	-1.819	-0.711	-1.951	-2.656	0.149	2.328	3.553	1.298	1.617	156.250
-2.802	-2.841	-2.562	-1.810	-0.637	-1.088	1.559	3.727	6.228	3.430	4.023	1.590	-0.106	-0.603	-2.403	-2.731	-2.242	-2.229	-1.991	-1.719	-1.001	-1.970	-2.599	-0.192	2.742	4.150	1.315	2.116	160.156
-2.649	-2.698	-2.417	-1.898	-1.068	-1.289	0.512	3.402	5.726	2.494	4.018	1.943	-1.145	-1.321	-2.437	-2.614	-2.016	-2.170	-1.879	-1.776	-1.415	-2.046	-2.543	-0.410	3.422	5.086	1.551	2.748	164.062
-2.629	-2.703	-2.413	-2.121	-1.554	-1.573	-0.432	3.217	5.492	1.783	4.165	2.329	-2.158	-2.075	-2.585	-2.630	-1.934	-2.213	-1.870	-1.972	-1.919	-2.180	-2.482	-0.489	4.340	6.315	1.991	3.463	167.969
-2.729	-2.843	-2.537	-2.449	-2.051	-1.912	-1.217	3.178	5.513	1.312	4.423	2.696	-3.108	-2.828	-2.830	-2.770	-1.996	-2.344	-1.973	-2.282	-2.473	-2.372	-2.413	-0.436	5.443	7.760	2.594	4.204	171.875
-2.927	-3.089	-2.756	-2.845	-2.523	-2.270	-1.802	3.283	5.760	1.082	4.750	3.005	-3.959	-3.545	-3.158	-3.021	-2.201	-2.546	-2.193	-2.677	-3.047	-2.626	-2.345	-0.278	6.662	9.329	3.305	4.918	175.781
-3.198	-3.411	-3.033	-3.272	-2.942	-2.614	-2.163	3.525	6.198	1.083	5.116	3.239	-4.683	-4.197	-3.554	-3.372	-2.548	-2.814	-2.531	-3.133	-3.611	-2.941	-2.292	-0.048	7.916	10.924	4.062	5.564	179.688
-3.519	-3.774	-3.330	-3.695	-3.292	-2.916	-2.295	3.887	6.788	1.298	5.503	3.402	-5.251	-4.757	-4.006	-3.808	-3.031	-3.148	-2.980	-3.625	-4.144	-3.312	-2.276	0.221	9.123	12.455	4.815	6.122	183.594
-3.878	-4.151	-3.615	-4.089	-3.567	-3.158	-2.210	4.343	7.489	1.708	5.904	3.517	-5.636	-5.204	-4.503	-4.317	-3.638	-3.553	-3.521	-4.135	-4.626	-3.724	-2.319	0.503	10.208	13.843	5.524	6.585	187.500
-4.271	-4.519	-3.869	-4.441	-3.770	-3.335	-1.934	4.859	8.262	2.288	6.322	3.613	-5.812	-5.515	-5.031	-4.879	-4.344	-4.031	-4.123	-4.642	-5.040	-4.149	-2.438	0.787	11.110	15.029	6.169	6.962	191.406
-4.701	-4.868	-4.090	-4.747	-3.913	-3.455	-1.506	5.393	9.072	3.009	6.761	3.721	-5.763	-5.672	-5.572	-5.470	-5.109	-4.574	-4.741	-5.128	-5.371	-4.552	-2.634	1.077	11.788	15.973	6.745	7.267	195.312
-5.170	-5.196	-4.288	-5.016	-4.013	-3.537	-0.973	5.904	9.880	3.839	7.221	3.864	-5.483	-5.667	-6.100	-6.065	-5.879	-5.159	-5.325	-5.575	-5.609	-4.893	-2.895	1.384	12.228	16.658	7.262	7.516	199.219
-5.674	-5.509	-4.481	-5.263	-4.088	-3.602	-0.382	6.355	10.653	4.740	7.696	4.053	-4.983	-5.502	-6.585	-6.632	-6.594	-5.751	-5.828	-5.967	-5.749	-5.138	-3.194	1.725	12.441	17.088	7.735	7.724	203.125
-6.199	-5.818	-4.689	-5.506	-4.160	-3.675	0.221	6.718	11.360	5.669	8.172	4.286	-4.297	-5.196	-7.001	-7.147	-7.203	-6.308	-6.216	-6.297	-5.796	-5.265	-3.496	2.109	12.464	17.286	8.180	7.898	207.031
-6.722	-6.132	-4.924	-5.760	-4.244	-3.772	0.793	6.980	11.975	6.583	8.630	4.551	-3.473	-4.783	-7.323	-7.591	-7.666	-6.784	-6.472	-6.562	-5.764	-5.271	-3.763	2.538	12.348	17.288	8.608	8.042	210.938
-7.210	-6.456	-5.191	-6.033	-4.349	-3.902	1.306	7.144	12.478	7.438	9.049	4.829	-2.578	-4.310	-7.541	-7.954	-7.971	-7.147	-6.604	-6.769	-5.676	-5.171	-3.964	3.003	12.154	17.139	9.022	8.156	214.844
-7.629	-6.789	-5.483	-6.326	-4.479	-4.064	1.737	7.224	12.855	8.196	9.409	5.096	-1.680	-3.827	-7.654	-8.236	-8.126	-7.377	-6.638	-6.931	-5.559	-4.999	-4.078	3.483	11.940	16.890	9.418	8.234	218.750
-7.947	-7.125	-5.786	-6.631	-4.626	-4.250	2.078	7.243	13.100	8.820	9.688	5.333	-0.844	-3.382	-7.675	-8.443	-8.163	-7.475	-6.610	-7.061	-5.437	-4.792	-4.095	3.955	11.758	16.587	9.783	8.275	222.656
-8.145	-7.450	-6.088	-6.933	-4.782	-4.446	2.327	7.224	13.213	9.282	9.869	5.520	-0.120	-3.008	-7.624	-8.583	-8.119	-7.455	-6.554	-7.168	-5.329	-4.584	-4.015	4.399	11.643	16.274	10.099	8.273	226.562
-8.214	-7.751	-6.374	-7.217	-4.934	-4.639	2.487	7.187	13.198	9.558	9.933	5.638	0.460	-2.723	-7.522	-8.666	-8.034	-7.343	-6.492	-7.256	-5.240	-4.396	-3.846	4.797	11.616	15.984	10.348	8.227	230.469
-8.162	-8.014	-6.638	-7.467	-5.071	-4.821	2.566	7.144	13.060	9.636	9.865	5.673	0.884	-2.523	-7.391	-8.694	-7.934	-7.166	-6.432	-7.318	-5.164	-4.231	-3.598	5.144	11.680	15.738	10.507	8.132	234.375
-8.009	-8.227	-6.879	-7.673	-5.185	-4.985	2.574	7.095	12.813	9.511	9.657	5.609	1.161	-2.386	-7.243	-8.670	-7.829	-6.949	-6.360	-7.340	-5.085	-4.073	-3.279	5.440	11.825	15.545	10.558	7.985	238.281
-7.784	-8.384	-7.100	-7.828	-5.272	-5.132	2.522	7.037	12.470	9.195	9.306	5.437	1.312	-2.283	-7.086	-8.590	-7.712	-6.706	-6.252	-7.306	-4.981	-3.896	-2.899	5.689	12.032	15.400	10.488	7.783	242.188
-7.521	-8.484	-7.304	-7.930	-5.331	-5.262	2.420	6.964	12.057	8.713	8.824	5.150	1.368	-2.177	-6.921	-8.453	-7.568	-6.444	-6.081	-7.199	-4.831	-3.669	-2.467	5.897	12.272	15.292	10.289	7.522	246.094
-7.250	-8.530	-7.494	-7.983	-5.366	-5.374	2.280	6.871	11.601	8.105	8.232	4.748	1.359	-2.041	-6.743	-8.260	-7.375	-6.158	-5.828	-7.012	-4.621	-3.371	-1.998	6.068	12.519	15.202	9.964	7.200	250.000
-6.995	-8.531	-7.670	-7.991	-5.377	-5.467	2.118	6.756	11.135	7.419	7.564	4.242	1.313	-1.856	-6.549	-8.017	-7.120	-5.841	-5.488	-6.750	-4.349	-2.995	-1.509	6.199	12.743	15.109	9.524	6.819	253.906
-6.766	-8.494	-7.824	-7.960	-5.368	-5.535	1.945	6.624	10.691	6.709	6.861	3.649	1.245	-1.623	-6.333	-7.736	-6.796	-5.484	-5.072	-6.428	-4.025	-2.555	-1.024	6.281	12.920	14.992	8.987	6.384	257.812
-6.562	-8.430	-7.947	-7.895	-5.337	-5.571	1.776	6.484	10.299	6.026	6.166	2.996	1.166	-1.355	-6.093	-7.433	-6.408	-5.086	-4.605	-6.070	-3.669	-2.078	-0.571	6.303	13.031	14.838	8.379	5.907	261.719
-6.375	-8.345	-8.024	-7.800	-5.281	-5.566	1.622	6.347	9.980	5.414	5.516	2.318	1.075	-1.081	-5.832	-7.123	-5.969	-4.653	-4.122	-5.704	-3.312	-1.602	-0.177	6.251	13.058	14.635	7.734	5.401	265.625
-6.195	-8.245	-8.044	-7.678	-5.194	-5.515	1.492	6.224	9.748	4.906	4.945	1.654	0.969	-0.832	-5.555	-6.823	-5.499	-4.203	-3.658	-5.358	-2.981	-1.168	0.132	6.117	12.994	14.381	7.085	4.888	269.531
-6.015	-8.130	-7.999	-7.530	-5.073	-5.416	1.395	6.126	9.608	4.521	4.476	1.044	0.846	-0.638	-5.271	-6.543	-5.019	-3.764	-3.243	-5.056	-2.705	-0.814	0.338	5.899	12.832	14.076	6.465	4.391	273.438
-5.834	-8.003	-7.887	-7.360	-4.914	-5.272	1.337	6.059	9.555	4.272	4.124	0.527	0.709	-0.519	-4.994	-6.291	-4.549	-3.368	-2.895	-4.811	-2.500	-0.564	0.428	5.601	12.574	13.727	5.902	3.932	277.344
-5.660	-7.865	-7.718	-7.170	-4.718	-5.092	1.320	6.028	9.583	4.159	3.900	0.136	0.566	-0.483	-4.735	-6.070	-4.107	-3.046	-2.623	-4.627	-2.374	-0.432	0.399	5.240	12.226	13.343	5.421	3.535	281.250
-5.506	-7.718	-7.508	-6.964	-4.491	-4.893	1.349	6.032	9.679	4.178	3.806	-0.106	0.433	-0.519	-4.506	-5.879	-3.703	-2.820	-2.423	-4.502	-2.322	-0.415	0.258	4.837	11.798	12.935	5.035	3.219	285.156
-5.390	-7.567	-7.277	-6.749	-4.241	-4.692	1.424	6.068	9.827	4.319	3.840	-0.191	0.330	-0.608	-4.313	-5.714	-3.344	-2.700	-2.282	-4.422	-2.327	-0.496	0.022	4.422	11.307	12.515	4.751	2.997	289.062
-5.331	-7.412	-7.053	-6.529	-3.982	-4.508	1.541	6.126	10.007	4.560	3.987	-0.125	0.279	-0.718	-4.157	-5.568	-3.029	-2.678	-2.180	-4.370	-2.367	-0.648	-0.282	4.020	10.770	12.092	4.565	2.870	292.969
-5.342	-7.254	-6.858	-6.307	-3.726	-4.360	1.689	6.190	10.195	4.872	4.226	0.067	0.294	-0.818	-4.035	-5.429	-2.753	-2.730	-2.097	-4.323	-2.413	-0.840	-0.622	3.659	10.210	11.674	4.465	2.828	296.875
-5.427	-7.085	-6.711	-6.083	-3.485	-4.261	1.851	6.239	10.363	5.214	4.518	0.343	0.381	-0.881	-3.938	-5.281	-2.508	-2.822	-2.014	-4.256	-2.437	-1.035	-0.962	3.356	9.649	11.265	4.432	2.851	300.781
-5.575	-6.893	-6.621	-5.853	-3.270	-4.220	2.002	6.250	10.479	5.540	4.819	0.651	0.534	-0.888	-3.850	-5.107	-2.279	-2.919	-1.913	-4.143	-2.417	-1.203	-1.268	3.119	9.109	10.869	4.440	2.907	304.688
-5.761	-6.661	-6.583	-5.609	-3.085	-4.236	2.118	6.200	10.517	5.801	5.075	0.934	0.733	-0.832	-3.755	-4.884	-2.050	-2.990	-1.783	-3.961	-2.334	-1.317	-1.511	2.947	8.613	10.486	4.457	2.962	308.594
-5.951	-6.372	-6.582	-5.342	-2.928	-4.297	2.173	6.077	10.458	5.952	5.239	1.139	0.950	-0.717	-3.638	-4.598	-1.802	-3.014	-1.616	-3.694	-2.179	-1.359	-1.672	2.832	8.177	10.117	4.453	2.979	312.500
-6.106	-6.015	-6.593	-5.043	-2.793	-4.387	2.154	5.876	10.296	5.963	5.272	1.225	1.153	-0.556	-3.487	-4.236	-1.518	-2.987	-1.410	-3.333	-1.949	-1.318	-1.737	2.756	7.814	9.763	4.398	2.930	316.406
-6.194	-5.585	-6.591	-4.708	-2.672	-4.483	2.056	5.608	10.041	5.824	5.155	1.172	1.310	-0.369	-3.298	-3.801	-1.185	-2.919	-1.164	-2.881	-1.651	-1.193	-1.706	2.701	7.529	9.425	4.271	2.796	320.312
-6.195	-5.091	-6.551	-4.338	-2.555	-4.559	1.888	5.300	9.720	5.544	4.890	0.976	1.399	-0.176	-3.076	-3.304	-0.799	-2.827	-0.881	-2.352	-1.303	-0.989	-1.587	2.649	7.317	9.109	4.058	2.575	324.219
-6.108	-4.554	-6.458	-3.946	-2.437	-4.596	1.674	4.983	9.371	5.157	4.507	0.659	1.405	0.000	-2.831	-2.773	-0.370	-2.731	-0.569	-1.776	-0.929	-0.719	-1.398	2.585	7.169	8.817	3.762	2.276	328.125
-5.946	-4.008	-6.307	-3.552	-2.320	-4.587	1.443	4.696	9.039	4.711	4.056	0.260	1.327	0.139	-2.584	-2.245	0.079	-2.646	-0.240	-1.192	-0.561	-0.406	-1.164	2.504	7.066	8.555	3.397	1.927	332.031
-5.736	-3.492	-6.109	-3.184	-2.214	-4.532	1.231	4.471	8.771	4.264	3.601	-0.170	1.176	0.224	-2.354	-1.766	0.514	-2.578	0.083	-0.649	-0.237	-0.081	-0.919	2.405	6.990	8.329	2.993	1.566	335.938
-5.513	-3.052	-5.888	-2.877	-2.137	-4.447	1.070	4.333	8.603	3.877	3.216	-0.569	0.971	0.243	-2.163	-1.378	0.891	-2.526	0.377	-0.197	0.008	0.223	-0.698	2.298	6.921	8.145	2.590	1.240	339.844
-5.317	-2.726	-5.677	-2.664	-2.107	-4.355	0.989	4.292	8.562	3.605	2.967	-0.878	0.742	0.195	-2.030	-1.121	1.170	-2.486	0.612	0.122	0.146	0.471	-0.535	2.198	6.847	8.009	2.234	0.999	343.750
-5.184	-2.546	-5.513	-2.569	-2.141	-4.280	1.005	4.348	8.657	3.492	2.908	-1.045	0.523	0.091	-1.966	-1.018	1.318	-2.456	0.763	0.279	0.162	0.639	-0.454	2.127	6.758	7.927	1.971	0.884	347.656
-5.144	-2.524	-5.425	-2.604	-2.244	-4.240	1.130	4.489	8.881	3.566	3.066	-1.038	0.354	-0.048	-1.979	-1.076	1.315	-2.438	0.812	0.265	0.061	0.714	-0.472	2.107	6.651	7.898	1.838	0.923	351.562
-5.212	-2.654	-5.432	-2.764	-2.409	-4.246	1.362	4.692	9.211	3.833	3.438	-0.847	0.272	-0.185	-2.064	-1.280	1.165	-2.440	0.755	0.096	-0.133	0.702	-0.585	2.157	6.530	7.918	1.855	1.117	355.469
-5.392	-2.912	-5.533	-3.023	-2.615	-4.292	1.691	4.930	9.609	4.274	3.983	-0.497	0.310	-0.280	-2.212	-1.597	0.888	-2.474	0.603	-0.191	-0.379	0.624	-0.776	2.290	6.402	7.974	2.022	1.441	359.375
-5.666	-3.252	-5.706	-3.340	-2.829	-4.359	2.097	5.173	10.025	4.850	4.626	-0.043	0.494	-0.290	-2.403	-1.978	0.525	-2.550	0.380	-0.543	-0.624	0.511	-1.014	2.507	6.274	8.043	2.313	1.837	363.281
-6.003	-3.621	-5.916	-3.662	-3.012	-4.419	2.554	5.393	10.403	5.501	5.269	0.434	0.831	-0.182	-2.610	-2.366	0.127	-2.671	0.122	-0.898	-0.815	0.400	-1.261	2.794	6.150	8.092	2.681	2.226	367.188
-6.362	-3.960	-6.119	-3.935	-3.124	-4.440	3.034	5.565	10.689	6.161	5.804	0.844	1.314	0.064	-2.805	-2.705	-0.249	-2.830	-0.131	-1.196	-0.906	0.321	-1.481	3.124	6.028	8.083	3.061	2.518	371.094
-6.698	-4.220	-6.273	-4.116	-3.134	-4.394	3.508	5.673	10.844	6.762	6.141	1.103	1.920	0.445	-2.960	-2.949	-0.557	-3.010	-0.345	-1.393	-0.866	0.295	-1.645	3.460	5.902	7.982	3.389	2.632	375.000
-6.971	-4.367	-6.349	-4.175	-3.026	-4.265	3.952	5.711	10.845	7.252	6.224	1.162	2.609	0.938	-3.054	-3.069	-0.765	-3.190	-0.492	-1.463	-0.687	0.325	-1.739	3.759	5.761	7.763	3.609	2.521	378.906
-7.158	-4.390	-6.338	-4.109	-2.800	-4.050	4.348	5.687	10.698	7.600	6.046	1.015	3.330	1.498	-3.082	-3.063	-0.867	-3.347	-0.565	-1.406	-0.388	0.397	-1.767	3.982	5.593	7.420	3.691	2.183	382.812
-7.248	-4.301	-6.246	-3.936	-2.479	-3.764	4.682	5.615	10.431	7.801	5.656	0.708	4.026	2.064	-3.049	-2.951	-0.880	-3.466	-0.573	-1.250	-0.009	0.485	-1.745	4.097	5.394	6.973	3.636	1.672	386.719
-7.248	-4.133	-6.098	-3.694	-2.101	-3.435	4.945	5.520	10.092	7.872	5.146	0.332	4.637	2.571	-2.976	-2.776	-0.845	-3.543	-0.539	-1.041	0.392	0.553	-1.702	4.089	5.165	6.465	3.473	1.082	390.625
-7.173	-3.930	-5.921	-3.431	-1.715	-3.097	5.131	5.426	9.737	7.844	4.632	-0.002	5.112	2.953	-2.890	-2.588	-0.808	-3.580	-0.499	-0.836	0.750	0.569	-1.665	3.954	4.919	5.954	3.248	0.536	394.531
-7.039	-3.734	-5.742	-3.194	-1.372	-2.784	5.230	5.356	9.415	7.749	4.221	-0.190	5.409	3.164	-2.818	-2.437	-0.810	-3.586	-0.485	-0.689	1.005	0.508	-1.659	3.703	4.677	5.505	3.014	0.145	398.438
-6.856	-3.577	-5.574	-3.016	-1.111	-2.521	5.235	5.323	9.156	7.607	3.987	-0.169	5.507	3.180	-2.777	-2.358	-0.876	-3.569	-0.521	-0.635	1.118	0.363	-1.693	3.356	4.461	5.170	2.804	-0.015	402.344
-6.621	-3.471	-5.414	-2.908	-0.953	-2.319	5.141	5.328	8.963	7.422	3.944	0.068	5.405	3.009	-2.768	-2.358	-1.002	-3.533	-0.611	-0.682	1.080	0.146	-1.764	2.938	4.289	4.971	2.628	0.068	406.250
-6.319	-3.405	-5.247	-2.857	-0.898	-2.176	4.948	5.360	8.812	7.179	4.049	0.460	5.133	2.692	-2.775	-2.416	-1.157	-3.473	-0.738	-0.807	0.915	-0.113	-1.854	2.476	4.167	4.900	2.462	0.341	410.156
-5.932	-3.352	-5.053	-2.829	-0.918	-2.076	4.664	5.396	8.655	6.849	4.208	0.898	4.741	2.300	-2.766	-2.487	-1.290	-3.376	-0.866	-0.954	0.680	-0.369	-1.940	1.993	4.090	4.909	2.258	0.691	414.062
-5.448	-3.276	-4.815	-2.783	-0.975	-2.001	4.314	5.409	8.433	6.404	4.304	1.250	4.298	1.917	-2.705	-2.512	-1.344	-3.227	-0.948	-1.054	0.455	-0.572	-1.995	1.515	4.034	4.927	1.960	0.983	417.969
-4.870	-3.148	-4.527	-2.678	-1.019	-1.931	3.931	5.373	8.097	5.829	4.229	1.396	3.881	1.631	-2.562	-2.436	-1.272	-3.014	-0.941	-1.040	0.321	-0.676	-2.001	1.064	3.966	4.876	1.521	1.090	421.875
-4.227	-2.948	-4.198	-2.491	-1.007	-1.853	3.555	5.267	7.610	5.131	3.911	1.264	3.558	1.512	-2.321	-2.223	-1.055	-2.732	-0.816	-0.863	0.349	-0.653	-1.949	0.660	3.849	4.688	0.927	0.929	425.781
-3.564	-2.680	-3.849	-2.215	-0.910	-1.760	3.229	5.080	6.968	4.344	3.334	0.841	3.381	1.599	-1.987	-1.864	-0.701	-2.387	-0.567	-0.507	0.576	-0.497	-1.846	0.320	3.650	4.325	0.195	0.481	429.688
-2.939	-2.358	-3.509	-1.865	-0.717	-1.655	2.985	4.814	6.195	3.522	2.542	0.179	3.369	1.893	-1.584	-1.385	-0.250	-1.996	-0.216	0.007	1.002	-0.229	-1.714	0.054	3.348	3.780	-0.618	-0.207	433.594
-2.407	-2.010	-3.203	-1.468	-0.439	-1.540	2.844	4.484	5.343	2.736	1.627	-0.621	3.510	2.358	-1.150	-0.833	0.239	-1.587	0.191	0.630	1.589	0.108	-1.583	-0.141	2.937	3.081	-1.437	-1.039	437.500
-2.004	-1.661	-2.947	-1.057	-0.100	-1.422	2.810	4.116	4.481	2.058	0.708	-1.438	3.766	2.927	-0.726	-0.270	0.706	-1.194	0.598	1.292	2.272	0.454	-1.489	-0.274	2.421	2.275	-2.188	-1.894	441.406
-1.740	-1.329	-2.744	-0.661	0.267	-1.299	2.873	3.741	3.689	1.553	-0.090	-2.156	4.077	3.521	-0.348	0.246	1.099	-0.852	0.949	1.924	2.971	0.748	-1.466	-0.369	1.813	1.415	-2.812	-2.662	445.312
-1.597	-1.020	-2.579	-0.296	0.630	-1.169	3.014	3.398	3.044	1.268	-0.669	-2.692	4.384	4.064	-0.039	0.672	1.388	-0.595	1.201	2.468	3.610	0.939	-1.536	-0.453	1.129	0.544	-3.281	-3.263	449.219
-1.535	-0.733	-2.432	0.031	0.964	-1.022	3.209	3.119	2.608	1.225	-0.963	-3.001	4.636	4.495	0.192	0.985	1.563	-0.449	1.330	2.890	4.132	0.997	-1.704	-0.555	0.386	-0.313	-3.604	-3.666	453.125
-1.504	-0.460	-2.277	0.326	1.254	-0.850	3.437	2.934	2.418	1.424	-0.954	-3.085	4.805	4.784	0.349	1.185	1.634	-0.425	1.337	3.179	4.502	0.916	-1.961	-0.697	-0.404	-1.151	-3.816	-3.884	457.031
-1.455	-0.195	-2.098	0.597	1.496	-0.646	3.681	2.861	2.484	1.838	-0.665	-2.980	4.887	4.927	0.447	1.292	1.621	-0.522	1.243	3.345	4.717	0.715	-2.282	-0.893	-1.227	-1.981	-3.967	-3.965	460.938
-1.358	0.060	-1.887	0.849	1.693	-0.412	3.930	2.903	2.787	2.424	-0.153	-2.744	4.900	4.944	0.501	1.333	1.550	-0.726	1.084	3.416	4.792	0.435	-2.627	-1.143	-2.068	-2.814	-4.106	-3.969	464.844
-1.198	0.295	-1.654	1.086	1.848	-0.157	4.178	3.054	3.279	3.120	0.506	-2.437	4.875	4.874	0.530	1.339	1.444	-1.011	0.902	3.426	4.761	0.128	-2.956	-1.434	-2.906	-3.657	-4.267	-3.956	468.750
-0.986	0.496	-1.416	1.300	1.965	0.104	4.417	3.291	3.894	3.860	1.226	-2.117	4.846	4.757	0.545	1.338	1.326	-1.345	0.741	3.408	4.665	-0.153	-3.226	-1.743	-3.712	-4.495	-4.458	-3.966	472.656
-0.747	0.645	-1.202	1.481	2.043	0.351	4.633	3.583	4.558	4.572	1.928	-1.824	4.839	4.631	0.553	1.349	1.213	-1.691	0.636	3.390	4.542	-0.360	-3.403	-2.043	-4.452	-5.296	-4.666	-4.016	476.562
-0.516	0.729	-1.035	1.616	2.080	0.560	4.810	3.889	5.194	5.190	2.547	-1.587	4.863	4.521	0.560	1.383	1.122	-2.012	0.613	3.394	4.424	-0.457	-3.464	-2.309	-5.085	-6.013	-4.861	-4.099	480.469
-0.326	0.746	-0.934	1.699	2.071	0.717	4.924	4.169	5.735	5.658	3.030	-1.419	4.910	4.437	0.568	1.444	1.066	-2.271	0.688	3.432	4.332	-0.429	-3.401	-2.522	-5.577	-6.594	-5.010	-4.194	484.375
-0.198	0.706	-0.900	1.729	2.015	0.809	4.948	4.381	6.127	5.929	3.347	-1.325	4.953	4.378	0.582	1.534	1.060	-2.438	0.862	3.507	4.279	-0.277	-3.220	-2.674	-5.902	-6.995	-5.086	-4.276	488.281
-0.133	0.633	-0.922	1.716	1.918	0.839	4.860	4.493	6.334	5.974	3.483	-1.305	4.958	4.333	0.608	1.653	1.116	-2.488	1.127	3.620	4.269	-0.022	-2.939	-2.767	-6.051	-7.195	-5.082	-4.325	492.188
-0.114	0.561	-0.971	1.681	1.792	0.814	4.647	4.483	6.335	5.783	3.434	-1.358	4.891	4.287	0.658	1.804	1.243	-2.411	1.464	3.768	4.301	0.306	-2.588	-2.814	-6.032	-7.198	-5.014	-4.335	496.094
-0.103	0.524	-1.011	1.649	1.654	0.754	4.311	4.340	6.128	5.363	3.210	-1.485	4.727	4.230	0.742	1.989	1.444	-2.208	1.849	3.948	4.374	0.672	-2.198	-2.832	-5.872	-7.039	-4.916	-4.319	500.000
-0.053	0.558	-1.007	1.648	1.529	0.679	3.873	4.067	5.725	4.741	2.824	-1.689	4.458	4.158	0.872	2.214	1.717	-1.896	2.254	4.156	4.484	1.039	-1.800	-2.838	-5.607	-6.771	-4.839	-4.304	503.906
0.083	0.684	-0.930	1.702	1.439	0.615	3.370	3.678	5.151	3.959	2.298	-1.973	4.093	4.072	1.054	2.481	2.051	-1.505	2.652	4.391	4.628	1.380	-1.416	-2.846	-5.277	-6.457	-4.833	-4.326	507.812
0.336	0.909	-0.767	1.824	1.406	0.582	2.851	3.199	4.446	3.070	1.654	-2.340	3.659	3.982	1.287	2.788	2.424	-1.075	3.020	4.645	4.800	1.676	-1.061	-2.858	-4.915	-6.152	-4.938	-4.419	511.719
0.713	1.217	-0.523	2.014	1.442	0.597	2.368	2.668	3.660	2.137	0.921	-2.786	3.191	3.897	1.556	3.120	2.809	-0.656	3.335	4.908	4.989	1.920	-0.740	-2.867	-4.542	-5.892	-5.167	-4.606	515.625
1.191	1.577	-0.222	2.255	1.550	0.671	1.970	2.130	2.853	1.223	0.137	-3.296	2.726	3.826	1.833	3.451	3.167	-0.298	3.578	5.157	5.177	2.109	-0.453	-2.855	-4.162	-5.680	-5.502	-4.888	519.531
1.722	1.938	0.101	2.515	1.721	0.805	1.697	1.634	2.092	0.391	-0.657	-3.843	2.299	3.770	2.080	3.742	3.453	-0.050	3.729	5.361	5.340	2.240	-0.203	-2.797	-3.767	-5.495	-5.892	-5.239	523.438
2.242	2.245	0.404	2.754	1.939	0.993	1.573	1.228	1.441	-0.301	-1.406	-4.389	1.934	3.726	2.256	3.947	3.621	0.049	3.771	5.485	5.448	2.311	0.004	-2.667	-3.346	-5.292	-6.258	-5.609	527.344
2.685	2.445	0.647	2.929	2.176	1.223	1.603	0.953	0.957	-0.803	-2.053	-4.881	1.650	3.687	2.325	4.021	3.633	-0.023	3.690	5.493	5.476	2.314	0.156	-2.442	-2.892	-5.021	-6.507	-5.933	531.250
2.996	2.495	0.801	3.002	2.408	1.475	1.778	0.833	0.679	-1.080	-2.542	-5.266	1.455	3.641	2.262	3.931	3.460	-0.271	3.479	5.360	5.404	2.243	0.237	-2.113	-2.411	-4.645	-6.550	-6.142	535.156
3.141	2.375	0.851	2.949	2.611	1.729	2.078	0.874	0.623	-1.107	-2.823	-5.494	1.357	3.585	2.063	3.662	3.097	-0.676	3.143	5.075	5.226	2.095	0.230	-1.683	-1.928	-4.154	-6.326	-6.181	539.062
3.115	2.088	0.800	2.765	2.767	1.967	2.473	1.062	0.778	-0.883	-2.870	-5.531	1.358	3.517	1.746	3.225	2.564	-1.200	2.702	4.648	4.953	1.872	0.129	-1.173	-1.486	-3.573	-5.810	-6.023	542.969
2.944	1.663	0.669	2.463	2.870	2.174	2.928	1.364	1.107	-0.426	-2.679	-5.368	1.461	3.447	1.352	2.658	1.910	-1.787	2.191	4.113	4.614	1.593	-0.059	-0.623	-1.138	-2.965	-5.032	-5.676	546.875
2.678	1.151	0.491	2.078	2.925	2.343	3.408	1.738	1.552	0.223	-2.277	-5.021	1.664	3.388	0.937	2.020	1.207	-2.370	1.657	3.520	4.246	1.285	-0.312	-0.081	-0.935	-2.413	-4.071	-5.184	550.781
2.385	0.619	0.307	1.659	2.941	2.473	3.876	2.135	2.044	1.002	-1.718	-4.534	1.956	3.356	0.564	1.385	0.538	-2.881	1.157	2.929	3.896	0.985	-0.597	0.394	-0.919	-2.014	-3.047	-4.623	554.688
2.134	0.136	0.156	1.261	2.936	2.566	4.298	2.508	2.510	1.831	-1.080	-3.971	2.318	3.365	0.291	0.828	-0.010	-3.255	0.745	2.406	3.608	0.733	-0.870	0.748	-1.108	-1.849	-2.098	-4.080	558.594
1.985	-0.232	0.075	0.939	2.929	2.630	4.642	2.819	2.884	2.620	-0.448	-3.406	2.718	3.420	0.164	0.416	-0.364	-3.446	0.469	2.009	3.416	0.562	-1.091	0.931	-1.495	-1.972	-1.362	-3.642	562.500
1.975	-0.432	0.084	0.740	2.939	2.671	4.880	3.040	3.114	3.282	0.095	-2.912	3.116	3.520	0.202	0.197	-0.480	-3.431	0.363	1.783	3.341	0.496	-1.228	0.916	-2.040	-2.394	-0.944	-3.379	566.406
2.118	-0.436	0.192	0.697	2.981	2.696	4.993	3.154	3.169	3.742	0.481	-2.546	3.470	3.651	0.405	0.189	-0.345	-3.211	0.439	1.749	3.389	0.540	-1.260	0.694	-2.683	-3.080	-0.906	-3.325	570.312
2.402	-0.240	0.389	0.822	3.067	2.711	4.974	3.156	3.040	3.950	0.667	-2.344	3.741	3.798	0.744	0.387	0.015	-2.817	0.684	1.907	3.550	0.685	-1.187	0.286	-3.347	-3.952	-1.249	-3.482	574.219
2.796	0.130	0.651	1.105	3.199	2.718	4.826	3.052	2.742	3.885	0.640	-2.313	3.902	3.942	1.175	0.756	0.545	-2.302	1.065	2.233	3.800	0.907	-1.023	-0.261	-3.954	-4.901	-1.914	-3.812	578.125
3.253	0.626	0.941	1.518	3.374	2.718	4.568	2.852	2.307	3.563	0.415	-2.433	3.944	4.068	1.642	1.241	1.163	-1.735	1.531	2.684	4.110	1.174	-0.797	-0.880	-4.430	-5.807	-2.797	-4.252	582.031
3.724	1.182	1.221	2.013	3.576	2.707	4.225	2.577	1.784	3.026	0.032	-2.669	3.874	4.167	2.088	1.777	1.782	-1.186	2.021	3.207	4.446	1.454	-0.539	-1.490	-4.723	-6.557	-3.764	-4.728	585.938
4.163	1.724	1.451	2.535	3.788	2.681	3.830	2.251	1.227	2.339	-0.458	-2.975	3.712	4.236	2.465	2.296	2.319	-0.720	2.476	3.745	4.777	1.718	-0.280	-2.012	-4.804	-7.061	-4.676	-5.167	589.844
4.536	2.185	1.605	3.023	3.983	2.633	3.418	1.898	0.689	1.576	-0.996	-3.308	3.490	4.280	2.739	2.741	2.712	-0.382	2.847	4.245	5.076	1.948	-0.041	-2.377	-4.670	-7.268	-5.417	-5.514	593.750
4.823	2.511	1.668	3.425	4.137	2.559	3.017	1.545	0.217	0.813	-1.529	-3.633	3.239	4.304	2.895	3.071	2.931	-0.190	3.106	4.665	5.324	2.138	0.169	-2.541	-4.341	-7.168	-5.908	-5.738	597.656
5.015	2.671	1.644	3.702	4.228	2.455	2.653	1.215	-0.157	0.112	-2.014	-3.928	2.991	4.318	2.937	3.264	2.978	-0.140	3.246	4.978	5.507	2.293	0.354	-2.490	-3.859	-6.793	-6.119	-5.832	601.562
5.115	2.664	1.547	3.837	4.242	2.322	2.344	0.928	-0.413	-0.475	-2.418	-4.182	2.772	4.327	2.885	3.322	2.888	-0.203	3.280	5.172	5.619	2.422	0.524	-2.244	-3.281	-6.210	-6.065	-5.813	605.469
5.135	2.513	1.400	3.832	4.177	2.165	2.101	0.698	-0.547	-0.916	-2.722	-4.389	2.600	4.335	2.769	3.261	2.714	-0.339	3.237	5.251	5.660	2.536	0.690	-1.848	-2.674	-5.509	-5.802	-5.711	609.375
5.088	2.262	1.227	3.713	4.041	1.991	1.935	0.533	-0.568	-1.192	-2.915	-4.550	2.490	4.347	2.624	3.113	2.513	-0.504	3.151	5.229	5.639	2.643	0.856	-1.367	-2.109	-4.791	-5.406	-5.562	613.281
4.993	1.966	1.050	3.517	3.854	1.814	1.854	0.435	-0.495	-1.301	-2.998	-4.666	2.453	4.366	2.483	2.915	2.332	-0.659	3.056	5.130	5.568	2.741	1.015	-0.873	-1.651	-4.155	-4.962	-5.404	617.188
4.866	1.680	0.882	3.292	3.642	1.643	1.864	0.398	-0.353	-1.250	-2.979	-4.736	2.497	4.397	2.369	2.704	2.197	-0.776	2.972	4.982	5.466	2.823	1.153	-0.431	-1.356	-3.681	-4.545	-5.266	621.094
4.721	1.446	0.728	3.080	3.434	1.490	1.969	0.416	-0.169	-1.054	-2.874	-4.763	2.631	4.449	2.296	2.512	2.107	-0.841	2.910	4.815	5.356	2.878	1.248	-0.089	-1.256	-3.424	-4.209	-5.166	625.000
4.566	1.289	0.585	2.911	3.255	1.361	2.170	0.478	0.034	-0.734	-2.702	-4.743	2.860	4.532	2.261	2.360	2.040	-0.860	2.867	4.653	5.258	2.895	1.278	0.128	-1.357	-3.403	-3.977	-5.111	628.906
4.401	1.209	0.445	2.796	3.117	1.260	2.462	0.578	0.242	-0.313	-2.484	-4.676	3.185	4.653	2.252	2.257	1.963	-0.850	2.831	4.514	5.188	2.870	1.233	0.227	-1.638	-3.597	-3.841	-5.092	632.812
4.219	1.184	0.297	2.726	3.022	1.182	2.834	0.711	0.450	0.185	-2.236	-4.555	3.599	4.816	2.250	2.197	1.845	-0.837	2.786	4.404	5.153	2.806	1.112	0.237	-2.049	-3.956	-3.770	-5.090	636.719
4.011	1.179	0.131	2.676	2.959	1.120	3.262	0.875	0.665	0.737	-1.964	-4.377	4.086	5.015	2.234	2.164	1.665	-0.848	2.718	4.319	5.152	2.715	0.928	0.203	-2.524	-4.401	-3.717	-5.078	640.625
3.770	1.153	-0.056	2.611	2.910	1.067	3.718	1.070	0.899	1.321	-1.670	-4.133	4.619	5.237	2.184	2.135	1.424	-0.909	2.617	4.247	5.174	2.612	0.706	0.173	-2.994	-4.848	-3.634	-5.029	644.531
3.493	1.070	-0.260	2.500	2.851	1.013	4.165	1.296	1.166	1.917	-1.349	-3.822	5.160	5.462	2.090	2.083	1.138	-1.032	2.483	4.169	5.201	2.513	0.474	0.186	-3.393	-5.221	-3.486	-4.917	648.438
3.185	0.906	-0.471	2.318	2.763	0.953	4.564	1.546	1.476	2.501	-0.995	-3.448	5.665	5.663	1.951	1.989	0.835	-1.215	2.321	4.068	5.215	2.427	0.257	0.259	-3.678	-5.463	-3.256	-4.730	652.344
2.861	0.659	-0.673	2.060	2.633	0.885	4.874	1.807	1.822	3.044	-0.614	-3.025	6.084	5.810	1.774	1.843	0.550	-1.438	2.144	3.932	5.199	2.358	0.077	0.384	-3.829	-5.549	-2.955	-4.468	656.250
2.543	0.346	-0.846	1.737	2.459	0.811	5.059	2.057	2.182	3.511	-0.219	-2.577	6.372	5.880	1.578	1.650	0.314	-1.668	1.965	3.757	5.142	2.300	-0.055	0.534	-3.849	-5.482	-2.611	-4.147	660.156
2.259	0.001	-0.971	1.378	2.251	0.736	5.090	2.265	2.512	3.860	0.156	-2.138	6.495	5.854	1.387	1.430	0.154	-1.860	1.801	3.552	5.039	2.245	-0.132	0.669	-3.764	-5.288	-2.269	-3.793	664.062
2.036	-0.326	-1.034	1.024	2.031	0.669	4.954	2.398	2.759	4.050	0.468	-1.750	6.436	5.729	1.225	1.213	0.083	-1.972	1.666	3.332	4.895	2.184	-0.157	0.748	-3.605	-5.011	-1.978	-3.444	667.969
1.897	-0.587	-1.022	0.722	1.830	0.621	4.655	2.428	2.866	4.045	0.666	-1.454	6.197	5.515	1.119	1.036	0.112	-1.969	1.574	3.123	4.721	2.110	-0.135	0.739	-3.407	-4.697	-1.780	-3.138	671.875
1.859	-0.733	-0.932	0.518	1.681	0.610	4.219	2.338	2.786	3.820	0.703	-1.285	5.803	5.236	1.085	0.932	0.239	-1.833	1.533	2.949	4.539	2.025	-0.074	0.629	-3.200	-4.392	-1.710	-2.914	675.781
1.924	-0.731	-0.761	0.446	1.620	0.651	3.690	2.127	2.497	3.374	0.546	-1.270	5.298	4.928	1.133	0.924	0.458	-1.564	1.550	2.833	4.370	1.938	0.015	0.427	-3.003	-4.133	-1.784	-2.802	679.688
2.085	-0.567	-0.516	0.523	1.671	0.759	3.129	1.813	2.005	2.730	0.183	-1.420	4.741	4.633	1.260	1.020	0.754	-1.185	1.625	2.787	4.238	1.862	0.124	0.157	-2.827	-3.949	-2.005	-2.823	683.594
2.320	-0.252	-0.207	0.745	1.846	0.940	2.600	1.433	1.347	1.935	-0.368	-1.728	4.193	4.388	1.450	1.207	1.105	-0.740	1.754	2.811	4.163	1.817	0.249	-0.140	-2.675	-3.853	-2.354	-2.983	687.500
2.597	0.181	0.142	1.082	2.137	1.190	2.165	1.032	0.591	1.061	-1.061	-2.167	3.716	4.227	1.676	1.454	1.479	-0.282	1.925	2.890	4.154	1.822	0.386	-0.417	-2.545	-3.847	-2.798	-3.268	691.406
2.877	0.671	0.499	1.483	2.517	1.491	1.877	0.662	-0.178	0.195	-1.823	-2.691	3.360	4.166	1.902	1.716	1.837	0.128	2.121	2.995	4.208	1.891	0.536	-0.625	-2.428	-3.913	-3.286	-3.645	695.312
3.114	1.148	0.819	1.883	2.941	1.811	1.769	0.370	-0.867	-0.570	-2.565	-3.235	3.159	4.210	2.092	1.940	2.140	0.436	2.318	3.087	4.311	2.030	0.700	-0.721	-2.315	-4.023	-3.754	-4.059	699.219
3.262	1.531	1.053	2.211	3.357	2.108	1.855	0.190	-1.391	-1.146	-3.191	-3.730	3.133	4.349	2.212	2.079	2.355	0.598	2.493	3.126	4.437	2.236	0.879	-0.673	-2.194	-4.136	-4.134	-4.448	703.125
3.281	1.753	1.149	2.403	3.710	2.342	2.125	0.137	-1.685	-1.462	-3.617	-4.106	3.280	4.563	2.239	2.093	2.459	0.592	2.623	3.077	4.556	2.498	1.069	-0.464	-2.059	-4.212	-4.365	-4.748	707.031
3.144	1.764	1.070	2.415	3.959	2.477	2.556	0.209	-1.717	-1.477	-3.782	-4.312	3.586	4.828	2.163	1.966	2.440	0.420	2.689	2.917	4.643	2.793	1.265	-0.095	-1.910	-4.219	-4.400	-4.906	710.938
2.843	1.549	0.800	2.230	4.079	2.497	3.109	0.386	-1.487	-1.179	-3.664	-4.320	4.026	5.121	1.989	1.700	2.300	0.103	2.681	2.645	4.678	3.098	1.451	0.415	-1.759	-4.140	-4.217	-4.894	714.844
2.394	1.126	0.355	1.863	4.070	2.405	3.738	0.636	-1.028	-0.594	-3.277	-4.129	4.565	5.419	1.736	1.320	2.050	-0.314	2.597	2.279	4.657	3.384	1.612	1.024	-1.629	-3.985	-3.826	-4.714	718.750
1.836	0.547	-0.221	1.359	3.951	2.228	4.397	0.923	-0.401	0.222	-2.671	-3.772	5.164	5.708	1.435	0.869	1.713	-0.781	2.441	1.854	4.586	3.624	1.727	1.677	-1.552	-3.785	-3.270	-4.396	722.656
1.225	-0.115	-0.859	0.782	3.754	2.004	5.036	1.212	0.317	1.184	-1.923	-3.303	5.780	5.974	1.119	0.396	1.314	-1.242	2.223	1.417	4.485	3.794	1.778	2.309	-1.560	-3.588	-2.616	-3.997	726.562
0.626	-0.775	-1.475	0.207	3.518	1.782	5.609	1.474	1.043	2.192	-1.124	-2.788	6.368	6.207	0.822	-0.048	0.889	-1.645	1.958	1.017	4.375	3.877	1.754	2.853	-1.675	-3.448	-1.947	-3.580	730.469
0.099	-1.356	-1.993	-0.302	3.277	1.601	6.072	1.690	1.702	3.139	-0.364	-2.291	6.881	6.390	0.571	-0.418	0.474	-1.952	1.667	0.693	4.274	3.867	1.658	3.252	-1.900	-3.406	-1.347	-3.206	734.375
-0.312	-1.800	-2.349	-0.696	3.052	1.488	6.388	1.853	2.232	3.931	0.282	-1.866	7.273	6.506	0.383	-0.687	0.106	-2.135	1.371	0.467	4.190	3.768	1.502	3.464	-2.217	-3.482	-0.886	-2.920	738.281
-0.590	-2.076	-2.513	-0.949	2.853	1.451	6.525	1.964	2.595	4.491	0.762	-1.546	7.502	6.535	0.263	-0.843	-0.179	-2.183	1.095	0.348	4.124	3.593	1.315	3.469	-2.582	-3.670	-0.612	-2.742	742.188
-0.738	-2.182	-2.484	-1.061	2.676	1.476	6.468	2.028	2.773	4.776	1.050	-1.339	7.539	6.459	0.204	-0.889	-0.358	-2.099	0.865	0.323	4.065	3.366	1.127	3.273	-2.939	-3.935	-0.537	-2.668	746.094
-0.781	-2.140	-2.293	-1.051	2.513	1.540	6.218	2.057	2.775	4.779	1.150	-1.235	7.371	6.269	0.194	-0.845	-0.418	-1.894	0.701	0.371	4.001	3.113	0.970	2.905	-3.228	-4.228	-0.646	-2.672	750.000
-0.755	-1.991	-1.992	-0.951	2.353	1.610	5.792	2.059	2.625	4.524	1.090	-1.209	7.009	5.966	0.216	-0.738	-0.364	-1.591	0.620	0.467	3.922	2.861	0.869	2.410	-3.404	-4.493	-0.899	-2.719	753.906
-0.696	-1.780	-1.641	-0.797	2.191	1.657	5.232	2.039	2.360	4.065	0.909	-1.232	6.487	5.573	0.256	-0.596	-0.216	-1.216	0.628	0.589	3.826	2.636	0.837	1.846	-3.442	-4.687	-1.239	-2.772	757.812
-0.632	-1.552	-1.299	-0.624	2.027	1.659	4.589	1.996	2.020	3.475	0.655	-1.277	5.862	5.128	0.303	-0.443	-0.001	-0.800	0.723	0.719	3.719	2.459	0.872	1.273	-3.350	-4.784	-1.609	-2.807	761.719
-0.578	-1.341	-1.012	-0.459	1.870	1.609	3.929	1.922	1.645	2.828	0.371	-1.327	5.208	4.684	0.354	-0.298	0.247	-0.375	0.890	0.853	3.619	2.346	0.963	0.747	-3.159	-4.784	-1.960	-2.812	765.625
-0.536	-1.168	-0.811	-0.318	1.736	1.509	3.313	1.807	1.263	2.194	0.092	-1.372	4.602	4.301	0.411	-0.169	0.497	0.026	1.106	0.990	3.551	2.307	1.086	0.316	-2.921	-4.709	-2.255	-2.790	769.531
-0.497	-1.039	-0.707	-0.210	1.638	1.375	2.799	1.637	0.894	1.625	-0.160	-1.412	4.118	4.035	0.477	-0.060	0.717	0.371	1.342	1.137	3.535	2.342	1.215	0.013	-2.693	-4.593	-2.476	-2.754	773.438
-0.446	-0.952	-0.695	-0.136	1.589	1.224	2.425	1.400	0.543	1.151	-0.378	-1.450	3.810	3.929	0.556	0.031	0.883	0.633	1.564	1.298	3.589	2.446	1.322	-0.146	-2.526	-4.478	-2.617	-2.723	777.344
-0.367	-0.894	-0.759	-0.090	1.594	1.076	2.208	1.090	0.207	0.780	-0.564	-1.493	3.708	4.006	0.647	0.106	0.978	0.793	1.744	1.479	3.720	2.605	1.387	-0.160	-2.457	-4.394	-2.685	-2.713	781.250
-0.248	-0.848	-0.874	-0.064	1.652	0.945	2.142	0.705	-0.124	0.498	-0.731	-1.547	3.809	4.261	0.749	0.171	0.996	0.846	1.864	1.680	3.925	2.804	1.399	-0.046	-2.498	-4.364	-2.696	-2.735	785.156
-0.085	-0.800	-1.017	-0.049	1.755	0.839	2.201	0.252	-0.462	0.280	-0.892	-1.615	4.083	4.669	0.860	0.229	0.941	0.805	1.920	1.900	4.191	3.025	1.358	0.167	-2.643	-4.394	-2.671	-2.793	789.062
0.118	-0.740	-1.167	-0.036	1.888	0.756	2.342	-0.253	-0.814	0.094	-1.060	-1.697	4.475	5.182	0.977	0.287	0.833	0.695	1.923	2.136	4.501	3.253	1.275	0.439	-2.866	-4.476	-2.631	-2.885	792.969
0.348	-0.665	-1.308	-0.017	2.035	0.691	2.514	-0.785	-1.183	-0.089	-1.240	-1.790	4.920	5.744	1.098	0.350	0.698	0.554	1.894	2.383	4.830	3.478	1.168	0.729	-3.133	-4.594	-2.593	-2.999	796.875
