FP1	F3	F7	FC3	C3	C5	P3	P7	PO7	PO3	O1	Oz	Pz	CPz	FP2	Fz	F4	F8	FC4	FCz	Cz	C4	C6	P4	P8	PO8	PO4	O2	time
0.141	0.386	-0.220	-0.041	0.418	0.326	-0.147	0.009	-0.765	-0.803	-0.797	-0.656	-0.581	0.219	0.771	0.746	1.279	1.183	0.276	0.994	0.835	0.655	0.783	-0.114	-0.123	-0.044	-0.990	-0.699	-199.219
0.093	0.204	-0.459	-0.128	0.189	0.217	-0.015	0.046	-0.623	-0.603	-0.607	-0.431	-0.291	0.316	0.645	0.630	0.994	0.923	0.052	0.875	0.842	0.740	0.794	0.134	0.019	0.078	-0.546	-0.523	-195.312
0.051	0.032	-0.674	-0.213	-0.035	0.111	0.100	0.083	-0.487	-0.419	-0.423	-0.216	-0.031	0.391	0.532	0.519	0.744	0.690	-0.145	0.753	0.831	0.807	0.792	0.352	0.152	0.193	-0.137	-0.345	-191.406
0.017	-0.119	-0.842	-0.295	-0.244	0.016	0.186	0.121	-0.359	-0.261	-0.250	-0.018	0.177	0.429	0.439	0.414	0.547	0.499	-0.302	0.625	0.791	0.840	0.762	0.516	0.264	0.294	0.205	-0.166	-187.500
-0.004	-0.238	-0.946	-0.367	-0.424	-0.062	0.237	0.159	-0.245	-0.140	-0.095	0.152	0.322	0.425	0.368	0.321	0.412	0.359	-0.409	0.493	0.717	0.829	0.698	0.611	0.344	0.374	0.463	0.012	-183.594
-0.007	-0.314	-0.981	-0.420	-0.562	-0.119	0.249	0.194	-0.152	-0.061	0.033	0.286	0.401	0.382	0.321	0.247	0.341	0.272	-0.466	0.367	0.613	0.773	0.600	0.635	0.386	0.428	0.629	0.180	-179.688
0.013	-0.340	-0.948	-0.444	-0.646	-0.152	0.226	0.223	-0.088	-0.028	0.125	0.375	0.425	0.314	0.295	0.200	0.323	0.229	-0.481	0.256	0.492	0.676	0.474	0.594	0.386	0.454	0.705	0.326	-175.781
0.058	-0.313	-0.860	-0.433	-0.666	-0.160	0.174	0.242	-0.057	-0.040	0.176	0.415	0.405	0.236	0.286	0.185	0.338	0.218	-0.470	0.173	0.369	0.549	0.332	0.504	0.343	0.448	0.703	0.437	-171.875
0.127	-0.234	-0.729	-0.384	-0.623	-0.144	0.105	0.248	-0.059	-0.087	0.185	0.407	0.359	0.164	0.286	0.203	0.364	0.219	-0.450	0.126	0.261	0.408	0.184	0.383	0.262	0.411	0.638	0.505	-167.969
0.216	-0.112	-0.571	-0.301	-0.523	-0.104	0.033	0.245	-0.088	-0.154	0.160	0.361	0.300	0.107	0.287	0.246	0.375	0.217	-0.441	0.114	0.178	0.265	0.043	0.249	0.150	0.347	0.525	0.523	-164.062
0.320	0.038	-0.399	-0.193	-0.383	-0.046	-0.028	0.235	-0.131	-0.225	0.112	0.289	0.236	0.066	0.281	0.304	0.352	0.196	-0.456	0.130	0.119	0.130	-0.085	0.116	0.018	0.263	0.379	0.493	-160.156
0.431	0.201	-0.222	-0.076	-0.223	0.025	-0.071	0.225	-0.173	-0.285	0.055	0.206	0.170	0.032	0.266	0.362	0.284	0.150	-0.499	0.161	0.080	0.007	-0.198	-0.006	-0.120	0.167	0.213	0.424	-156.250
0.545	0.358	-0.044	0.034	-0.070	0.099	-0.093	0.221	-0.202	-0.323	0.002	0.125	0.096	-0.006	0.243	0.407	0.178	0.080	-0.561	0.192	0.049	-0.104	-0.296	-0.116	-0.251	0.067	0.039	0.329	-152.344
0.653	0.495	0.129	0.121	0.054	0.166	-0.098	0.224	-0.208	-0.338	-0.041	0.055	0.008	-0.061	0.221	0.433	0.051	-0.003	-0.622	0.209	0.012	-0.207	-0.382	-0.216	-0.363	-0.027	-0.132	0.222	-148.438
0.751	0.598	0.290	0.175	0.129	0.215	-0.097	0.232	-0.192	-0.335	-0.073	0.000	-0.100	-0.142	0.208	0.439	-0.069	-0.083	-0.652	0.205	-0.040	-0.304	-0.458	-0.310	-0.446	-0.108	-0.293	0.115	-144.531
0.829	0.659	0.430	0.189	0.144	0.235	-0.104	0.238	-0.160	-0.328	-0.098	-0.041	-0.232	-0.249	0.213	0.431	-0.153	-0.141	-0.619	0.179	-0.108	-0.396	-0.523	-0.401	-0.497	-0.172	-0.434	0.020	-140.625
0.880	0.675	0.535	0.163	0.096	0.219	-0.130	0.232	-0.124	-0.328	-0.124	-0.074	-0.382	-0.377	0.242	0.417	-0.176	-0.161	-0.500	0.138	-0.190	-0.481	-0.573	-0.487	-0.513	-0.216	-0.548	-0.061	-136.719
0.898	0.645	0.595	0.101	-0.008	0.167	-0.184	0.205	-0.098	-0.345	-0.160	-0.103	-0.538	-0.511	0.293	0.404	-0.130	-0.134	-0.287	0.090	-0.276	-0.553	-0.604	-0.564	-0.499	-0.240	-0.627	-0.128	-132.812
0.881	0.575	0.602	0.015	-0.153	0.084	-0.266	0.153	-0.094	-0.383	-0.211	-0.132	-0.683	-0.634	0.362	0.396	-0.021	-0.064	0.010	0.045	-0.353	-0.604	-0.612	-0.625	-0.459	-0.243	-0.666	-0.183	-128.906
0.834	0.473	0.555	-0.085	-0.319	-0.019	-0.369	0.076	-0.116	-0.439	-0.277	-0.164	-0.798	-0.731	0.441	0.392	0.127	0.040	0.360	0.010	-0.412	-0.629	-0.593	-0.658	-0.399	-0.227	-0.662	-0.231	-125.000
0.769	0.351	0.466	-0.188	-0.484	-0.127	-0.484	-0.018	-0.165	-0.504	-0.353	-0.196	-0.868	-0.791	0.519	0.383	0.279	0.158	0.716	-0.016	-0.448	-0.625	-0.547	-0.655	-0.325	-0.194	-0.613	-0.274	-121.094
0.700	0.220	0.353	-0.283	-0.630	-0.224	-0.595	-0.117	-0.233	-0.564	-0.428	-0.223	-0.882	-0.814	0.585	0.358	0.400	0.271	1.029	-0.040	-0.465	-0.593	-0.480	-0.614	-0.238	-0.145	-0.522	-0.311	-117.188
0.639	0.092	0.237	-0.362	-0.744	-0.296	-0.688	-0.204	-0.304	-0.604	-0.489	-0.239	-0.837	-0.804	0.630	0.305	0.458	0.358	1.253	-0.072	-0.469	-0.540	-0.398	-0.535	-0.140	-0.082	-0.391	-0.339	-113.281
0.597	-0.024	0.143	-0.420	-0.817	-0.336	-0.754	-0.263	-0.362	-0.611	-0.520	-0.236	-0.740	-0.774	0.647	0.218	0.435	0.406	1.357	-0.123	-0.474	-0.474	-0.311	-0.426	-0.035	-0.010	-0.227	-0.348	-109.375
0.572	-0.122	0.088	-0.456	-0.848	-0.339	-0.782	-0.284	-0.388	-0.575	-0.506	-0.208	-0.600	-0.735	0.628	0.097	0.326	0.406	1.330	-0.200	-0.489	-0.408	-0.232	-0.303	0.074	0.066	-0.041	-0.331	-105.469
0.557	-0.199	0.080	-0.468	-0.839	-0.309	-0.768	-0.260	-0.369	-0.492	-0.441	-0.154	-0.434	-0.697	0.573	-0.053	0.145	0.358	1.185	-0.302	-0.520	-0.356	-0.172	-0.180	0.180	0.142	0.151	-0.282	-101.562
0.535	-0.255	0.116	-0.457	-0.795	-0.254	-0.711	-0.192	-0.296	-0.361	-0.320	-0.074	-0.256	-0.661	0.479	-0.216	-0.083	0.265	0.951	-0.422	-0.565	-0.327	-0.142	-0.072	0.274	0.209	0.332	-0.197	-97.656
0.486	-0.295	0.183	-0.424	-0.718	-0.184	-0.610	-0.089	-0.168	-0.189	-0.151	0.028	-0.079	-0.622	0.349	-0.377	-0.329	0.136	0.675	-0.544	-0.615	-0.328	-0.148	0.009	0.346	0.262	0.483	-0.081	-93.750
0.390	-0.324	0.255	-0.372	-0.612	-0.111	-0.470	0.036	0.009	0.016	0.053	0.142	0.087	-0.571	0.186	-0.522	-0.559	-0.021	0.406	-0.653	-0.656	-0.355	-0.189	0.060	0.386	0.297	0.590	0.056	-89.844
0.235	-0.353	0.308	-0.305	-0.479	-0.046	-0.297	0.167	0.219	0.241	0.272	0.258	0.239	-0.495	-0.005	-0.638	-0.747	-0.191	0.187	-0.732	-0.674	-0.402	-0.259	0.084	0.391	0.309	0.643	0.200	-85.938
0.021	-0.388	0.316	-0.230	-0.322	0.000	-0.102	0.287	0.442	0.468	0.485	0.365	0.375	-0.386	-0.212	-0.721	-0.874	-0.359	0.048	-0.771	-0.656	-0.454	-0.343	0.088	0.362	0.301	0.639	0.334	-82.031
-0.240	-0.433	0.266	-0.154	-0.147	0.023	0.102	0.381	0.654	0.679	0.668	0.451	0.494	-0.242	-0.420	-0.770	-0.930	-0.511	-0.002	-0.766	-0.598	-0.495	-0.421	0.085	0.307	0.276	0.585	0.443	-78.125
-0.519	-0.487	0.160	-0.084	0.037	0.018	0.299	0.436	0.831	0.858	0.803	0.508	0.594	-0.073	-0.609	-0.788	-0.917	-0.632	0.027	-0.723	-0.506	-0.510	-0.476	0.086	0.237	0.239	0.494	0.513	-74.219
-0.778	-0.542	0.011	-0.025	0.216	-0.011	0.469	0.447	0.952	0.988	0.876	0.529	0.673	0.104	-0.759	-0.782	-0.845	-0.709	0.105	-0.652	-0.391	-0.491	-0.490	0.099	0.167	0.198	0.384	0.539	-70.312
-0.981	-0.588	-0.151	0.020	0.376	-0.058	0.598	0.412	1.005	1.060	0.884	0.515	0.725	0.269	-0.852	-0.758	-0.731	-0.737	0.194	-0.568	-0.273	-0.435	-0.456	0.127	0.109	0.158	0.272	0.523	-66.406
-1.097	-0.609	-0.293	0.054	0.501	-0.109	0.675	0.336	0.985	1.068	0.830	0.467	0.743	0.401	-0.877	-0.719	-0.594	-0.717	0.255	-0.485	-0.170	-0.349	-0.375	0.166	0.073	0.125	0.173	0.469	-62.500
-1.112	-0.593	-0.384	0.083	0.584	-0.152	0.695	0.227	0.899	1.018	0.727	0.391	0.722	0.483	-0.836	-0.667	-0.452	-0.656	0.258	-0.410	-0.094	-0.243	-0.257	0.209	0.059	0.097	0.095	0.390	-58.594
-1.029	-0.530	-0.405	0.117	0.622	-0.171	0.663	0.098	0.762	0.918	0.591	0.296	0.657	0.510	-0.741	-0.601	-0.319	-0.568	0.188	-0.345	-0.049	-0.133	-0.118	0.244	0.063	0.073	0.039	0.298	-54.688
-0.870	-0.419	-0.348	0.165	0.625	-0.157	0.589	-0.037	0.594	0.784	0.439	0.189	0.550	0.489	-0.614	-0.520	-0.204	-0.466	0.050	-0.287	-0.032	-0.030	0.021	0.258	0.076	0.044	-0.000	0.204	-50.781
-0.668	-0.268	-0.224	0.236	0.606	-0.107	0.492	-0.167	0.416	0.632	0.290	0.078	0.408	0.435	-0.480	-0.422	-0.112	-0.364	-0.134	-0.225	-0.030	0.055	0.144	0.244	0.084	0.001	-0.034	0.116	-46.875
-0.464	-0.093	-0.056	0.330	0.585	-0.024	0.389	-0.279	0.248	0.478	0.156	-0.032	0.245	0.369	-0.363	-0.309	-0.042	-0.272	-0.330	-0.153	-0.025	0.121	0.239	0.197	0.077	-0.062	-0.074	0.034	-42.969
-0.296	0.087	0.129	0.441	0.577	0.080	0.297	-0.365	0.103	0.337	0.044	-0.136	0.076	0.311	-0.281	-0.188	0.011	-0.194	-0.501	-0.065	-0.004	0.169	0.302	0.122	0.046	-0.150	-0.131	-0.041	-39.062
-0.193	0.248	0.300	0.557	0.591	0.187	0.227	-0.423	-0.011	0.217	-0.041	-0.232	-0.078	0.278	-0.244	-0.070	0.050	-0.133	-0.616	0.037	0.043	0.207	0.336	0.029	-0.007	-0.261	-0.208	-0.114	-35.156
-0.170	0.369	0.437	0.658	0.628	0.281	0.183	-0.455	-0.092	0.125	-0.102	-0.315	-0.200	0.276	-0.252	0.031	0.075	-0.086	-0.655	0.145	0.116	0.245	0.351	-0.064	-0.077	-0.383	-0.299	-0.187	-31.250
-0.228	0.436	0.527	0.727	0.679	0.346	0.159	-0.466	-0.147	0.059	-0.141	-0.383	-0.281	0.302	-0.302	0.098	0.087	-0.052	-0.614	0.245	0.209	0.291	0.360	-0.138	-0.148	-0.501	-0.392	-0.260	-27.344
-0.352	0.444	0.570	0.751	0.730	0.371	0.146	-0.467	-0.180	0.016	-0.167	-0.431	-0.319	0.343	-0.380	0.121	0.082	-0.028	-0.503	0.321	0.307	0.349	0.372	-0.177	-0.205	-0.593	-0.468	-0.326	-23.438
-0.517	0.397	0.574	0.721	0.763	0.352	0.129	-0.465	-0.201	-0.009	-0.184	-0.459	-0.320	0.383	-0.474	0.096	0.056	-0.014	-0.344	0.361	0.392	0.418	0.396	-0.171	-0.232	-0.643	-0.509	-0.380	-19.531
-0.691	0.308	0.552	0.640	0.763	0.292	0.097	-0.468	-0.214	-0.026	-0.200	-0.465	-0.301	0.403	-0.564	0.028	0.006	-0.004	-0.167	0.358	0.450	0.490	0.432	-0.120	-0.217	-0.639	-0.501	-0.410	-15.625
-0.842	0.193	0.518	0.515	0.717	0.197	0.042	-0.477	-0.223	-0.041	-0.215	-0.450	-0.279	0.390	-0.635	-0.069	-0.066	0.004	-0.005	0.313	0.470	0.550	0.477	-0.033	-0.158	-0.578	-0.440	-0.410	-11.719
-0.948	0.067	0.480	0.358	0.623	0.078	-0.039	-0.490	-0.226	-0.058	-0.229	-0.415	-0.273	0.338	-0.672	-0.181	-0.159	0.018	0.113	0.232	0.447	0.585	0.522	0.071	-0.060	-0.464	-0.330	-0.374	-7.812
-0.998	-0.061	0.438	0.183	0.485	-0.056	-0.137	-0.499	-0.217	-0.078	-0.237	-0.361	-0.297	0.250	-0.667	-0.292	-0.268	0.045	0.162	0.125	0.386	0.585	0.561	0.173	0.068	-0.312	-0.184	-0.304	-3.906
-0.999	-0.191	0.387	-0.002	0.313	-0.195	-0.238	-0.495	-0.190	-0.097	-0.227	-0.287	-0.353	0.139	-0.621	-0.396	-0.391	0.086	0.126	0.002	0.298	0.545	0.587	0.255	0.212	-0.137	-0.016	-0.203	0.000
-0.969	-0.327	0.316	-0.188	0.124	-0.334	-0.326	-0.470	-0.135	-0.107	-0.191	-0.194	-0.437	0.024	-0.546	-0.493	-0.525	0.143	0.001	-0.128	0.196	0.470	0.598	0.306	0.359	0.045	0.157	-0.079	3.906
-0.936	-0.480	0.215	-0.373	-0.063	-0.467	-0.384	-0.416	-0.047	-0.099	-0.119	-0.080	-0.535	-0.075	-0.459	-0.593	-0.672	0.210	-0.210	-0.261	0.096	0.374	0.596	0.327	0.502	0.222	0.323	0.058	7.812
-0.927	-0.660	0.083	-0.557	-0.230	-0.590	-0.401	-0.335	0.072	-0.068	-0.011	0.052	-0.629	-0.140	-0.379	-0.710	-0.831	0.280	-0.491	-0.395	0.012	0.275	0.585	0.324	0.634	0.386	0.471	0.199	11.719
-0.961	-0.869	-0.075	-0.736	-0.362	-0.699	-0.375	-0.235	0.213	-0.015	0.126	0.197	-0.703	-0.159	-0.322	-0.854	-1.000	0.344	-0.818	-0.527	-0.047	0.192	0.570	0.311	0.753	0.531	0.594	0.334	15.625
-1.041	-1.100	-0.242	-0.908	-0.452	-0.790	-0.314	-0.132	0.358	0.055	0.277	0.344	-0.747	-0.131	-0.294	-1.027	-1.170	0.395	-1.160	-0.652	-0.076	0.141	0.556	0.300	0.858	0.655	0.688	0.452	19.531
-1.156	-1.333	-0.394	-1.065	-0.498	-0.858	-0.235	-0.044	0.484	0.127	0.419	0.480	-0.758	-0.063	-0.291	-1.216	-1.325	0.429	-1.480	-0.761	-0.076	0.128	0.546	0.298	0.946	0.754	0.750	0.545	23.438
-1.282	-1.541	-0.507	-1.194	-0.506	-0.902	-0.160	0.007	0.565	0.187	0.530	0.590	-0.744	0.028	-0.300	-1.397	-1.445	0.448	-1.743	-0.839	-0.051	0.154	0.539	0.308	1.014	0.825	0.777	0.604	27.344
-1.391	-1.696	-0.561	-1.284	-0.485	-0.922	-0.107	0.004	0.583	0.220	0.594	0.663	-0.716	0.122	-0.304	-1.536	-1.508	0.455	-1.920	-0.873	-0.012	0.214	0.535	0.324	1.059	0.867	0.768	0.624	31.250
-1.456	-1.774	-0.549	-1.325	-0.449	-0.923	-0.091	-0.058	0.528	0.219	0.606	0.694	-0.694	0.198	-0.286	-1.602	-1.498	0.456	-1.995	-0.850	0.031	0.293	0.532	0.338	1.080	0.880	0.727	0.602	35.156
-1.462	-1.761	-0.477	-1.316	-0.411	-0.912	-0.112	-0.172	0.409	0.191	0.577	0.688	-0.693	0.240	-0.238	-1.573	-1.413	0.452	-1.970	-0.766	0.067	0.376	0.524	0.342	1.079	0.868	0.663	0.543	39.062
-1.407	-1.663	-0.364	-1.259	-0.379	-0.896	-0.160	-0.320	0.250	0.148	0.529	0.656	-0.723	0.237	-0.162	-1.448	-1.262	0.439	-1.863	-0.630	0.087	0.447	0.508	0.330	1.064	0.840	0.589	0.454	42.969
-1.307	-1.499	-0.237	-1.168	-0.360	-0.883	-0.212	-0.469	0.087	0.117	0.495	0.612	-0.785	0.190	-0.073	-1.245	-1.072	0.410	-1.709	-0.460	0.086	0.488	0.479	0.306	1.049	0.812	0.524	0.350	46.875
-1.189	-1.303	-0.129	-1.061	-0.349	-0.875	-0.238	-0.581	-0.037	0.125	0.503	0.571	-0.870	0.108	0.006	-1.002	-0.883	0.353	-1.550	-0.285	0.065	0.490	0.435	0.277	1.053	0.800	0.486	0.242	50.781
-1.090	-1.116	-0.069	-0.957	-0.337	-0.869	-0.212	-0.622	-0.079	0.195	0.575	0.538	-0.961	0.011	0.044	-0.769	-0.737	0.254	-1.429	-0.136	0.031	0.446	0.375	0.261	1.093	0.823	0.495	0.144	54.688
-1.048	-0.980	-0.078	-0.873	-0.309	-0.860	-0.111	-0.563	-0.009	0.343	0.715	0.512	-1.038	-0.077	0.015	-0.594	-0.670	0.105	-1.382	-0.039	-0.002	0.363	0.303	0.274	1.186	0.895	0.562	0.062	58.594
-1.092	-0.925	-0.165	-0.820	-0.250	-0.838	0.072	-0.395	0.189	0.568	0.906	0.476	-1.075	-0.129	-0.103	-0.515	-0.707	-0.095	-1.425	-0.011	-0.019	0.251	0.224	0.334	1.339	1.020	0.693	-0.002	62.500
-1.238	-0.969	-0.327	-0.803	-0.147	-0.797	0.329	-0.122	0.505	0.854	1.118	0.409	-1.055	-0.122	-0.314	-0.552	-0.852	-0.340	-1.557	-0.052	-0.003	0.133	0.149	0.451	1.549	1.198	0.879	-0.053	66.406
-1.484	-1.111	-0.550	-0.822	0.003	-0.733	0.637	0.229	0.914	1.171	1.310	0.291	-0.966	-0.042	-0.610	-0.701	-1.087	-0.612	-1.757	-0.152	0.056	0.031	0.091	0.630	1.804	1.414	1.106	-0.098	70.312
-1.815	-1.336	-0.815	-0.870	0.190	-0.652	0.959	0.620	1.369	1.481	1.439	0.108	-0.807	0.113	-0.967	-0.936	-1.375	-0.887	-1.991	-0.287	0.164	-0.029	0.061	0.865	2.086	1.653	1.353	-0.146	74.219
-2.198	-1.614	-1.099	-0.944	0.397	-0.569	1.255	1.002	1.817	1.744	1.475	-0.140	-0.588	0.335	-1.350	-1.215	-1.668	-1.139	-2.215	-0.429	0.314	-0.031	0.069	1.145	2.372	1.894	1.601	-0.198	78.125
-2.595	-1.908	-1.381	-1.034	0.594	-0.502	1.488	1.325	2.202	1.926	1.402	-0.433	-0.329	0.601	-1.720	-1.490	-1.920	-1.343	-2.389	-0.553	0.494	0.035	0.119	1.451	2.642	2.120	1.834	-0.246	82.031
-2.969	-2.181	-1.643	-1.135	0.753	-0.474	1.628	1.545	2.475	2.006	1.222	-0.738	-0.056	0.886	-2.043	-1.716	-2.088	-1.481	-2.483	-0.636	0.685	0.165	0.209	1.765	2.881	2.321	2.047	-0.274	85.938
-3.287	-2.400	-1.873	-1.235	0.852	-0.504	1.664	1.634	2.600	1.977	0.955	-1.013	0.207	1.163	-2.292	-1.857	-2.150	-1.546	-2.476	-0.664	0.870	0.351	0.332	2.070	3.079	2.490	2.240	-0.261	89.844
-3.528	-2.542	-2.067	-1.324	0.882	-0.598	1.601	1.575	2.559	1.847	0.629	-1.217	0.442	1.412	-2.459	-1.896	-2.101	-1.543	-2.361	-0.630	1.041	0.577	0.477	2.350	3.230	2.627	2.418	-0.187	93.750
-3.683	-2.596	-2.223	-1.389	0.848	-0.754	1.458	1.373	2.352	1.637	0.278	-1.318	0.643	1.624	-2.547	-1.831	-1.958	-1.488	-2.143	-0.534	1.195	0.828	0.634	2.601	3.332	2.735	2.590	-0.037	97.656
-3.759	-2.567	-2.348	-1.422	0.770	-0.956	1.266	1.044	1.993	1.375	-0.068	-1.304	0.817	1.804	-2.578	-1.679	-1.753	-1.405	-1.833	-0.380	1.345	1.094	0.794	2.821	3.386	2.816	2.763	0.193	101.562
-3.776	-2.473	-2.449	-1.415	0.678	-1.181	1.064	0.617	1.512	1.092	-0.382	-1.176	0.985	1.965	-2.578	-1.468	-1.527	-1.319	-1.451	-0.174	1.508	1.366	0.953	3.018	3.394	2.875	2.943	0.492	105.469
-3.764	-2.343	-2.539	-1.368	0.602	-1.402	0.887	0.127	0.947	0.819	-0.647	-0.954	1.174	2.133	-2.582	-1.232	-1.324	-1.256	-1.015	0.075	1.707	1.642	1.112	3.204	3.356	2.913	3.133	0.843	109.375
-3.756	-2.209	-2.632	-1.286	0.571	-1.598	0.767	-0.390	0.343	0.583	-0.849	-0.666	1.416	2.333	-2.619	-1.004	-1.177	-1.234	-0.550	0.359	1.960	1.922	1.271	3.391	3.275	2.932	3.332	1.214	113.281
-3.787	-2.105	-2.738	-1.181	0.604	-1.749	0.726	-0.896	-0.255	0.407	-0.981	-0.348	1.732	2.586	-2.713	-0.813	-1.111	-1.268	-0.080	0.669	2.281	2.204	1.432	3.591	3.157	2.929	3.536	1.573	117.188
-3.884	-2.054	-2.863	-1.062	0.709	-1.848	0.773	-1.359	-0.803	0.308	-1.044	-0.037	2.132	2.906	-2.877	-0.678	-1.130	-1.362	0.371	0.995	2.673	2.484	1.592	3.809	3.005	2.902	3.735	1.887	121.094
-4.060	-2.067	-3.007	-0.941	0.883	-1.891	0.905	-1.751	-1.268	0.292	-1.041	0.235	2.605	3.290	-3.112	-0.602	-1.225	-1.512	0.782	1.328	3.123	2.755	1.748	4.043	2.827	2.845	3.918	2.126	125.000
-4.313	-2.140	-3.160	-0.827	1.114	-1.881	1.105	-2.052	-1.624	0.358	-0.984	0.439	3.122	3.722	-3.405	-0.581	-1.376	-1.710	1.135	1.658	3.611	3.006	1.891	4.281	2.632	2.753	4.068	2.270	128.906
-4.627	-2.256	-3.305	-0.724	1.382	-1.824	1.349	-2.248	-1.857	0.494	-0.887	0.559	3.637	4.171	-3.734	-0.598	-1.555	-1.937	1.418	1.973	4.101	3.225	2.012	4.504	2.430	2.624	4.171	2.308	132.812
-4.970	-2.390	-3.423	-0.636	1.663	-1.727	1.605	-2.333	-1.961	0.684	-0.762	0.589	4.095	4.593	-4.068	-0.639	-1.734	-2.175	1.626	2.254	4.553	3.398	2.100	4.688	2.232	2.461	4.214	2.245	136.719
-5.302	-2.517	-3.495	-0.563	1.932	-1.599	1.846	-2.306	-1.937	0.908	-0.618	0.540	4.445	4.943	-4.373	-0.688	-1.895	-2.402	1.756	2.482	4.925	3.515	2.148	4.810	2.051	2.272	4.189	2.097	140.625
-5.582	-2.619	-3.508	-0.510	2.164	-1.449	2.049	-2.167	-1.790	1.148	-0.458	0.432	4.648	5.180	-4.619	-0.741	-2.028	-2.600	1.809	2.633	5.180	3.568	2.152	4.852	1.900	2.074	4.098	1.892	144.531
-5.777	-2.689	-3.461	-0.483	2.338	-1.289	2.201	-1.925	-1.528	1.389	-0.276	0.299	4.683	5.274	-4.781	-0.805	-2.138	-2.760	1.788	2.685	5.287	3.553	2.111	4.806	1.794	1.892	3.950	1.664	148.438
-5.866	-2.736	-3.363	-0.491	2.440	-1.134	2.301	-1.589	-1.159	1.622	-0.062	0.177	4.556	5.213	-4.847	-0.897	-2.239	-2.878	1.693	2.616	5.232	3.471	2.028	4.677	1.745	1.753	3.767	1.453	152.344
-5.845	-2.781	-3.234	-0.545	2.459	-0.999	2.357	-1.171	-0.693	1.849	0.199	0.106	4.295	5.005	-4.820	-1.042	-2.354	-2.963	1.522	2.412	5.014	3.326	1.905	4.483	1.767	1.689	3.577	1.296	156.250
-5.732	-2.855	-3.106	-0.660	2.393	-0.902	2.383	-0.688	-0.139	2.076	0.528	0.119	3.946	4.674	-4.717	-1.267	-2.504	-3.031	1.269	2.071	4.647	3.121	1.748	4.252	1.872	1.731	3.416	1.228	160.156
-5.561	-2.990	-3.012	-0.847	2.244	-0.858	2.403	-0.155	0.494	2.318	0.940	0.241	3.565	4.261	-4.568	-1.595	-2.708	-3.105	0.928	1.598	4.158	2.864	1.559	4.017	2.069	1.904	3.320	1.275	164.062
-5.376	-3.214	-2.987	-1.117	2.022	-0.882	2.440	0.409	1.194	2.594	1.450	0.489	3.206	3.810	-4.413	-2.039	-2.976	-3.209	0.496	1.014	3.583	2.562	1.342	3.814	2.365	2.225	3.323	1.457	167.969
-5.226	-3.547	-3.060	-1.473	1.739	-0.983	2.514	0.986	1.951	2.922	2.066	0.864	2.913	3.369	-4.288	-2.598	-3.309	-3.363	-0.026	0.345	2.960	2.223	1.097	3.675	2.761	2.700	3.450	1.778	171.875
-5.149	-3.991	-3.249	-1.914	1.408	-1.165	2.641	1.560	2.750	3.318	2.786	1.361	2.713	2.973	-4.227	-3.257	-3.697	-3.582	-0.630	-0.374	2.326	1.858	0.828	3.622	3.253	3.321	3.715	2.236	175.781
-5.169	-4.536	-3.557	-2.428	1.044	-1.424	2.825	2.115	3.575	3.783	3.594	1.958	2.610	2.646	-4.246	-3.985	-4.127	-3.868	-1.299	-1.112	1.711	1.479	0.539	3.667	3.829	4.066	4.115	2.813	179.688
-5.290	-5.154	-3.972	-2.999	0.660	-1.749	3.058	2.636	4.404	4.308	4.462	2.627	2.591	2.397	-4.351	-4.742	-4.578	-4.215	-2.008	-1.836	1.136	1.099	0.238	3.806	4.469	4.902	4.632	3.483	183.594
-5.494	-5.805	-4.469	-3.604	0.263	-2.125	3.319	3.111	5.215	4.866	5.352	3.333	2.627	2.219	-4.527	-5.485	-5.029	-4.606	-2.726	-2.524	0.611	0.733	-0.065	4.024	5.151	5.786	5.235	4.210	187.500
-5.750	-6.447	-5.012	-4.219	-0.143	-2.533	3.575	3.529	5.981	5.418	6.214	4.033	2.680	2.093	-4.747	-6.169	-5.458	-5.014	-3.421	-3.159	0.139	0.397	-0.356	4.295	5.844	6.675	5.880	4.952	191.406
-6.015	-7.037	-5.560	-4.818	-0.560	-2.952	3.790	3.882	6.675	5.918	7.001	4.689	2.715	1.994	-4.977	-6.761	-5.845	-5.407	-4.064	-3.732	-0.282	0.102	-0.619	4.586	6.522	7.526	6.521	5.671	195.312
-6.249	-7.545	-6.073	-5.383	-0.991	-3.365	3.928	4.165	7.272	6.321	7.670	5.265	2.703	1.897	-5.180	-7.239	-6.174	-5.754	-4.630	-4.240	-0.656	-0.142	-0.838	4.866	7.156	8.302	7.114	6.330	199.219
-6.419	-7.952	-6.514	-5.897	-1.436	-3.752	3.965	4.377	7.753	6.592	8.192	5.736	2.633	1.784	-5.324	-7.599	-6.435	-6.027	-5.104	-4.684	-0.987	-0.330	-1.001	5.107	7.725	8.977	7.623	6.903	203.125
-6.506	-8.256	-6.860	-6.349	-1.890	-4.101	3.893	4.518	8.107	6.718	8.555	6.089	2.507	1.648	-5.387	-7.848	-6.623	-6.210	-5.484	-5.064	-1.271	-0.466	-1.105	5.292	8.210	9.532	8.023	7.373	207.031
-6.504	-8.468	-7.095	-6.732	-2.339	-4.397	3.724	4.596	8.331	6.702	8.762	6.324	2.346	1.493	-5.361	-8.006	-6.745	-6.298	-5.773	-5.380	-1.502	-0.557	-1.153	5.412	8.596	9.959	8.305	7.733	210.938
-6.422	-8.606	-7.216	-7.039	-2.760	-4.632	3.488	4.616	8.433	6.571	8.832	6.451	2.180	1.338	-5.253	-8.097	-6.811	-6.304	-5.986	-5.632	-1.672	-0.615	-1.159	5.473	8.876	10.257	8.471	7.982	214.844
-6.279	-8.692	-7.231	-7.264	-3.123	-4.798	3.227	4.588	8.424	6.365	8.793	6.490	2.044	1.208	-5.080	-8.142	-6.837	-6.249	-6.138	-5.814	-1.769	-0.651	-1.141	5.485	9.046	10.429	8.537	8.129	218.750
-6.100	-8.745	-7.159	-7.403	-3.401	-4.895	2.983	4.517	8.321	6.127	8.676	6.463	1.970	1.132	-4.869	-8.159	-6.842	-6.165	-6.243	-5.922	-1.783	-0.678	-1.119	5.469	9.109	10.483	8.523	8.185	222.656
-5.910	-8.778	-7.027	-7.456	-3.568	-4.926	2.792	4.408	8.142	5.898	8.508	6.393	1.982	1.140	-4.649	-8.160	-6.840	-6.083	-6.312	-5.953	-1.708	-0.698	-1.108	5.445	9.076	10.434	8.457	8.162	226.562
-5.737	-8.801	-6.866	-7.427	-3.612	-4.903	2.675	4.263	7.902	5.709	8.312	6.300	2.093	1.250	-4.453	-8.149	-6.843	-6.029	-6.351	-5.902	-1.542	-0.709	-1.113	5.436	8.961	10.297	8.367	8.075	230.469
-5.603	-8.818	-6.710	-7.328	-3.537	-4.841	2.635	4.079	7.614	5.572	8.101	6.194	2.307	1.474	-4.308	-8.125	-6.855	-6.014	-6.358	-5.772	-1.288	-0.697	-1.129	5.458	8.787	10.094	8.279	7.937	234.375
-5.529	-8.829	-6.594	-7.176	-3.358	-4.760	2.661	3.855	7.288	5.485	7.879	6.082	2.617	1.811	-4.236	-8.085	-6.869	-6.039	-6.327	-5.565	-0.950	-0.642	-1.135	5.526	8.580	9.847	8.213	7.761	238.281
-5.532	-8.836	-6.544	-6.988	-3.099	-4.677	2.728	3.590	6.930	5.436	7.642	5.958	3.009	2.250	-4.248	-8.022	-6.873	-6.087	-6.248	-5.285	-0.536	-0.522	-1.107	5.647	8.362	9.578	8.181	7.554	242.188
-5.625	-8.839	-6.577	-6.783	-2.791	-4.604	2.812	3.283	6.546	5.400	7.383	5.811	3.463	2.773	-4.345	-7.931	-6.848	-6.134	-6.109	-4.940	-0.055	-0.315	-1.016	5.821	8.154	9.305	8.186	7.321	246.094
-5.814	-8.840	-6.701	-6.574	-2.459	-4.547	2.891	2.940	6.138	5.356	7.091	5.626	3.956	3.354	-4.519	-7.805	-6.772	-6.148	-5.899	-4.538	0.484	-0.007	-0.837	6.042	7.970	9.038	8.220	7.060	250.000
-6.096	-8.836	-6.907	-6.367	-2.122	-4.504	2.950	2.572	5.714	5.282	6.756	5.388	4.464	3.967	-4.752	-7.640	-6.626	-6.105	-5.609	-4.085	1.070	0.405	-0.558	6.296	7.813	8.782	8.267	6.768	253.906
-6.461	-8.826	-7.177	-6.162	-1.790	-4.465	2.985	2.192	5.278	5.167	6.370	5.082	4.959	4.585	-5.020	-7.433	-6.397	-5.986	-5.235	-3.591	1.689	0.914	-0.180	6.568	7.679	8.534	8.306	6.441	257.812
-6.891	-8.800	-7.486	-5.950	-1.461	-4.419	3.002	1.818	4.838	5.006	5.933	4.704	5.417	5.182	-5.299	-7.180	-6.081	-5.790	-4.780	-3.065	2.326	1.498	0.282	6.838	7.559	8.285	8.319	6.073	261.719
-7.358	-8.747	-7.802	-5.722	-1.132	-4.354	3.009	1.464	4.404	4.802	5.449	4.256	5.817	5.735	-5.567	-6.884	-5.686	-5.527	-4.256	-2.513	2.962	2.127	0.798	7.090	7.439	8.028	8.289	5.663	265.625
-7.829	-8.651	-8.097	-5.464	-0.795	-4.263	3.016	1.145	3.985	4.565	4.930	3.750	6.144	6.225	-5.805	-6.546	-5.228	-5.223	-3.681	-1.945	3.579	2.767	1.332	7.310	7.308	7.754	8.209	5.217	269.531
-8.270	-8.497	-8.349	-5.170	-0.447	-4.144	3.029	0.869	3.590	4.308	4.395	3.209	6.391	6.638	-6.002	-6.174	-4.732	-4.910	-3.080	-1.371	4.159	3.384	1.847	7.490	7.156	7.460	8.082	4.750	273.438
-8.651	-8.275	-8.542	-4.839	-0.091	-4.002	3.051	0.639	3.229	4.046	3.867	2.661	6.559	6.966	-6.151	-5.774	-4.227	-4.619	-2.478	-0.802	4.684	3.945	2.310	7.629	6.982	7.150	7.918	4.285	277.344
-8.949	-7.983	-8.674	-4.478	0.263	-3.851	3.077	0.454	2.910	3.796	3.372	2.135	6.658	7.210	-6.251	-5.359	-3.739	-4.379	-1.901	-0.250	5.142	4.430	2.695	7.728	6.788	6.832	7.736	3.850	281.250
-9.155	-7.631	-8.751	-4.104	0.598	-3.707	3.101	0.307	2.639	3.573	2.936	1.663	6.705	7.376	-6.307	-4.939	-3.290	-4.208	-1.370	0.270	5.523	4.824	2.989	7.795	6.584	6.524	7.554	3.478	285.156
-9.270	-7.239	-8.784	-3.737	0.893	-3.589	3.116	0.191	2.419	3.392	2.583	1.274	6.718	7.478	-6.324	-4.529	-2.895	-4.110	-0.901	0.743	5.824	5.126	3.190	7.838	6.382	6.242	7.395	3.196	289.062
-9.311	-6.835	-8.793	-3.403	1.130	-3.512	3.118	0.096	2.254	3.264	2.330	0.988	6.716	7.531	-6.312	-4.139	-2.559	-4.081	-0.505	1.156	6.047	5.342	3.308	7.865	6.196	6.004	7.276	3.024	292.969
-9.298	-6.446	-8.794	-3.121	1.293	-3.489	3.103	0.012	2.138	3.193	2.186	0.815	6.712	7.555	-6.279	-3.779	-2.276	-4.106	-0.183	1.500	6.199	5.487	3.357	7.885	6.038	5.823	7.209	2.968	296.875
-9.257	-6.096	-8.800	-2.907	1.375	-3.522	3.073	-0.069	2.067	3.179	2.148	0.755	6.716	7.568	-6.232	-3.453	-2.035	-4.164	0.069	1.771	6.292	5.580	3.357	7.900	5.913	5.705	7.199	3.020	300.781
-9.208	-5.799	-8.820	-2.767	1.379	-3.609	3.031	-0.155	2.027	3.211	2.202	0.796	6.730	7.582	-6.175	-3.163	-1.821	-4.231	0.262	1.974	6.341	5.641	3.328	7.911	5.821	5.647	7.241	3.157	304.688
-9.167	-5.557	-8.852	-2.697	1.317	-3.740	2.981	-0.253	2.006	3.275	2.322	0.914	6.750	7.605	-6.110	-2.904	-1.617	-4.286	0.415	2.117	6.360	5.689	3.288	7.915	5.754	5.636	7.323	3.348	308.594
-9.139	-5.359	-8.891	-2.682	1.208	-3.896	2.924	-0.366	1.986	3.351	2.476	1.079	6.769	7.639	-6.036	-2.667	-1.408	-4.310	0.545	2.215	6.362	5.738	3.252	7.906	5.701	5.650	7.423	3.558	312.500
-9.123	-5.189	-8.926	-2.705	1.074	-4.062	2.864	-0.492	1.954	3.419	2.631	1.261	6.779	7.678	-5.947	-2.444	-1.182	-4.290	0.671	2.284	6.354	5.795	3.231	7.877	5.645	5.667	7.516	3.754	316.406
-9.107	-5.025	-8.944	-2.744	0.936	-4.218	2.801	-0.628	1.901	3.459	2.758	1.431	6.769	7.714	-5.836	-2.226	-0.932	-4.219	0.805	2.339	6.343	5.861	3.228	7.822	5.574	5.660	7.576	3.913	320.312
-9.081	-4.851	-8.937	-2.779	0.810	-4.351	2.734	-0.769	1.821	3.460	2.834	1.567	6.732	7.736	-5.694	-2.005	-0.657	-4.099	0.953	2.391	6.329	5.931	3.246	7.734	5.475	5.612	7.582	4.022	324.219
-9.031	-4.658	-8.902	-2.796	0.708	-4.453	2.664	-0.906	1.714	3.416	2.851	1.660	6.667	7.734	-5.513	-1.777	-0.360	-3.932	1.112	2.449	6.311	5.998	3.280	7.613	5.346	5.512	7.525	4.082	328.125
-8.946	-4.448	-8.845	-2.789	0.632	-4.522	2.588	-1.034	1.584	3.328	2.810	1.709	6.573	7.700	-5.288	-1.545	-0.050	-3.728	1.273	2.516	6.287	6.054	3.328	7.461	5.192	5.362	7.405	4.102	332.031
-8.823	-4.235	-8.776	-2.758	0.580	-4.561	2.506	-1.148	1.437	3.204	2.721	1.724	6.456	7.631	-5.017	-1.313	0.261	-3.497	1.424	2.589	6.255	6.091	3.383	7.283	5.026	5.173	7.238	4.099	335.938
-8.660	-4.038	-8.710	-2.712	0.542	-4.579	2.416	-1.246	1.281	3.055	2.602	1.722	6.325	7.525	-4.703	-1.089	0.560	-3.247	1.557	2.664	6.214	6.106	3.442	7.091	4.867	4.968	7.046	4.094	339.844
-8.461	-3.880	-8.663	-2.663	0.508	-4.583	2.317	-1.328	1.123	2.892	2.470	1.719	6.186	7.386	-4.350	-0.886	0.835	-2.987	1.667	2.733	6.162	6.099	3.502	6.894	4.734	4.773	6.858	4.105	343.750
-8.229	-3.780	-8.644	-2.626	0.464	-4.584	2.208	-1.395	0.969	2.725	2.342	1.733	6.044	7.217	-3.968	-0.712	1.075	-2.725	1.752	2.786	6.095	6.072	3.561	6.703	4.644	4.612	6.699	4.144	347.656
-7.972	-3.748	-8.654	-2.615	0.399	-4.588	2.087	-1.448	0.828	2.561	2.231	1.775	5.899	7.020	-3.566	-0.578	1.274	-2.469	1.815	2.814	6.007	6.028	3.616	6.525	4.606	4.507	6.587	4.220	351.562
-7.696	-3.783	-8.688	-2.638	0.303	-4.598	1.953	-1.487	0.704	2.402	2.145	1.850	5.746	6.799	-3.158	-0.490	1.429	-2.226	1.862	2.807	5.893	5.970	3.664	6.362	4.622	4.468	6.527	4.336	355.469
-7.405	-3.870	-8.730	-2.699	0.175	-4.613	1.807	-1.512	0.602	2.250	2.087	1.956	5.579	6.555	-2.755	-0.447	1.540	-2.006	1.895	2.759	5.747	5.896	3.701	6.213	4.683	4.498	6.516	4.488	359.375
-7.105	-3.987	-8.761	-2.792	0.019	-4.629	1.650	-1.522	0.525	2.102	2.058	2.088	5.391	6.294	-2.367	-0.446	1.609	-1.819	1.917	2.669	5.566	5.807	3.721	6.071	4.775	4.585	6.538	4.669	363.281
-6.797	-4.106	-8.763	-2.909	-0.157	-4.641	1.486	-1.518	0.470	1.957	2.054	2.230	5.181	6.020	-2.004	-0.478	1.639	-1.674	1.927	2.540	5.352	5.701	3.721	5.930	4.880	4.713	6.573	4.863	367.188
-6.489	-4.205	-8.721	-3.032	-0.335	-4.641	1.322	-1.501	0.435	1.818	2.069	2.368	4.956	5.745	-1.674	-0.532	1.634	-1.576	1.923	2.379	5.113	5.576	3.698	5.784	4.976	4.856	6.602	5.052	371.094
-6.189	-4.268	-8.630	-3.146	-0.496	-4.620	1.168	-1.470	0.415	1.689	2.097	2.484	4.727	5.483	-1.382	-0.596	1.594	-1.527	1.905	2.201	4.862	5.434	3.650	5.630	5.047	4.988	6.608	5.213	375.000
-5.907	-4.291	-8.491	-3.232	-0.621	-4.568	1.039	-1.426	0.406	1.580	2.131	2.562	4.515	5.250	-1.133	-0.662	1.520	-1.523	1.869	2.017	4.618	5.279	3.580	5.470	5.079	5.084	6.580	5.322	378.906
-5.660	-4.281	-8.317	-3.280	-0.690	-4.477	0.951	-1.364	0.409	1.504	2.167	2.592	4.339	5.062	-0.928	-0.728	1.411	-1.552	1.818	1.844	4.400	5.116	3.493	5.309	5.065	5.125	6.515	5.359	382.812
-5.461	-4.252	-8.125	-3.281	-0.690	-4.341	0.919	-1.281	0.428	1.475	2.206	2.569	4.219	4.931	-0.771	-0.796	1.267	-1.601	1.751	1.690	4.226	4.952	3.397	5.157	5.000	5.097	6.415	5.310	386.719
-5.324	-4.223	-7.932	-3.232	-0.615	-4.154	0.955	-1.168	0.470	1.505	2.247	2.497	4.164	4.866	-0.661	-0.872	1.091	-1.658	1.672	1.566	4.109	4.797	3.298	5.020	4.886	4.993	6.287	5.169	390.625
-5.250	-4.205	-7.752	-3.132	-0.467	-3.918	1.066	-1.022	0.542	1.598	2.294	2.382	4.174	4.867	-0.600	-0.959	0.887	-1.710	1.586	1.476	4.053	4.655	3.202	4.903	4.724	4.815	6.136	4.938	394.531
-5.233	-4.202	-7.591	-2.986	-0.254	-3.637	1.245	-0.845	0.644	1.744	2.343	2.238	4.239	4.927	-0.584	-1.058	0.664	-1.752	1.497	1.426	4.059	4.533	3.113	4.805	4.517	4.566	5.969	4.629	398.438
-5.255	-4.208	-7.445	-2.796	0.007	-3.321	1.473	-0.645	0.768	1.926	2.392	2.079	4.340	5.033	-0.609	-1.165	0.433	-1.787	1.408	1.418	4.118	4.428	3.027	4.719	4.268	4.260	5.792	4.264	402.344
-5.290	-4.209	-7.303	-2.570	0.293	-2.983	1.726	-0.438	0.898	2.115	2.434	1.920	4.456	5.167	-0.664	-1.266	0.209	-1.821	1.317	1.454	4.219	4.338	2.937	4.635	3.980	3.910	5.609	3.874	406.250
-5.310	-4.188	-7.150	-2.320	0.583	-2.643	1.972	-0.246	1.012	2.283	2.464	1.778	4.567	5.311	-0.739	-1.344	0.005	-1.864	1.220	1.534	4.348	4.253	2.835	4.543	3.658	3.537	5.430	3.493	410.156
-5.292	-4.129	-6.975	-2.057	0.857	-2.319	2.182	-0.090	1.090	2.405	2.477	1.668	4.658	5.446	-0.816	-1.382	-0.165	-1.928	1.109	1.654	4.490	4.164	2.708	4.436	3.310	3.165	5.262	3.159	414.062
-5.221	-4.021	-6.768	-1.793	1.101	-2.028	2.337	0.015	1.113	2.467	2.472	1.599	4.721	5.558	-0.883	-1.363	-0.292	-2.020	0.979	1.807	4.630	4.062	2.550	4.306	2.946	2.816	5.116	2.906	417.969
-5.097	-3.858	-6.528	-1.537	1.309	-1.780	2.426	0.061	1.073	2.462	2.449	1.576	4.754	5.638	-0.927	-1.277	-0.372	-2.143	0.829	1.985	4.758	3.939	2.360	4.153	2.577	2.506	4.997	2.754	421.875
-4.929	-3.640	-6.254	-1.294	1.486	-1.581	2.450	0.051	0.971	2.397	2.406	1.588	4.757	5.680	-0.940	-1.123	-0.403	-2.289	0.663	2.178	4.865	3.793	2.142	3.974	2.212	2.246	4.906	2.704	425.781
-4.730	-3.371	-5.951	-1.062	1.641	-1.425	2.417	-0.006	0.814	2.279	2.337	1.619	4.733	5.680	-0.920	-0.907	-0.388	-2.444	0.494	2.378	4.949	3.626	1.912	3.771	1.862	2.036	4.835	2.740	429.688
-4.520	-3.057	-5.622	-0.836	1.782	-1.305	2.338	-0.094	0.617	2.120	2.236	1.644	4.683	5.640	-0.870	-0.644	-0.334	-2.588	0.335	2.574	5.008	3.445	1.686	3.546	1.532	1.866	4.771	2.829	433.594
-4.315	-2.709	-5.271	-0.611	1.918	-1.209	2.224	-0.198	0.394	1.929	2.096	1.638	4.605	5.560	-0.801	-0.354	-0.251	-2.697	0.199	2.758	5.041	3.260	1.483	3.304	1.231	1.723	4.698	2.931	437.500
-4.127	-2.342	-4.902	-0.384	2.048	-1.129	2.081	-0.307	0.163	1.712	1.915	1.585	4.501	5.444	-0.723	-0.064	-0.154	-2.750	0.092	2.918	5.046	3.083	1.321	3.050	0.965	1.593	4.601	3.008	441.406
-3.964	-1.977	-4.525	-0.163	2.164	-1.063	1.915	-0.412	-0.064	1.474	1.698	1.480	4.370	5.293	-0.645	0.201	-0.056	-2.734	0.016	3.040	5.019	2.923	1.212	2.795	0.743	1.467	4.471	3.034	445.312
-3.830	-1.642	-4.152	0.038	2.247	-1.013	1.728	-0.511	-0.271	1.223	1.457	1.335	4.219	5.113	-0.574	0.416	0.027	-2.643	-0.036	3.111	4.954	2.787	1.159	2.553	0.573	1.342	4.306	3.001	449.219
-3.720	-1.366	-3.806	0.200	2.279	-0.987	1.520	-0.608	-0.449	0.967	1.215	1.173	4.053	4.910	-0.506	0.565	0.085	-2.481	-0.071	3.116	4.845	2.679	1.160	2.337	0.462	1.222	4.114	2.918	453.125
-3.631	-1.177	-3.509	0.302	2.244	-0.992	1.296	-0.704	-0.588	0.722	0.998	1.027	3.885	4.693	-0.434	0.640	0.110	-2.264	-0.097	3.051	4.690	2.598	1.206	2.160	0.413	1.117	3.910	2.807	457.031
-3.557	-1.095	-3.286	0.329	2.133	-1.032	1.065	-0.800	-0.681	0.504	0.832	0.926	3.725	4.472	-0.348	0.641	0.098	-2.014	-0.116	2.915	4.494	2.541	1.283	2.034	0.424	1.038	3.712	2.698	460.938
-3.493	-1.124	-3.155	0.277	1.951	-1.108	0.839	-0.896	-0.723	0.328	0.737	0.893	3.584	4.262	-0.243	0.581	0.051	-1.761	-0.125	2.722	4.269	2.501	1.375	1.965	0.486	0.997	3.538	2.622	464.844
-3.442	-1.256	-3.122	0.153	1.715	-1.210	0.632	-0.986	-0.714	0.207	0.724	0.940	3.467	4.074	-0.121	0.478	-0.028	-1.535	-0.117	2.491	4.034	2.471	1.465	1.950	0.586	0.998	3.403	2.599	468.750
-3.402	-1.465	-3.179	-0.021	1.449	-1.326	0.455	-1.065	-0.658	0.148	0.791	1.060	3.377	3.917	0.008	0.350	-0.136	-1.362	-0.082	2.243	3.810	2.444	1.540	1.984	0.707	1.043	3.317	2.641	472.656
-3.376	-1.715	-3.304	-0.219	1.178	-1.442	0.315	-1.128	-0.568	0.146	0.922	1.237	3.308	3.793	0.128	0.215	-0.266	-1.265	-0.015	2.001	3.614	2.411	1.587	2.053	0.835	1.127	3.283	2.745	476.562
-3.357	-1.971	-3.462	-0.413	0.924	-1.546	0.210	-1.174	-0.459	0.185	1.090	1.442	3.250	3.698	0.227	0.087	-0.414	-1.251	0.085	1.778	3.457	2.367	1.603	2.143	0.957	1.243	3.297	2.898	480.469
-3.336	-2.198	-3.614	-0.583	0.697	-1.634	0.130	-1.205	-0.353	0.243	1.264	1.646	3.190	3.622	0.298	-0.029	-0.575	-1.318	0.211	1.582	3.340	2.307	1.587	2.238	1.067	1.384	3.350	3.082	484.375
-3.298	-2.375	-3.728	-0.717	0.496	-1.709	0.058	-1.229	-0.272	0.294	1.413	1.824	3.114	3.550	0.345	-0.132	-0.742	-1.451	0.350	1.411	3.254	2.232	1.547	2.323	1.166	1.543	3.428	3.275	488.281
-3.228	-2.496	-3.783	-0.815	0.311	-1.778	-0.027	-1.257	-0.235	0.310	1.510	1.956	3.012	3.469	0.383	-0.224	-0.907	-1.624	0.483	1.261	3.185	2.147	1.494	2.390	1.258	1.712	3.517	3.460	492.188
-3.113	-2.564	-3.774	-0.888	0.129	-1.853	-0.139	-1.297	-0.255	0.271	1.541	2.033	2.878	3.368	0.434	-0.304	-1.055	-1.806	0.597	1.128	3.118	2.061	1.443	2.431	1.347	1.887	3.598	3.623	496.094
-2.947	-2.594	-3.714	-0.950	-0.065	-1.944	-0.289	-1.358	-0.336	0.168	1.499	2.055	2.713	3.240	0.519	-0.370	-1.171	-1.962	0.681	1.012	3.041	1.985	1.410	2.443	1.436	2.058	3.656	3.754	500.000
-2.734	-2.602	-3.628	-1.014	-0.275	-2.055	-0.477	-1.441	-0.473	-0.001	1.390	2.028	2.525	3.090	0.654	-0.415	-1.237	-2.063	0.735	0.920	2.956	1.932	1.406	2.423	1.524	2.216	3.675	3.848	503.906
-2.488	-2.603	-3.541	-1.087	-0.496	-2.182	-0.694	-1.544	-0.655	-0.226	1.223	1.960	2.326	2.926	0.844	-0.429	-1.239	-2.088	0.766	0.862	2.868	1.910	1.440	2.368	1.605	2.348	3.645	3.901	507.812
-2.227	-2.603	-3.475	-1.164	-0.714	-2.309	-0.922	-1.659	-0.866	-0.491	1.012	1.858	2.127	2.762	1.082	-0.407	-1.169	-2.027	0.787	0.851	2.794	1.925	1.517	2.276	1.667	2.435	3.557	3.909	511.719
-1.969	-2.601	-3.436	-1.235	-0.905	-2.417	-1.139	-1.774	-1.089	-0.776	0.769	1.723	1.938	2.616	1.350	-0.345	-1.032	-1.882	0.811	0.892	2.752	1.972	1.633	2.143	1.700	2.464	3.407	3.866	515.625
-1.733	-2.590	-3.417	-1.281	-1.045	-2.482	-1.326	-1.879	-1.310	-1.063	0.503	1.556	1.769	2.503	1.626	-0.250	-0.845	-1.669	0.849	0.983	2.756	2.045	1.782	1.972	1.694	2.424	3.196	3.768	519.531
-1.527	-2.561	-3.398	-1.284	-1.114	-2.482	-1.466	-1.962	-1.518	-1.334	0.223	1.356	1.620	2.434	1.884	-0.136	-0.637	-1.410	0.904	1.114	2.815	2.131	1.955	1.767	1.643	2.310	2.934	3.612	523.438
-1.353	-2.504	-3.355	-1.234	-1.101	-2.406	-1.549	-2.014	-1.705	-1.574	-0.067	1.124	1.492	2.413	2.103	-0.023	-0.440	-1.136	0.971	1.264	2.926	2.215	2.140	1.540	1.551	2.128	2.632	3.402	527.344
-1.207	-2.418	-3.267	-1.128	-1.010	-2.254	-1.575	-2.029	-1.866	-1.773	-0.359	0.865	1.383	2.436	2.270	0.069	-0.286	-0.873	1.042	1.409	3.075	2.285	2.326	1.310	1.423	1.896	2.312	3.147	531.250
-1.082	-2.312	-3.124	-0.980	-0.858	-2.039	-1.550	-2.008	-1.995	-1.925	-0.639	0.593	1.290	2.492	2.384	0.123	-0.198	-0.646	1.106	1.526	3.240	2.335	2.501	1.098	1.274	1.637	1.998	2.870	535.156
-0.971	-2.199	-2.932	-0.816	-0.678	-1.787	-1.488	-1.951	-2.087	-2.024	-0.890	0.330	1.214	2.562	2.450	0.129	-0.183	-0.472	1.153	1.595	3.393	2.360	2.655	0.924	1.120	1.381	1.716	2.597	539.062
-0.870	-2.103	-2.708	-0.669	-0.507	-1.533	-1.402	-1.863	-2.134	-2.068	-1.091	0.104	1.156	2.628	2.482	0.087	-0.232	-0.359	1.176	1.606	3.505	2.361	2.776	0.807	0.979	1.158	1.493	2.363	542.969
-0.781	-2.043	-2.483	-0.574	-0.386	-1.315	-1.309	-1.749	-2.129	-2.052	-1.217	-0.055	1.122	2.670	2.499	0.004	-0.327	-0.303	1.171	1.556	3.550	2.342	2.857	0.759	0.866	0.996	1.357	2.200	546.875
-0.711	-2.038	-2.289	-0.560	-0.344	-1.164	-1.218	-1.615	-2.065	-1.975	-1.246	-0.121	1.116	2.678	2.516	-0.105	-0.440	-0.297	1.138	1.450	3.510	2.306	2.889	0.784	0.793	0.914	1.324	2.139	550.781
-0.668	-2.094	-2.157	-0.639	-0.399	-1.103	-1.136	-1.467	-1.939	-1.833	-1.163	-0.073	1.144	2.645	2.544	-0.225	-0.546	-0.328	1.078	1.299	3.381	2.253	2.866	0.877	0.768	0.922	1.406	2.199	554.688
-0.666	-2.208	-2.105	-0.810	-0.547	-1.136	-1.061	-1.310	-1.750	-1.628	-0.965	0.093	1.205	2.577	2.586	-0.338	-0.629	-0.382	0.992	1.119	3.169	2.183	2.784	1.029	0.791	1.019	1.602	2.385	558.594
-0.713	-2.364	-2.142	-1.054	-0.771	-1.256	-0.991	-1.150	-1.506	-1.367	-0.660	0.368	1.293	2.484	2.639	-0.432	-0.679	-0.450	0.886	0.925	2.893	2.095	2.645	1.221	0.858	1.192	1.897	2.683	562.500
-0.813	-2.543	-2.258	-1.339	-1.039	-1.442	-0.921	-0.994	-1.219	-1.061	-0.271	0.725	1.396	2.380	2.693	-0.499	-0.699	-0.521	0.763	0.733	2.579	1.988	2.459	1.433	0.961	1.421	2.263	3.064	566.406
-0.960	-2.721	-2.436	-1.632	-1.319	-1.666	-0.850	-0.849	-0.905	-0.729	0.170	1.130	1.499	2.276	2.741	-0.539	-0.696	-0.590	0.630	0.555	2.256	1.864	2.243	1.644	1.092	1.681	2.666	3.486	570.312
-1.138	-2.879	-2.644	-1.904	-1.581	-1.900	-0.779	-0.718	-0.586	-0.398	0.622	1.540	1.583	2.182	2.779	-0.558	-0.684	-0.650	0.492	0.397	1.949	1.730	2.018	1.833	1.240	1.947	3.064	3.899	574.219
-1.318	-3.004	-2.848	-2.133	-1.807	-2.116	-0.712	-0.607	-0.280	-0.094	1.046	1.915	1.629	2.097	2.809	-0.569	-0.675	-0.694	0.357	0.257	1.674	1.598	1.811	1.983	1.397	2.193	3.416	4.256	578.125
-1.465	-3.089	-3.012	-2.308	-1.986	-2.295	-0.659	-0.515	-0.009	0.154	1.400	2.217	1.625	2.018	2.843	-0.583	-0.679	-0.715	0.235	0.132	1.440	1.481	1.645	2.084	1.554	2.398	3.689	4.519	582.031
-1.543	-3.130	-3.103	-2.429	-2.121	-2.422	-0.627	-0.444	0.212	0.321	1.653	2.422	1.565	1.937	2.896	-0.612	-0.700	-0.709	0.133	0.015	1.246	1.393	1.535	2.130	1.701	2.541	3.856	4.663	585.938
-1.517	-3.127	-3.096	-2.500	-2.215	-2.490	-0.622	-0.392	0.369	0.391	1.780	2.511	1.453	1.850	2.987	-0.660	-0.741	-0.675	0.059	-0.096	1.092	1.345	1.487	2.121	1.826	2.608	3.902	4.675	589.844
-1.370	-3.077	-2.978	-2.525	-2.272	-2.497	-0.649	-0.359	0.450	0.358	1.770	2.480	1.301	1.761	3.129	-0.721	-0.796	-0.617	0.021	-0.197	0.978	1.340	1.495	2.065	1.915	2.588	3.825	4.561	593.750
-1.098	-2.977	-2.750	-2.507	-2.292	-2.448	-0.707	-0.345	0.449	0.224	1.622	2.335	1.127	1.678	3.330	-0.783	-0.860	-0.545	0.022	-0.279	0.908	1.378	1.544	1.973	1.955	2.474	3.632	4.336	597.656
-0.719	-2.824	-2.429	-2.445	-2.273	-2.350	-0.789	-0.352	0.365	0.004	1.349	2.089	0.951	1.618	3.591	-0.824	-0.923	-0.471	0.063	-0.323	0.894	1.450	1.611	1.861	1.937	2.272	3.344	4.027	601.562
-0.265	-2.618	-2.048	-2.342	-2.213	-2.217	-0.889	-0.380	0.201	-0.280	0.975	1.766	0.794	1.597	3.900	-0.823	-0.975	-0.405	0.139	-0.313	0.944	1.543	1.676	1.746	1.863	1.995	2.988	3.667	605.469
0.219	-2.370	-1.649	-2.199	-2.111	-2.067	-0.994	-0.431	-0.031	-0.598	0.532	1.393	0.666	1.627	4.244	-0.764	-1.010	-0.352	0.244	-0.236	1.063	1.642	1.724	1.643	1.739	1.665	2.596	3.290	609.375
0.687	-2.095	-1.277	-2.028	-1.973	-1.920	-1.093	-0.502	-0.315	-0.920	0.056	0.998	0.573	1.709	4.605	-0.641	-1.020	-0.306	0.366	-0.091	1.245	1.733	1.748	1.562	1.584	1.316	2.202	2.928	613.281
1.097	-1.820	-0.972	-1.846	-1.813	-1.794	-1.176	-0.590	-0.629	-1.218	-0.414	0.611	0.508	1.830	4.968	-0.457	-1.003	-0.257	0.495	0.110	1.469	1.803	1.750	1.508	1.421	0.979	1.834	2.605	617.188
1.423	-1.572	-0.764	-1.674	-1.645	-1.706	-1.234	-0.685	-0.947	-1.466	-0.844	0.255	0.459	1.968	5.316	-0.231	-0.959	-0.186	0.618	0.343	1.706	1.843	1.739	1.479	1.275	0.686	1.517	2.336	621.094
1.651	-1.380	-0.662	-1.532	-1.489	-1.663	-1.260	-0.776	-1.243	-1.647	-1.206	-0.049	0.411	2.093	5.637	0.012	-0.895	-0.081	0.723	0.575	1.922	1.848	1.724	1.466	1.164	0.457	1.263	2.124	625.000
1.785	-1.263	-0.658	-1.440	-1.361	-1.665	-1.248	-0.848	-1.491	-1.751	-1.478	-0.290	0.353	2.179	5.921	0.242	-0.818	0.067	0.801	0.772	2.083	1.820	1.713	1.455	1.096	0.302	1.077	1.963	628.906
1.838	-1.228	-0.727	-1.406	-1.274	-1.704	-1.196	-0.888	-1.670	-1.776	-1.650	-0.462	0.275	2.207	6.158	0.431	-0.738	0.252	0.844	0.905	2.168	1.762	1.709	1.431	1.070	0.216	0.952	1.841	632.812
1.833	-1.272	-0.837	-1.434	-1.233	-1.767	-1.108	-0.885	-1.768	-1.729	-1.718	-0.565	0.177	2.168	6.344	0.558	-0.664	0.461	0.849	0.957	2.166	1.681	1.710	1.384	1.071	0.186	0.878	1.745	636.719
1.794	-1.379	-0.954	-1.517	-1.241	-1.840	-0.990	-0.834	-1.779	-1.621	-1.692	-0.603	0.066	2.068	6.478	0.614	-0.603	0.674	0.819	0.925	2.083	1.587	1.707	1.307	1.080	0.191	0.838	1.667	640.625
1.743	-1.526	-1.050	-1.643	-1.296	-1.913	-0.854	-0.738	-1.710	-1.472	-1.586	-0.581	-0.047	1.922	6.565	0.598	-0.560	0.869	0.757	0.818	1.934	1.489	1.693	1.201	1.078	0.215	0.819	1.603	644.531
1.694	-1.692	-1.111	-1.800	-1.392	-1.979	-0.717	-0.606	-1.574	-1.300	-1.417	-0.506	-0.152	1.747	6.616	0.521	-0.537	1.028	0.672	0.654	1.742	1.394	1.662	1.071	1.054	0.243	0.812	1.556	648.438
1.656	-1.858	-1.133	-1.976	-1.524	-2.038	-0.597	-0.454	-1.390	-1.127	-1.205	-0.384	-0.238	1.562	6.643	0.399	-0.533	1.147	0.576	0.455	1.527	1.306	1.611	0.928	1.004	0.270	0.813	1.535	652.344
1.631	-2.012	-1.127	-2.161	-1.687	-2.096	-0.510	-0.299	-1.180	-0.971	-0.971	-0.221	-0.301	1.382	6.662	0.247	-0.547	1.227	0.480	0.241	1.303	1.226	1.544	0.786	0.938	0.299	0.822	1.549	656.250
1.622	-2.150	-1.108	-2.349	-1.874	-2.156	-0.469	-0.161	-0.966	-0.845	-0.729	-0.026	-0.341	1.212	6.685	0.081	-0.580	1.282	0.393	0.025	1.077	1.150	1.469	0.657	0.874	0.339	0.846	1.607	660.156
1.628	-2.275	-1.090	-2.535	-2.077	-2.226	-0.477	-0.053	-0.764	-0.758	-0.493	0.190	-0.364	1.056	6.724	-0.088	-0.634	1.323	0.318	-0.183	0.850	1.076	1.397	0.554	0.832	0.400	0.889	1.709	664.062
1.656	-2.391	-1.085	-2.712	-2.287	-2.304	-0.534	0.015	-0.589	-0.710	-0.272	0.417	-0.376	0.912	6.786	-0.252	-0.708	1.363	0.251	-0.379	0.623	0.998	1.335	0.483	0.828	0.493	0.957	1.853	667.969
1.712	-2.502	-1.095	-2.875	-2.492	-2.389	-0.629	0.040	-0.449	-0.701	-0.072	0.642	-0.386	0.779	6.873	-0.404	-0.806	1.403	0.180	-0.559	0.395	0.915	1.288	0.450	0.872	0.621	1.050	2.026	671.875
1.805	-2.605	-1.117	-3.016	-2.681	-2.477	-0.752	0.023	-0.350	-0.724	0.101	0.849	-0.401	0.659	6.981	-0.535	-0.922	1.440	0.092	-0.717	0.172	0.829	1.256	0.455	0.964	0.783	1.164	2.214	675.781
1.939	-2.693	-1.144	-3.128	-2.847	-2.562	-0.889	-0.029	-0.294	-0.773	0.242	1.027	-0.423	0.555	7.106	-0.635	-1.048	1.464	-0.023	-0.845	-0.036	0.745	1.239	0.495	1.093	0.969	1.292	2.400	679.688
2.111	-2.755	-1.165	-3.204	-2.987	-2.642	-1.033	-0.110	-0.281	-0.846	0.343	1.161	-0.455	0.470	7.241	-0.689	-1.166	1.468	-0.162	-0.934	-0.217	0.677	1.235	0.565	1.245	1.163	1.421	2.568	683.594
2.309	-2.781	-1.176	-3.245	-3.104	-2.722	-1.182	-0.216	-0.312	-0.942	0.397	1.243	-0.497	0.407	7.382	-0.684	-1.251	1.451	-0.310	-0.974	-0.359	0.640	1.248	0.656	1.399	1.348	1.537	2.701	687.500
2.515	-2.764	-1.175	-3.254	-3.206	-2.807	-1.336	-0.341	-0.382	-1.063	0.396	1.265	-0.552	0.367	7.524	-0.613	-1.277	1.421	-0.436	-0.960	-0.454	0.650	1.283	0.758	1.540	1.503	1.625	2.790	691.406
2.706	-2.707	-1.168	-3.239	-3.304	-2.906	-1.501	-0.480	-0.488	-1.213	0.337	1.226	-0.619	0.344	7.663	-0.471	-1.218	1.397	-0.502	-0.894	-0.502	0.716	1.349	0.860	1.657	1.613	1.673	2.824	695.312
2.859	-2.617	-1.162	-3.214	-3.405	-3.025	-1.678	-0.630	-0.622	-1.395	0.219	1.129	-0.703	0.332	7.797	-0.266	-1.061	1.401	-0.475	-0.786	-0.508	0.843	1.454	0.950	1.743	1.669	1.672	2.798	699.219
2.962	-2.509	-1.164	-3.187	-3.512	-3.161	-1.867	-0.782	-0.773	-1.606	0.047	0.979	-0.804	0.323	7.922	-0.013	-0.807	1.454	-0.333	-0.649	-0.480	1.021	1.601	1.017	1.802	1.669	1.616	2.711	703.125
3.006	-2.399	-1.180	-3.166	-3.620	-3.304	-2.059	-0.928	-0.929	-1.839	-0.164	0.789	-0.923	0.313	8.034	0.265	-0.477	1.564	-0.077	-0.501	-0.430	1.233	1.785	1.054	1.835	1.618	1.509	2.565	707.031
2.998	-2.300	-1.209	-3.151	-3.717	-3.436	-2.239	-1.055	-1.074	-2.079	-0.395	0.571	-1.055	0.300	8.125	0.543	-0.107	1.724	0.269	-0.356	-0.369	1.452	1.990	1.057	1.850	1.525	1.357	2.367	710.938
2.949	-2.217	-1.245	-3.137	-3.786	-3.532	-2.386	-1.150	-1.194	-2.306	-0.622	0.340	-1.194	0.287	8.187	0.794	0.255	1.909	0.663	-0.229	-0.303	1.646	2.191	1.026	1.849	1.403	1.175	2.130	714.844
2.878	-2.150	-1.276	-3.113	-3.810	-3.569	-2.478	-1.198	-1.274	-2.494	-0.817	0.115	-1.330	0.281	8.211	0.998	0.557	2.083	1.050	-0.126	-0.238	1.785	2.356	0.966	1.835	1.266	0.980	1.870	718.750
2.802	-2.093	-1.291	-3.071	-3.777	-3.530	-2.498	-1.188	-1.304	-2.620	-0.954	-0.087	-1.453	0.288	8.188	1.139	0.753	2.201	1.377	-0.051	-0.177	1.846	2.453	0.887	1.808	1.126	0.792	1.610	722.656
2.736	-2.037	-1.280	-3.005	-3.682	-3.411	-2.436	-1.113	-1.276	-2.663	-1.013	-0.248	-1.552	0.309	8.114	1.208	0.811	2.228	1.599	-0.008	-0.126	1.815	2.459	0.797	1.769	0.993	0.631	1.373	726.562
2.688	-1.976	-1.238	-2.920	-3.536	-3.221	-2.296	-0.976	-1.186	-2.610	-0.980	-0.350	-1.624	0.341	7.986	1.202	0.719	2.141	1.692	-0.001	-0.092	1.692	2.360	0.708	1.720	0.880	0.514	1.180	730.469
2.658	-1.911	-1.169	-2.828	-3.359	-2.986	-2.091	-0.783	-1.037	-2.462	-0.852	-0.382	-1.665	0.375	7.810	1.126	0.486	1.942	1.653	-0.035	-0.084	1.490	2.161	0.628	1.666	0.794	0.453	1.050	734.375
2.640	-1.851	-1.085	-2.750	-3.182	-2.741	-1.846	-0.554	-0.838	-2.229	-0.635	-0.335	-1.677	0.398	7.592	0.984	0.138	1.652	1.501	-0.117	-0.114	1.231	1.883	0.564	1.617	0.747	0.458	0.997	738.281
2.620	-1.811	-1.004	-2.710	-3.036	-2.523	-1.590	-0.310	-0.604	-1.932	-0.344	-0.207	-1.663	0.400	7.345	0.788	-0.285	1.309	1.269	-0.248	-0.190	0.945	1.560	0.522	1.584	0.749	0.530	1.026	742.188
2.583	-1.812	-0.946	-2.730	-2.948	-2.368	-1.353	-0.080	-0.354	-1.600	-0.005	-0.004	-1.625	0.375	7.080	0.550	-0.739	0.961	0.997	-0.427	-0.313	0.660	1.231	0.504	1.580	0.806	0.669	1.133	746.094
2.517	-1.867	-0.926	-2.822	-2.934	-2.300	-1.157	0.112	-0.108	-1.261	0.356	0.262	-1.565	0.324	6.812	0.285	-1.180	0.652	0.725	-0.642	-0.477	0.405	0.934	0.513	1.611	0.924	0.865	1.308	750.000
2.413	-1.984	-0.956	-2.985	-2.993	-2.328	-1.019	0.245	0.111	-0.945	0.710	0.569	-1.485	0.254	6.550	0.014	-1.571	0.416	0.483	-0.872	-0.666	0.198	0.699	0.548	1.677	1.097	1.103	1.530	753.906
2.271	-2.157	-1.036	-3.203	-3.115	-2.444	-0.942	0.308	0.289	-0.675	1.028	0.893	-1.387	0.179	6.308	-0.246	-1.888	0.268	0.295	-1.092	-0.855	0.049	0.544	0.605	1.774	1.314	1.364	1.774	757.812
2.104	-2.366	-1.155	-3.450	-3.276	-2.629	-0.925	0.299	0.413	-0.469	1.290	1.202	-1.279	0.111	6.095	-0.471	-2.116	0.209	0.172	-1.276	-1.020	-0.038	0.472	0.680	1.887	1.553	1.622	2.012	761.719
1.926	-2.586	-1.298	-3.696	-3.449	-2.848	-0.957	0.230	0.479	-0.337	1.481	1.469	-1.170	0.061	5.923	-0.647	-2.252	0.224	0.115	-1.403	-1.137	-0.069	0.474	0.761	2.000	1.788	1.849	2.222	765.625
1.757	-2.788	-1.442	-3.906	-3.606	-3.067	-1.027	0.120	0.492	-0.283	1.594	1.669	-1.074	0.034	5.799	-0.761	-2.302	0.291	0.120	-1.462	-1.194	-0.054	0.535	0.837	2.099	1.993	2.023	2.386	769.531
1.613	-2.946	-1.567	-4.056	-3.728	-3.251	-1.120	-0.007	0.461	-0.307	1.628	1.787	-1.005	0.030	5.727	-0.809	-2.282	0.386	0.177	-1.452	-1.185	-0.004	0.634	0.894	2.171	2.144	2.124	2.497	773.438
1.505	-3.044	-1.657	-4.129	-3.801	-3.373	-1.224	-0.125	0.401	-0.401	1.589	1.818	-0.973	0.045	5.703	-0.798	-2.212	0.488	0.274	-1.387	-1.116	0.069	0.751	0.923	2.212	2.229	2.144	2.560	777.344
1.432	-3.077	-1.701	-4.120	-3.822	-3.417	-1.330	-0.216	0.329	-0.555	1.488	1.769	-0.983	0.074	5.717	-0.739	-2.114	0.580	0.399	-1.285	-1.002	0.154	0.871	0.918	2.225	2.245	2.086	2.586	781.250
1.386	-3.051	-1.698	-4.038	-3.796	-3.381	-1.431	-0.267	0.260	-0.756	1.340	1.655	-1.031	0.110	5.755	-0.650	-2.009	0.653	0.542	-1.169	-0.857	0.245	0.984	0.876	2.217	2.199	1.961	2.592	785.156
1.357	-2.979	-1.655	-3.898	-3.732	-3.277	-1.523	-0.274	0.203	-0.988	1.160	1.498	-1.112	0.150	5.800	-0.546	-1.913	0.707	0.694	-1.055	-0.698	0.336	1.085	0.805	2.198	2.106	1.789	2.593	789.062
1.335	-2.878	-1.583	-3.723	-3.646	-3.125	-1.607	-0.246	0.162	-1.238	0.965	1.318	-1.213	0.190	5.843	-0.441	-1.832	0.743	0.848	-0.955	-0.537	0.425	1.175	0.711	2.175	1.985	1.589	2.600	792.969
1.311	-2.768	-1.498	-3.534	-3.552	-2.950	-1.686	-0.196	0.135	-1.491	0.769	1.134	-1.324	0.226	5.878	-0.342	-1.768	0.767	0.999	-0.870	-0.383	0.510	1.256	0.608	2.154	1.854	1.383	2.618	796.875
