FP1	F3	F7	FC3	C3	C5	P3	P7	PO7	PO3	O1	Oz	Pz	CPz	FP2	Fz	F4	F8	FC4	FCz	Cz	C4	C6	P4	P8	PO8	PO4	O2	time
0.622	-0.589	-0.785	-0.677	-0.677	-0.759	-0.296	0.371	0.231	-0.097	0.270	0.307	-0.364	-0.398	0.680	0.415	0.066	-0.049	0.665	-0.069	0.104	-0.053	-0.105	-0.030	0.620	0.693	-0.130	0.274	-199.219
0.670	-0.162	-0.448	-0.264	-0.518	-0.543	-0.315	0.245	0.036	-0.161	0.163	0.197	-0.227	-0.306	0.494	0.527	0.175	-0.174	0.562	0.184	0.165	-0.086	-0.196	-0.099	0.394	0.515	-0.030	0.105	-195.312
0.720	0.227	-0.148	0.109	-0.384	-0.355	-0.354	0.106	-0.170	-0.241	0.035	0.077	-0.117	-0.217	0.345	0.642	0.305	-0.266	0.498	0.428	0.231	-0.092	-0.256	-0.156	0.194	0.351	0.052	-0.050	-191.406
0.768	0.544	0.084	0.407	-0.289	-0.217	-0.422	-0.051	-0.391	-0.346	-0.122	-0.056	-0.054	-0.130	0.252	0.755	0.463	-0.302	0.500	0.654	0.304	-0.050	-0.261	-0.193	0.043	0.209	0.101	-0.178	-187.500
0.809	0.767	0.229	0.608	-0.240	-0.139	-0.520	-0.224	-0.619	-0.477	-0.309	-0.203	-0.047	-0.049	0.224	0.860	0.649	-0.275	0.577	0.848	0.383	0.043	-0.205	-0.206	-0.051	0.096	0.108	-0.270	-183.594
0.838	0.887	0.288	0.704	-0.233	-0.120	-0.637	-0.399	-0.836	-0.626	-0.513	-0.353	-0.098	0.022	0.254	0.947	0.845	-0.189	0.718	1.001	0.457	0.175	-0.097	-0.195	-0.086	0.014	0.073	-0.323	-179.688
0.846	0.913	0.271	0.701	-0.255	-0.150	-0.755	-0.556	-1.019	-0.776	-0.709	-0.493	-0.197	0.078	0.323	1.003	1.029	-0.066	0.895	1.101	0.517	0.319	0.039	-0.170	-0.075	-0.043	-0.001	-0.338	-175.781
0.829	0.860	0.202	0.621	-0.286	-0.210	-0.849	-0.672	-1.141	-0.904	-0.869	-0.608	-0.326	0.115	0.404	1.017	1.172	0.069	1.071	1.143	0.552	0.445	0.174	-0.142	-0.037	-0.080	-0.102	-0.321	-171.875
0.776	0.751	0.105	0.490	-0.303	-0.277	-0.896	-0.727	-1.180	-0.989	-0.968	-0.687	-0.466	0.132	0.464	0.983	1.247	0.189	1.208	1.126	0.557	0.526	0.280	-0.119	0.009	-0.107	-0.215	-0.279	-167.969
0.682	0.611	0.001	0.339	-0.287	-0.332	-0.876	-0.712	-1.128	-1.014	-0.988	-0.722	-0.590	0.134	0.476	0.900	1.239	0.273	1.277	1.056	0.533	0.546	0.340	-0.109	0.043	-0.129	-0.324	-0.220	-164.062
0.541	0.460	-0.096	0.195	-0.227	-0.362	-0.784	-0.627	-0.991	-0.972	-0.923	-0.713	-0.679	0.127	0.422	0.774	1.144	0.309	1.262	0.945	0.485	0.507	0.349	-0.111	0.057	-0.149	-0.409	-0.149	-160.156
0.356	0.312	-0.179	0.075	-0.125	-0.363	-0.624	-0.486	-0.785	-0.865	-0.783	-0.665	-0.716	0.120	0.297	0.618	0.970	0.296	1.164	0.807	0.426	0.423	0.318	-0.116	0.052	-0.164	-0.457	-0.069	-156.250
0.136	0.177	-0.250	-0.013	0.007	-0.338	-0.415	-0.310	-0.540	-0.704	-0.586	-0.585	-0.693	0.122	0.110	0.445	0.737	0.242	0.996	0.657	0.367	0.317	0.265	-0.114	0.034	-0.166	-0.456	0.020	-152.344
-0.100	0.058	-0.310	-0.072	0.145	-0.298	-0.181	-0.125	-0.284	-0.505	-0.356	-0.482	-0.612	0.138	-0.118	0.269	0.469	0.159	0.780	0.507	0.317	0.212	0.212	-0.093	0.018	-0.144	-0.400	0.116	-148.438
-0.329	-0.044	-0.362	-0.113	0.263	-0.256	0.049	0.048	-0.042	-0.286	-0.115	-0.361	-0.481	0.169	-0.360	0.098	0.188	0.061	0.539	0.362	0.278	0.124	0.173	-0.044	0.019	-0.090	-0.288	0.219	-144.531
-0.530	-0.133	-0.407	-0.150	0.336	-0.225	0.253	0.195	0.171	-0.059	0.120	-0.224	-0.311	0.208	-0.590	-0.065	-0.088	-0.045	0.290	0.221	0.247	0.059	0.155	0.036	0.047	0.005	-0.125	0.329	-140.625
-0.684	-0.214	-0.442	-0.199	0.347	-0.212	0.418	0.310	0.352	0.167	0.344	-0.069	-0.115	0.251	-0.787	-0.223	-0.348	-0.156	0.044	0.075	0.214	0.010	0.150	0.145	0.109	0.142	0.081	0.444	-136.719
-0.782	-0.291	-0.463	-0.269	0.291	-0.216	0.540	0.398	0.507	0.388	0.557	0.107	0.098	0.287	-0.940	-0.382	-0.591	-0.275	-0.194	-0.082	0.168	-0.037	0.144	0.272	0.200	0.316	0.320	0.562	-132.812
-0.828	-0.371	-0.467	-0.365	0.180	-0.231	0.626	0.469	0.648	0.602	0.760	0.302	0.318	0.312	-1.048	-0.548	-0.815	-0.403	-0.422	-0.255	0.100	-0.098	0.121	0.405	0.308	0.515	0.575	0.677	-128.906
-0.832	-0.454	-0.452	-0.477	0.035	-0.242	0.689	0.534	0.782	0.804	0.954	0.509	0.538	0.323	-1.113	-0.721	-1.018	-0.541	-0.635	-0.442	0.008	-0.183	0.067	0.525	0.416	0.716	0.827	0.782	-125.000
-0.807	-0.537	-0.417	-0.590	-0.111	-0.236	0.741	0.598	0.911	0.985	1.131	0.712	0.745	0.322	-1.141	-0.891	-1.194	-0.680	-0.820	-0.627	-0.098	-0.291	-0.021	0.615	0.502	0.893	1.051	0.868	-121.094
-0.766	-0.609	-0.361	-0.680	-0.228	-0.196	0.789	0.661	1.027	1.130	1.274	0.887	0.926	0.312	-1.133	-1.040	-1.330	-0.808	-0.959	-0.789	-0.207	-0.413	-0.137	0.659	0.543	1.016	1.224	0.921	-117.188
-0.716	-0.654	-0.284	-0.724	-0.291	-0.115	0.831	0.714	1.114	1.220	1.362	1.009	1.059	0.296	-1.089	-1.144	-1.410	-0.901	-1.031	-0.902	-0.298	-0.531	-0.262	0.644	0.524	1.060	1.319	0.927	-113.281
-0.657	-0.654	-0.183	-0.702	-0.290	0.008	0.859	0.746	1.152	1.238	1.373	1.058	1.124	0.274	-1.002	-1.181	-1.417	-0.936	-1.018	-0.945	-0.358	-0.625	-0.374	0.564	0.437	1.009	1.321	0.876	-109.375
-0.580	-0.595	-0.054	-0.608	-0.230	0.165	0.857	0.741	1.122	1.169	1.292	1.020	1.103	0.243	-0.867	-1.135	-1.341	-0.894	-0.915	-0.907	-0.377	-0.679	-0.452	0.421	0.284	0.859	1.218	0.762	-105.469
-0.476	-0.469	0.107	-0.447	-0.131	0.337	0.806	0.688	1.014	1.008	1.115	0.896	0.987	0.198	-0.678	-1.002	-1.178	-0.761	-0.730	-0.790	-0.356	-0.686	-0.481	0.225	0.079	0.624	1.016	0.589	-101.562
-0.334	-0.280	0.301	-0.238	-0.022	0.503	0.694	0.581	0.826	0.761	0.849	0.699	0.778	0.132	-0.439	-0.793	-0.937	-0.538	-0.486	-0.613	-0.305	-0.647	-0.453	-0.008	-0.155	0.327	0.730	0.369	-97.656
-0.152	-0.045	0.522	-0.012	0.068	0.639	0.513	0.421	0.569	0.443	0.516	0.452	0.492	0.038	-0.162	-0.530	-0.635	-0.239	-0.217	-0.403	-0.241	-0.574	-0.374	-0.256	-0.390	0.003	0.390	0.121	-93.750
0.062	0.210	0.753	0.198	0.116	0.726	0.271	0.216	0.260	0.080	0.143	0.184	0.161	-0.081	0.136	-0.244	-0.299	0.110	0.041	-0.194	-0.181	-0.477	-0.254	-0.492	-0.595	-0.311	0.030	-0.131	-89.844
0.289	0.454	0.972	0.364	0.111	0.751	-0.013	-0.016	-0.074	-0.295	-0.234	-0.076	-0.178	-0.217	0.428	0.035	0.039	0.472	0.253	-0.013	-0.135	-0.371	-0.111	-0.691	-0.748	-0.580	-0.312	-0.365	-85.938
0.503	0.655	1.147	0.467	0.061	0.714	-0.307	-0.258	-0.404	-0.646	-0.585	-0.304	-0.483	-0.352	0.683	0.276	0.348	0.804	0.391	0.120	-0.109	-0.261	0.038	-0.831	-0.830	-0.780	-0.604	-0.562	-82.031
0.671	0.789	1.250	0.503	-0.014	0.628	-0.571	-0.485	-0.702	-0.939	-0.880	-0.483	-0.714	-0.463	0.876	0.460	0.600	1.069	0.444	0.199	-0.097	-0.151	0.175	-0.898	-0.839	-0.897	-0.821	-0.710	-78.125
0.766	0.844	1.260	0.483	-0.085	0.511	-0.766	-0.676	-0.941	-1.143	-1.099	-0.606	-0.844	-0.524	0.982	0.575	0.777	1.235	0.410	0.233	-0.086	-0.038	0.287	-0.886	-0.782	-0.935	-0.952	-0.808	-74.219
0.769	0.822	1.170	0.430	-0.120	0.391	-0.862	-0.812	-1.102	-1.241	-1.229	-0.672	-0.861	-0.518	0.991	0.621	0.869	1.285	0.303	0.236	-0.061	0.078	0.367	-0.800	-0.678	-0.907	-0.999	-0.860	-70.312
0.675	0.733	0.990	0.369	-0.096	0.292	-0.842	-0.880	-1.172	-1.223	-1.268	-0.689	-0.769	-0.438	0.904	0.604	0.876	1.219	0.145	0.229	-0.012	0.197	0.410	-0.656	-0.552	-0.834	-0.975	-0.878	-66.406
0.496	0.601	0.746	0.323	-0.004	0.231	-0.709	-0.874	-1.149	-1.098	-1.220	-0.667	-0.590	-0.291	0.736	0.538	0.810	1.053	-0.035	0.224	0.066	0.314	0.416	-0.476	-0.427	-0.741	-0.898	-0.871	-62.500
0.260	0.447	0.470	0.305	0.148	0.215	-0.486	-0.797	-1.039	-0.882	-1.097	-0.619	-0.359	-0.103	0.514	0.439	0.689	0.816	-0.209	0.230	0.164	0.420	0.390	-0.285	-0.322	-0.648	-0.790	-0.849	-58.594
0.002	0.292	0.200	0.316	0.335	0.238	-0.210	-0.660	-0.856	-0.606	-0.916	-0.552	-0.118	0.094	0.274	0.322	0.534	0.546	-0.353	0.242	0.266	0.502	0.338	-0.106	-0.245	-0.567	-0.670	-0.815	-54.688
-0.238	0.145	-0.034	0.340	0.523	0.284	0.072	-0.479	-0.622	-0.302	-0.695	-0.474	0.096	0.263	0.053	0.197	0.368	0.282	-0.450	0.247	0.346	0.549	0.270	0.044	-0.195	-0.502	-0.550	-0.769	-50.781
-0.430	0.010	-0.217	0.357	0.670	0.327	0.317	-0.276	-0.358	-0.004	-0.453	-0.384	0.252	0.374	-0.116	0.073	0.213	0.058	-0.497	0.228	0.379	0.555	0.198	0.156	-0.162	-0.447	-0.437	-0.704	-46.875
-0.553	-0.119	-0.346	0.341	0.744	0.345	0.491	-0.074	-0.088	0.261	-0.208	-0.283	0.337	0.407	-0.209	-0.046	0.081	-0.102	-0.496	0.170	0.347	0.521	0.130	0.232	-0.131	-0.393	-0.331	-0.612	-42.969
-0.605	-0.251	-0.433	0.274	0.727	0.319	0.578	0.107	0.167	0.475	0.023	-0.171	0.354	0.362	-0.220	-0.158	-0.020	-0.191	-0.460	0.064	0.245	0.453	0.075	0.279	-0.086	-0.329	-0.230	-0.489	-39.062
-0.595	-0.392	-0.490	0.152	0.621	0.244	0.579	0.250	0.392	0.630	0.228	-0.047	0.319	0.253	-0.161	-0.261	-0.095	-0.213	-0.407	-0.087	0.081	0.363	0.036	0.308	-0.019	-0.250	-0.132	-0.333	-35.156
-0.540	-0.538	-0.532	-0.013	0.446	0.127	0.513	0.348	0.576	0.727	0.397	0.083	0.254	0.107	-0.053	-0.351	-0.153	-0.187	-0.354	-0.269	-0.121	0.263	0.008	0.327	0.071	-0.156	-0.040	-0.152	-31.250
-0.460	-0.678	-0.563	-0.195	0.241	-0.010	0.406	0.400	0.714	0.777	0.523	0.212	0.181	-0.047	0.069	-0.425	-0.212	-0.140	-0.320	-0.463	-0.333	0.163	-0.015	0.341	0.175	-0.055	0.040	0.039	-27.344
-0.372	-0.793	-0.575	-0.358	0.047	-0.140	0.291	0.410	0.802	0.790	0.602	0.330	0.116	-0.182	0.177	-0.478	-0.289	-0.094	-0.318	-0.646	-0.523	0.065	-0.045	0.350	0.278	0.039	0.098	0.220	-23.438
-0.284	-0.863	-0.556	-0.471	-0.098	-0.235	0.189	0.389	0.842	0.775	0.630	0.425	0.062	-0.283	0.250	-0.509	-0.392	-0.068	-0.354	-0.799	-0.670	-0.029	-0.091	0.349	0.361	0.112	0.123	0.369	-19.531
-0.195	-0.870	-0.491	-0.510	-0.172	-0.275	0.114	0.348	0.835	0.738	0.607	0.487	0.013	-0.346	0.282	-0.518	-0.520	-0.066	-0.426	-0.909	-0.762	-0.125	-0.158	0.329	0.408	0.154	0.110	0.469	-15.625
-0.099	-0.811	-0.373	-0.471	-0.169	-0.253	0.065	0.296	0.785	0.681	0.532	0.506	-0.046	-0.381	0.287	-0.505	-0.658	-0.079	-0.526	-0.972	-0.801	-0.227	-0.244	0.283	0.409	0.160	0.053	0.509	-11.719
0.012	-0.690	-0.200	-0.364	-0.105	-0.175	0.030	0.241	0.694	0.600	0.409	0.479	-0.130	-0.410	0.288	-0.472	-0.780	-0.088	-0.638	-0.989	-0.802	-0.335	-0.338	0.204	0.364	0.132	-0.044	0.490	-7.812
0.147	-0.524	0.013	-0.215	-0.006	-0.063	-0.011	0.185	0.568	0.492	0.242	0.405	-0.251	-0.454	0.315	-0.420	-0.858	-0.069	-0.747	-0.969	-0.786	-0.449	-0.424	0.090	0.282	0.078	-0.176	0.424	-3.906
0.305	-0.336	0.247	-0.058	0.091	0.058	-0.074	0.128	0.414	0.356	0.041	0.293	-0.412	-0.534	0.394	-0.352	-0.868	-0.002	-0.838	-0.924	-0.777	-0.563	-0.486	-0.056	0.179	0.011	-0.335	0.328	0.000
0.482	-0.149	0.475	0.076	0.157	0.161	-0.173	0.067	0.242	0.194	-0.179	0.152	-0.609	-0.659	0.535	-0.269	-0.799	0.123	-0.900	-0.864	-0.791	-0.668	-0.513	-0.225	0.074	-0.058	-0.513	0.222	3.906
0.663	0.018	0.674	0.163	0.172	0.226	-0.310	0.002	0.066	0.015	-0.399	-0.002	-0.824	-0.825	0.729	-0.177	-0.660	0.303	-0.930	-0.799	-0.838	-0.754	-0.496	-0.405	-0.016	-0.120	-0.702	0.128	7.812
0.828	0.149	0.828	0.191	0.130	0.244	-0.478	-0.069	-0.099	-0.168	-0.602	-0.155	-1.040	-1.016	0.948	-0.083	-0.474	0.519	-0.931	-0.737	-0.913	-0.813	-0.438	-0.579	-0.078	-0.170	-0.893	0.059	11.719
0.956	0.239	0.927	0.161	0.042	0.217	-0.660	-0.144	-0.242	-0.338	-0.768	-0.293	-1.234	-1.207	1.154	0.002	-0.276	0.743	-0.911	-0.683	-1.004	-0.836	-0.348	-0.729	-0.103	-0.206	-1.075	0.025	15.625
1.031	0.287	0.973	0.088	-0.072	0.158	-0.838	-0.223	-0.353	-0.483	-0.888	-0.407	-1.387	-1.369	1.305	0.064	-0.106	0.944	-0.881	-0.640	-1.088	-0.823	-0.238	-0.841	-0.092	-0.227	-1.236	0.031	19.531
1.041	0.295	0.973	-0.013	-0.189	0.081	-0.995	-0.302	-0.429	-0.592	-0.954	-0.488	-1.488	-1.477	1.368	0.095	0.007	1.095	-0.854	-0.610	-1.147	-0.773	-0.123	-0.900	-0.049	-0.237	-1.364	0.078	23.438
0.987	0.266	0.936	-0.121	-0.287	-0.001	-1.116	-0.382	-0.473	-0.660	-0.966	-0.529	-1.533	-1.517	1.328	0.084	0.047	1.179	-0.837	-0.593	-1.165	-0.693	-0.019	-0.898	0.015	-0.235	-1.446	0.165	27.344
0.876	0.205	0.870	-0.224	-0.353	-0.078	-1.193	-0.461	-0.489	-0.683	-0.927	-0.524	-1.524	-1.486	1.193	0.031	0.014	1.194	-0.839	-0.594	-1.139	-0.596	0.063	-0.837	0.093	-0.222	-1.475	0.294	31.250
0.721	0.109	0.778	-0.317	-0.384	-0.149	-1.220	-0.533	-0.478	-0.659	-0.836	-0.466	-1.470	-1.397	0.985	-0.066	-0.079	1.146	-0.863	-0.617	-1.078	-0.496	0.114	-0.722	0.176	-0.193	-1.445	0.465	35.156
0.538	-0.022	0.660	-0.403	-0.385	-0.217	-1.194	-0.591	-0.438	-0.585	-0.688	-0.346	-1.384	-1.272	0.740	-0.201	-0.211	1.051	-0.913	-0.668	-1.002	-0.413	0.129	-0.569	0.263	-0.142	-1.358	0.681	39.062
0.339	-0.191	0.511	-0.489	-0.367	-0.287	-1.112	-0.620	-0.357	-0.450	-0.472	-0.158	-1.280	-1.139	0.488	-0.371	-0.368	0.924	-0.994	-0.755	-0.936	-0.367	0.101	-0.397	0.353	-0.063	-1.223	0.939	42.969
0.133	-0.397	0.328	-0.588	-0.346	-0.363	-0.972	-0.602	-0.216	-0.245	-0.174	0.099	-1.170	-1.026	0.255	-0.573	-0.538	0.778	-1.111	-0.884	-0.907	-0.374	0.030	-0.225	0.453	0.049	-1.053	1.231	46.875
-0.078	-0.634	0.112	-0.707	-0.334	-0.445	-0.773	-0.519	0.006	0.040	0.219	0.416	-1.065	-0.955	0.047	-0.805	-0.721	0.619	-1.266	-1.060	-0.935	-0.443	-0.082	-0.074	0.572	0.199	-0.864	1.537	50.781
-0.294	-0.891	-0.135	-0.849	-0.342	-0.529	-0.518	-0.352	0.327	0.411	0.709	0.771	-0.971	-0.935	-0.139	-1.062	-0.922	0.450	-1.457	-1.282	-1.029	-0.574	-0.229	0.046	0.717	0.384	-0.676	1.828	54.688
-0.519	-1.155	-0.401	-1.010	-0.375	-0.606	-0.217	-0.096	0.755	0.858	1.282	1.128	-0.893	-0.967	-0.319	-1.341	-1.147	0.268	-1.675	-1.542	-1.183	-0.755	-0.400	0.126	0.899	0.600	-0.507	2.066	58.594
-0.753	-1.408	-0.675	-1.182	-0.432	-0.669	0.114	0.248	1.281	1.358	1.906	1.439	-0.831	-1.037	-0.507	-1.631	-1.401	0.076	-1.902	-1.829	-1.380	-0.966	-0.579	0.169	1.119	0.836	-0.372	2.213	62.500
-0.996	-1.636	-0.941	-1.353	-0.510	-0.712	0.449	0.661	1.878	1.875	2.527	1.654	-0.782	-1.126	-0.714	-1.920	-1.678	-0.122	-2.116	-2.121	-1.592	-1.177	-0.747	0.183	1.377	1.079	-0.285	2.237	66.406
-1.240	-1.830	-1.183	-1.512	-0.600	-0.733	0.759	1.113	2.499	2.359	3.079	1.728	-0.745	-1.211	-0.935	-2.191	-1.964	-0.310	-2.293	-2.399	-1.788	-1.360	-0.883	0.181	1.662	1.310	-0.252	2.122	70.312
-1.474	-1.983	-1.388	-1.650	-0.693	-0.734	1.014	1.560	3.084	2.756	3.493	1.632	-0.714	-1.269	-1.155	-2.422	-2.237	-0.470	-2.413	-2.637	-1.938	-1.488	-0.969	0.177	1.956	1.511	-0.272	1.870	74.219
-1.685	-2.092	-1.545	-1.758	-0.779	-0.719	1.188	1.956	3.567	3.018	3.706	1.358	-0.682	-1.283	-1.351	-2.593	-2.471	-0.575	-2.459	-2.811	-2.020	-1.541	-0.992	0.186	2.236	1.660	-0.339	1.505	78.125
-1.860	-2.154	-1.645	-1.829	-0.845	-0.694	1.266	2.253	3.883	3.111	3.674	0.927	-0.638	-1.237	-1.501	-2.685	-2.638	-0.608	-2.421	-2.901	-2.015	-1.506	-0.947	0.221	2.468	1.737	-0.437	1.068	82.031
-1.996	-2.167	-1.685	-1.853	-0.875	-0.660	1.249	2.412	3.985	3.024	3.384	0.382	-0.567	-1.120	-1.595	-2.681	-2.715	-0.559	-2.293	-2.886	-1.907	-1.379	-0.835	0.293	2.619	1.723	-0.549	0.610	85.938
-2.097	-2.124	-1.670	-1.818	-0.850	-0.615	1.153	2.409	3.841	2.770	2.851	-0.217	-0.449	-0.918	-1.638	-2.574	-2.692	-0.434	-2.070	-2.749	-1.684	-1.158	-0.662	0.412	2.656	1.602	-0.652	0.186	89.844
-2.180	-2.020	-1.612	-1.709	-0.747	-0.549	1.014	2.236	3.449	2.387	2.123	-0.804	-0.258	-0.615	-1.658	-2.358	-2.566	-0.260	-1.751	-2.474	-1.330	-0.847	-0.439	0.585	2.553	1.367	-0.723	-0.163	93.750
-2.274	-1.848	-1.528	-1.509	-0.542	-0.449	0.873	1.905	2.830	1.931	1.267	-1.318	0.031	-0.196	-1.696	-2.040	-2.348	-0.078	-1.334	-2.054	-0.831	-0.449	-0.180	0.816	2.293	1.019	-0.745	-0.409	97.656
-2.408	-1.604	-1.443	-1.204	-0.212	-0.301	0.779	1.443	2.029	1.465	0.366	-1.710	0.437	0.356	-1.799	-1.629	-2.059	0.059	-0.825	-1.485	-0.179	0.027	0.097	1.107	1.873	0.570	-0.707	-0.545	101.562
-2.606	-1.290	-1.381	-0.786	0.253	-0.094	0.771	0.889	1.107	1.051	-0.497	-1.950	0.972	1.046	-2.008	-1.142	-1.726	0.101	-0.236	-0.774	0.630	0.568	0.373	1.452	1.304	0.044	-0.605	-0.580	105.469
-2.880	-0.915	-1.364	-0.261	0.851	0.174	0.877	0.288	0.134	0.741	-1.247	-2.027	1.632	1.867	-2.343	-0.598	-1.380	0.006	0.407	0.058	1.578	1.150	0.625	1.837	0.615	-0.527	-0.443	-0.534	109.375
-3.225	-0.497	-1.408	0.349	1.559	0.492	1.104	-0.317	-0.817	0.566	-1.827	-1.945	2.395	2.792	-2.799	-0.022	-1.050	-0.248	1.068	0.977	2.632	1.742	0.832	2.241	-0.153	-1.103	-0.236	-0.432	113.281
-3.616	-0.058	-1.517	1.010	2.335	0.840	1.440	-0.886	-1.683	0.539	-2.199	-1.724	3.223	3.774	-3.344	0.557	-0.765	-0.659	1.702	1.937	3.737	2.303	0.970	2.640	-0.945	-1.639	0.001	-0.295	117.188
-4.013	0.373	-1.682	1.673	3.119	1.184	1.854	-1.387	-2.408	0.651	-2.352	-1.391	4.062	4.749	-3.927	1.106	-0.543	-1.196	2.257	2.879	4.820	2.791	1.026	3.004	-1.700	-2.097	0.244	-0.139	121.094
-4.366	0.767	-1.884	2.283	3.845	1.487	2.301	-1.796	-2.953	0.873	-2.295	-0.978	4.848	5.642	-4.485	1.593	-0.399	-1.809	2.686	3.741	5.800	3.167	0.993	3.304	-2.355	-2.440	0.472	0.027	125.000
-4.625	1.100	-2.097	2.790	4.447	1.716	2.731	-2.096	-3.295	1.168	-2.053	-0.520	5.517	6.379	-4.954	1.985	-0.336	-2.432	2.950	4.463	6.598	3.400	0.875	3.517	-2.856	-2.646	0.664	0.199	128.906
-4.748	1.351	-2.290	3.151	4.872	1.842	3.094	-2.280	-3.428	1.492	-1.663	-0.045	6.009	6.896	-5.279	2.260	-0.353	-3.000	3.024	4.992	7.150	3.475	0.687	3.626	-3.166	-2.705	0.805	0.377	132.812
-4.710	1.508	-2.439	3.340	5.087	1.850	3.350	-2.347	-3.357	1.806	-1.165	0.420	6.284	7.153	-5.424	2.399	-0.439	-3.457	2.905	5.294	7.413	3.391	0.452	3.625	-3.264	-2.616	0.885	0.562	136.719
-4.507	1.563	-2.532	3.350	5.085	1.737	3.477	-2.300	-3.100	2.080	-0.599	0.859	6.321	7.134	-5.379	2.397	-0.586	-3.765	2.607	5.354	7.379	3.167	0.193	3.523	-3.153	-2.392	0.908	0.754	140.625
-4.160	1.512	-2.569	3.188	4.878	1.515	3.471	-2.148	-2.680	2.298	0.004	1.262	6.127	6.855	-5.156	2.254	-0.782	-3.913	2.161	5.176	7.065	2.831	-0.064	3.342	-2.848	-2.044	0.886	0.957	144.531
-3.714	1.352	-2.569	2.874	4.499	1.202	3.345	-1.902	-2.126	2.459	0.621	1.628	5.733	6.357	-4.792	1.976	-1.023	-3.911	1.608	4.779	6.513	2.420	-0.300	3.112	-2.374	-1.585	0.846	1.174	148.438
-3.225	1.080	-2.560	2.432	3.986	0.818	3.128	-1.578	-1.468	2.574	1.239	1.965	5.189	5.697	-4.338	1.573	-1.307	-3.793	0.990	4.193	5.776	1.971	-0.500	2.872	-1.758	-1.022	0.822	1.415	152.344
-2.756	0.693	-2.580	1.885	3.377	0.384	2.858	-1.192	-0.735	2.664	1.852	2.284	4.558	4.939	-3.855	1.053	-1.638	-3.602	0.347	3.452	4.912	1.515	-0.658	2.660	-1.024	-0.357	0.853	1.691	156.250
-2.361	0.189	-2.663	1.251	2.703	-0.087	2.573	-0.762	0.046	2.754	2.463	2.602	3.904	4.142	-3.398	0.426	-2.019	-3.384	-0.293	2.589	3.970	1.076	-0.775	2.507	-0.189	0.414	0.977	2.018	160.156
-2.082	-0.427	-2.835	0.544	1.987	-0.584	2.310	-0.302	0.854	2.867	3.076	2.935	3.285	3.356	-3.013	-0.297	-2.453	-3.183	-0.909	1.634	2.991	0.663	-0.856	2.433	0.729	1.288	1.222	2.410	164.062
-1.937	-1.143	-3.109	-0.222	1.243	-1.102	2.098	0.174	1.670	3.024	3.700	3.299	2.748	2.616	-2.728	-1.100	-2.938	-3.032	-1.492	0.616	2.004	0.276	-0.914	2.444	1.713	2.258	1.600	2.877	167.969
-1.926	-1.938	-3.482	-1.036	0.485	-1.635	1.959	0.658	2.482	3.236	4.339	3.703	2.321	1.941	-2.551	-1.964	-3.462	-2.953	-2.038	-0.439	1.033	-0.090	-0.963	2.534	2.736	3.301	2.105	3.420	171.875
-2.030	-2.782	-3.936	-1.879	-0.273	-2.174	1.902	1.143	3.281	3.509	4.997	4.150	2.015	1.342	-2.475	-2.858	-4.008	-2.954	-2.548	-1.501	0.094	-0.443	-1.019	2.685	3.764	4.383	2.712	4.030	175.781
-2.217	-3.638	-4.441	-2.725	-1.011	-2.706	1.928	1.626	4.057	3.836	5.670	4.637	1.827	0.818	-2.476	-3.748	-4.552	-3.031	-3.022	-2.540	-0.793	-0.789	-1.095	2.872	4.754	5.456	3.379	4.689	179.688
-2.449	-4.468	-4.962	-3.545	-1.710	-3.214	2.026	2.099	4.799	4.203	6.349	5.153	1.741	0.368	-2.527	-4.598	-5.069	-3.169	-3.461	-3.522	-1.611	-1.128	-1.200	3.072	5.660	6.467	4.059	5.371	183.594
-2.689	-5.236	-5.463	-4.309	-2.347	-3.680	2.176	2.551	5.490	4.589	7.017	5.680	1.737	-0.009	-2.603	-5.373	-5.537	-3.348	-3.863	-4.414	-2.338	-1.454	-1.337	3.265	6.439	7.367	4.705	6.044	187.500
-2.908	-5.914	-5.918	-4.992	-2.908	-4.091	2.351	2.967	6.112	4.967	7.652	6.196	1.791	-0.314	-2.679	-6.046	-5.937	-3.543	-4.221	-5.187	-2.957	-1.752	-1.498	3.441	7.064	8.122	5.281	6.676	191.406
-3.086	-6.488	-6.311	-5.578	-3.383	-4.437	2.520	3.329	6.641	5.309	8.230	6.679	1.882	-0.542	-2.742	-6.602	-6.261	-3.729	-4.530	-5.822	-3.452	-2.005	-1.669	3.600	7.522	8.709	5.768	7.240	195.312
-3.214	-6.958	-6.640	-6.064	-3.775	-4.722	2.657	3.617	7.058	5.591	8.726	7.108	1.995	-0.690	-2.783	-7.036	-6.505	-3.881	-4.781	-6.309	-3.814	-2.193	-1.828	3.749	7.821	9.131	6.161	7.715	199.219
-3.293	-7.334	-6.916	-6.459	-4.093	-4.953	2.739	3.813	7.348	5.794	9.122	7.467	2.122	-0.751	-2.801	-7.356	-6.672	-3.984	-4.968	-6.649	-4.039	-2.297	-1.950	3.901	7.984	9.402	6.472	8.086	203.125
-3.332	-7.636	-7.156	-6.778	-4.350	-5.144	2.758	3.907	7.503	5.912	9.406	7.744	2.257	-0.723	-2.796	-7.576	-6.765	-4.030	-5.086	-6.854	-4.131	-2.306	-2.013	4.070	8.045	9.550	6.719	8.348	207.031
-3.345	-7.885	-7.377	-7.038	-4.559	-5.309	2.714	3.896	7.526	5.947	9.577	7.934	2.402	-0.604	-2.771	-7.713	-6.790	-4.020	-5.136	-6.940	-4.099	-2.215	-2.003	4.262	8.039	9.605	6.922	8.501	210.938
-3.346	-8.098	-7.592	-7.253	-4.728	-5.458	2.621	3.786	7.428	5.909	9.636	8.034	2.558	-0.398	-2.732	-7.784	-6.753	-3.963	-5.122	-6.927	-3.956	-2.030	-1.913	4.480	7.999	9.594	7.094	8.554	214.844
-3.350	-8.287	-7.807	-7.427	-4.856	-5.592	2.501	3.592	7.225	5.817	9.592	8.048	2.728	-0.112	-2.683	-7.803	-6.663	-3.875	-5.053	-6.834	-3.717	-1.768	-1.751	4.716	7.948	9.536	7.243	8.518	218.750
-3.370	-8.452	-8.020	-7.559	-4.935	-5.709	2.381	3.335	6.940	5.691	9.456	7.983	2.913	0.244	-2.634	-7.784	-6.530	-3.772	-4.942	-6.678	-3.397	-1.452	-1.530	4.958	7.899	9.444	7.366	8.409	222.656
-3.419	-8.591	-8.222	-7.642	-4.953	-5.798	2.286	3.039	6.598	5.550	9.244	7.848	3.119	0.657	-2.594	-7.735	-6.368	-3.671	-4.802	-6.473	-3.015	-1.106	-1.270	5.195	7.856	9.321	7.459	8.248	226.562
-3.510	-8.700	-8.407	-7.668	-4.901	-5.851	2.237	2.730	6.226	5.413	8.972	7.656	3.346	1.114	-2.578	-7.668	-6.192	-3.581	-4.644	-6.231	-2.585	-0.756	-0.993	5.416	7.818	9.168	7.518	8.052	230.469
-3.654	-8.773	-8.570	-7.632	-4.773	-5.858	2.246	2.430	5.848	5.292	8.656	7.420	3.598	1.600	-2.597	-7.592	-6.016	-3.505	-4.480	-5.961	-2.121	-0.419	-0.712	5.615	7.779	8.985	7.541	7.839	234.375
-3.858	-8.808	-8.709	-7.535	-4.571	-5.817	2.311	2.156	5.487	5.191	8.315	7.153	3.873	2.099	-2.660	-7.514	-5.849	-3.436	-4.314	-5.670	-1.636	-0.104	-0.438	5.790	7.736	8.773	7.530	7.618	238.281
-4.123	-8.806	-8.825	-7.380	-4.307	-5.733	2.419	1.918	5.156	5.107	7.957	6.860	4.162	2.594	-2.768	-7.437	-5.691	-3.359	-4.142	-5.361	-1.141	0.191	-0.170	5.946	7.684	8.535	7.488	7.391	242.188
-4.441	-8.767	-8.923	-7.177	-4.000	-5.617	2.548	1.717	4.862	5.029	7.591	6.545	4.451	3.066	-2.914	-7.358	-5.536	-3.259	-3.955	-5.033	-0.643	0.480	0.099	6.087	7.622	8.274	7.420	7.152	246.094
-4.796	-8.695	-9.005	-6.935	-3.672	-5.485	2.667	1.545	4.602	4.942	7.215	6.202	4.718	3.500	-3.083	-7.267	-5.368	-3.119	-3.734	-4.682	-0.147	0.777	0.380	6.219	7.549	7.993	7.326	6.894	250.000
-5.167	-8.588	-9.074	-6.663	-3.346	-5.356	2.747	1.387	4.364	4.830	6.827	5.826	4.943	3.881	-3.261	-7.147	-5.168	-2.932	-3.458	-4.302	0.344	1.102	0.684	6.345	7.468	7.698	7.204	6.609	253.906
-5.530	-8.448	-9.135	-6.372	-3.040	-5.247	2.767	1.228	4.134	4.682	6.425	5.413	5.106	4.198	-3.432	-6.982	-4.922	-2.699	-3.107	-3.886	0.827	1.465	1.017	6.465	7.384	7.396	7.050	6.297	257.812
-5.866	-8.275	-9.190	-6.067	-2.766	-5.171	2.717	1.052	3.901	4.495	6.011	4.965	5.198	4.448	-3.589	-6.759	-4.620	-2.434	-2.669	-3.429	1.300	1.869	1.379	6.578	7.300	7.098	6.862	5.965	261.719
-6.162	-8.067	-9.245	-5.754	-2.527	-5.134	2.601	0.849	3.655	4.277	5.592	4.493	5.220	4.636	-3.736	-6.468	-4.266	-2.159	-2.143	-2.933	1.757	2.306	1.760	6.681	7.221	6.813	6.640	5.629	265.625
-6.413	-7.824	-9.304	-5.435	-2.320	-5.135	2.439	0.619	3.396	4.041	5.182	4.013	5.185	4.771	-3.879	-6.113	-3.872	-1.898	-1.543	-2.404	2.195	2.759	2.146	6.770	7.150	6.553	6.391	5.309	269.531
-6.621	-7.548	-9.371	-5.111	-2.135	-5.164	2.256	0.367	3.128	3.808	4.795	3.546	5.114	4.868	-4.029	-5.703	-3.455	-1.676	-0.896	-1.853	2.609	3.206	2.517	6.841	7.086	6.327	6.125	5.023	273.438
-6.792	-7.241	-9.448	-4.781	-1.958	-5.208	2.081	0.104	2.858	3.595	4.443	3.114	5.031	4.945	-4.191	-5.254	-3.032	-1.508	-0.236	-1.296	2.995	3.626	2.853	6.893	7.023	6.137	5.856	4.784	277.344
-6.931	-6.907	-9.534	-4.444	-1.779	-5.251	1.937	-0.158	2.593	3.413	4.132	2.732	4.958	5.017	-4.364	-4.783	-2.616	-1.397	0.401	-0.747	3.351	4.003	3.141	6.927	6.956	5.981	5.600	4.592	281.250
-7.042	-6.553	-9.627	-4.099	-1.589	-5.279	1.838	-0.408	2.337	3.266	3.862	2.410	4.910	5.098	-4.534	-4.307	-2.213	-1.337	0.985	-0.221	3.678	4.331	3.371	6.946	6.875	5.850	5.371	4.441	285.156
-7.127	-6.185	-9.719	-3.748	-1.387	-5.283	1.787	-0.639	2.090	3.149	3.627	2.149	4.894	5.197	-4.684	-3.841	-1.819	-1.312	1.495	0.274	3.980	4.611	3.542	6.955	6.772	5.731	5.175	4.315	289.062
-7.186	-5.814	-9.804	-3.395	-1.174	-5.259	1.777	-0.849	1.847	3.053	3.416	1.944	4.911	5.317	-4.797	-3.392	-1.428	-1.303	1.920	0.731	4.259	4.855	3.662	6.960	6.641	5.610	5.017	4.197	292.969
-7.223	-5.447	-9.871	-3.046	-0.957	-5.209	1.793	-1.036	1.606	2.968	3.222	1.785	4.955	5.458	-4.862	-2.965	-1.032	-1.296	2.262	1.150	4.522	5.074	3.742	6.967	6.479	5.476	4.893	4.073	296.875
-7.241	-5.092	-9.915	-2.705	-0.745	-5.139	1.820	-1.205	1.360	2.884	3.039	1.661	5.018	5.621	-4.875	-2.560	-0.625	-1.281	2.533	1.536	4.774	5.283	3.795	6.981	6.290	5.319	4.797	3.934	300.781
-7.248	-4.757	-9.930	-2.380	-0.544	-5.059	1.844	-1.357	1.109	2.798	2.863	1.562	5.096	5.801	-4.845	-2.176	-0.206	-1.254	2.748	1.894	5.018	5.490	3.834	7.003	6.080	5.139	4.720	3.781	304.688
-7.248	-4.443	-9.914	-2.074	-0.362	-4.978	1.854	-1.497	0.853	2.709	2.695	1.480	5.185	5.995	-4.784	-1.809	0.220	-1.220	2.927	2.231	5.254	5.698	3.869	7.035	5.857	4.940	4.654	3.619	308.594
-7.242	-4.150	-9.867	-1.790	-0.200	-4.905	1.844	-1.628	0.596	2.620	2.536	1.409	5.283	6.195	-4.706	-1.457	0.643	-1.188	3.087	2.551	5.481	5.901	3.903	7.073	5.632	4.730	4.590	3.461	312.500
-7.226	-3.874	-9.792	-1.531	-0.060	-4.845	1.810	-1.754	0.341	2.531	2.385	1.346	5.387	6.393	-4.620	-1.118	1.047	-1.167	3.241	2.855	5.696	6.090	3.937	7.111	5.413	4.520	4.521	3.318	316.406
-7.187	-3.608	-9.691	-1.296	0.058	-4.802	1.753	-1.877	0.091	2.441	2.237	1.285	5.494	6.581	-4.527	-0.789	1.417	-1.162	3.400	3.141	5.896	6.253	3.967	7.143	5.207	4.321	4.440	3.197	320.312
-7.113	-3.343	-9.569	-1.084	0.156	-4.777	1.672	-2.000	-0.154	2.345	2.086	1.223	5.599	6.747	-4.423	-0.467	1.742	-1.176	3.569	3.404	6.077	6.379	3.987	7.161	5.017	4.142	4.344	3.102	324.219
-6.991	-3.071	-9.431	-0.891	0.236	-4.768	1.567	-2.123	-0.393	2.236	1.923	1.153	5.691	6.881	-4.300	-0.148	2.015	-1.205	3.750	3.641	6.237	6.462	3.991	7.157	4.844	3.983	4.227	3.030	328.125
-6.812	-2.785	-9.282	-0.713	0.300	-4.769	1.441	-2.245	-0.628	2.107	1.746	1.074	5.764	6.975	-4.152	0.170	2.235	-1.242	3.940	3.848	6.372	6.500	3.977	7.124	4.684	3.845	4.090	2.974	332.031
-6.579	-2.483	-9.131	-0.546	0.351	-4.773	1.303	-2.360	-0.855	1.958	1.555	0.985	5.808	7.026	-3.978	0.490	2.406	-1.277	4.130	4.024	6.483	6.496	3.943	7.057	4.536	3.721	3.935	2.929	335.938
-6.303	-2.168	-8.989	-0.385	0.394	-4.772	1.162	-2.462	-1.065	1.795	1.362	0.892	5.819	7.035	-3.785	0.809	2.537	-1.304	4.311	4.169	6.567	6.458	3.890	6.956	4.396	3.606	3.766	2.889	339.844
-6.005	-1.848	-8.865	-0.230	0.432	-4.758	1.037	-2.540	-1.247	1.633	1.183	0.807	5.798	7.008	-3.586	1.120	2.637	-1.320	4.468	4.283	6.624	6.392	3.822	6.819	4.261	3.494	3.594	2.856	343.750
-5.706	-1.539	-8.773	-0.079	0.472	-4.723	0.943	-2.585	-1.384	1.491	1.036	0.741	5.749	6.957	-3.396	1.413	2.715	-1.327	4.588	4.366	6.653	6.306	3.739	6.651	4.129	3.384	3.429	2.829	347.656
-5.429	-1.253	-8.718	0.067	0.519	-4.664	0.898	-2.588	-1.460	1.388	0.940	0.708	5.679	6.896	-3.227	1.675	2.777	-1.329	4.660	4.417	6.656	6.204	3.645	6.458	4.000	3.276	3.281	2.813	351.562
-5.189	-1.007	-8.700	0.207	0.578	-4.578	0.912	-2.542	-1.465	1.341	0.904	0.712	5.599	6.835	-3.084	1.896	2.827	-1.332	4.678	4.437	6.635	6.090	3.541	6.244	3.871	3.169	3.156	2.807	355.469
-4.987	-0.812	-8.711	0.340	0.651	-4.464	0.984	-2.446	-1.396	1.354	0.928	0.752	5.515	6.785	-2.962	2.068	2.865	-1.344	4.640	4.426	6.592	5.964	3.430	6.017	3.743	3.061	3.053	2.809	359.375
-4.819	-0.673	-8.735	0.465	0.741	-4.323	1.108	-2.302	-1.261	1.424	1.002	0.817	5.429	6.747	-2.849	2.189	2.885	-1.366	4.550	4.389	6.532	5.829	3.315	5.782	3.611	2.948	2.965	2.812	363.281
-4.669	-0.592	-8.753	0.581	0.846	-4.157	1.268	-2.118	-1.076	1.535	1.109	0.888	5.342	6.719	-2.729	2.262	2.884	-1.399	4.421	4.328	6.459	5.685	3.202	5.542	3.475	2.823	2.877	2.803	367.188
-4.518	-0.563	-8.746	0.687	0.962	-3.969	1.441	-1.905	-0.862	1.668	1.229	0.947	5.246	6.691	-2.585	2.295	2.854	-1.436	4.266	4.252	6.377	5.533	3.093	5.302	3.333	2.680	2.773	2.770	371.094
-4.350	-0.575	-8.698	0.782	1.085	-3.760	1.609	-1.674	-0.641	1.801	1.347	0.977	5.136	6.650	-2.406	2.299	2.790	-1.474	4.104	4.165	6.285	5.377	2.990	5.065	3.185	2.516	2.640	2.704	375.000
-4.159	-0.617	-8.606	0.866	1.209	-3.532	1.758	-1.438	-0.430	1.920	1.452	0.971	5.008	6.587	-2.192	2.284	2.687	-1.505	3.947	4.072	6.183	5.217	2.894	4.835	3.033	2.333	2.471	2.602	378.906
-3.948	-0.674	-8.474	0.936	1.331	-3.287	1.881	-1.208	-0.241	2.016	1.544	0.932	4.863	6.492	-1.955	2.259	2.543	-1.529	3.806	3.976	6.069	5.053	2.800	4.620	2.882	2.138	2.272	2.470	382.812
-3.731	-0.735	-8.315	0.993	1.450	-3.028	1.982	-0.991	-0.079	2.092	1.628	0.873	4.711	6.365	-1.715	2.230	2.361	-1.546	3.686	3.878	5.940	4.888	2.705	4.426	2.737	1.942	2.056	2.323	386.719
-3.528	-0.787	-8.148	1.041	1.565	-2.756	2.067	-0.797	0.053	2.154	1.710	0.809	4.564	6.214	-1.497	2.201	2.151	-1.560	3.588	3.781	5.799	4.724	2.605	4.258	2.600	1.758	1.845	2.178	390.625
-3.359	-0.819	-7.991	1.085	1.682	-2.477	2.145	-0.631	0.152	2.207	1.789	0.757	4.437	6.053	-1.321	2.180	1.933	-1.573	3.513	3.691	5.655	4.567	2.502	4.121	2.470	1.591	1.659	2.051	394.531
-3.234	-0.822	-7.857	1.134	1.802	-2.196	2.220	-0.503	0.210	2.252	1.856	0.720	4.342	5.900	-1.198	2.174	1.729	-1.583	3.462	3.619	5.522	4.429	2.402	4.017	2.342	1.439	1.514	1.950	398.438
-3.154	-0.793	-7.749	1.197	1.926	-1.920	2.288	-0.422	0.214	2.280	1.894	0.696	4.285	5.775	-1.124	2.188	1.565	-1.588	3.439	3.575	5.417	4.323	2.319	3.942	2.206	1.296	1.414	1.875	402.344
-3.108	-0.735	-7.661	1.277	2.050	-1.658	2.338	-0.396	0.150	2.278	1.881	0.676	4.269	5.690	-1.085	2.226	1.459	-1.579	3.443	3.566	5.355	4.260	2.263	3.891	2.053	1.149	1.355	1.818	406.250
-3.074	-0.657	-7.577	1.369	2.162	-1.422	2.351	-0.431	0.010	2.230	1.801	0.648	4.285	5.652	-1.056	2.281	1.418	-1.547	3.469	3.588	5.340	4.249	2.245	3.857	1.876	0.988	1.328	1.771	410.156
-3.028	-0.576	-7.476	1.462	2.247	-1.222	2.310	-0.526	-0.206	2.125	1.652	0.605	4.323	5.653	-1.011	2.341	1.432	-1.485	3.504	3.628	5.366	4.283	2.267	3.828	1.675	0.813	1.316	1.728	414.062
-2.951	-0.510	-7.338	1.542	2.292	-1.066	2.206	-0.669	-0.481	1.964	1.446	0.547	4.366	5.676	-0.930	2.384	1.477	-1.393	3.523	3.664	5.415	4.348	2.319	3.795	1.457	0.627	1.307	1.688	417.969
-2.834	-0.475	-7.149	1.591	2.289	-0.956	2.039	-0.838	-0.785	1.759	1.207	0.480	4.398	5.701	-0.805	2.390	1.522	-1.274	3.501	3.673	5.465	4.418	2.388	3.745	1.235	0.443	1.288	1.650	421.875
-2.677	-0.478	-6.902	1.604	2.238	-0.885	1.822	-1.005	-1.079	1.530	0.969	0.409	4.404	5.705	-0.643	2.342	1.538	-1.140	3.414	3.637	5.493	4.467	2.450	3.669	1.020	0.276	1.249	1.618	425.781
-2.495	-0.513	-6.600	1.582	2.155	-0.841	1.580	-1.143	-1.326	1.305	0.760	0.340	4.369	5.674	-0.461	2.238	1.505	-1.005	3.250	3.553	5.487	4.470	2.484	3.560	0.825	0.137	1.184	1.588	429.688
-2.308	-0.563	-6.256	1.540	2.061	-0.806	1.339	-1.228	-1.498	1.106	0.602	0.273	4.285	5.601	-0.287	2.087	1.421	-0.882	3.015	3.431	5.444	4.411	2.477	3.414	0.656	0.032	1.089	1.557	433.594
-2.140	-0.603	-5.886	1.499	1.983	-0.764	1.126	-1.251	-1.584	0.947	0.497	0.204	4.145	5.492	-0.148	1.913	1.302	-0.783	2.733	3.296	5.377	4.291	2.420	3.231	0.515	-0.040	0.965	1.517	437.500
-2.006	-0.607	-5.511	1.483	1.942	-0.704	0.954	-1.221	-1.596	0.829	0.436	0.127	3.951	5.361	-0.061	1.748	1.176	-0.708	2.442	3.180	5.302	4.122	2.321	3.019	0.399	-0.088	0.817	1.463	441.406
-1.914	-0.556	-5.147	1.508	1.951	-0.624	0.828	-1.157	-1.559	0.743	0.400	0.039	3.709	5.221	-0.033	1.620	1.078	-0.655	2.188	3.107	5.236	3.926	2.194	2.785	0.303	-0.121	0.652	1.389	445.312
-1.861	-0.441	-4.808	1.582	2.006	-0.532	0.741	-1.089	-1.510	0.676	0.367	-0.061	3.429	5.089	-0.052	1.550	1.042	-0.611	2.011	3.094	5.191	3.729	2.060	2.544	0.220	-0.151	0.480	1.297	449.219
-1.832	-0.269	-4.500	1.695	2.089	-0.444	0.678	-1.048	-1.483	0.609	0.320	-0.165	3.127	4.974	-0.100	1.543	1.088	-0.566	1.937	3.138	5.166	3.555	1.942	2.309	0.148	-0.187	0.314	1.193	453.125
-1.812	-0.060	-4.228	1.829	2.173	-0.376	0.621	-1.055	-1.500	0.534	0.255	-0.262	2.818	4.877	-0.153	1.592	1.221	-0.507	1.973	3.221	5.154	3.420	1.858	2.095	0.084	-0.235	0.167	1.085	457.031
-1.786	0.157	-3.994	1.955	2.227	-0.347	0.557	-1.118	-1.569	0.446	0.175	-0.342	2.519	4.794	-0.186	1.676	1.429	-0.428	2.104	3.317	5.137	3.330	1.818	1.914	0.030	-0.295	0.046	0.982	460.938
-1.745	0.350	-3.801	2.046	2.227	-0.366	0.477	-1.230	-1.678	0.353	0.094	-0.395	2.246	4.717	-0.186	1.771	1.684	-0.327	2.300	3.396	5.099	3.282	1.825	1.777	-0.007	-0.363	-0.040	0.894	464.844
-1.693	0.492	-3.657	2.082	2.156	-0.436	0.382	-1.370	-1.804	0.266	0.032	-0.416	2.009	4.638	-0.148	1.850	1.951	-0.207	2.524	3.432	5.029	3.269	1.872	1.693	-0.022	-0.433	-0.089	0.825	468.750
-1.640	0.562	-3.568	2.049	2.014	-0.551	0.278	-1.512	-1.919	0.199	0.002	-0.406	1.818	4.550	-0.079	1.895	2.189	-0.078	2.740	3.411	4.921	3.278	1.947	1.667	-0.008	-0.493	-0.097	0.779	472.656
-1.603	0.553	-3.540	1.948	1.808	-0.701	0.172	-1.631	-1.996	0.162	0.015	-0.371	1.677	4.450	0.004	1.891	2.363	0.048	2.920	3.330	4.780	3.298	2.033	1.699	0.040	-0.528	-0.065	0.759	476.562
-1.601	0.469	-3.576	1.788	1.558	-0.870	0.074	-1.707	-2.018	0.159	0.071	-0.314	1.587	4.339	0.082	1.833	2.443	0.155	3.046	3.194	4.614	3.316	2.115	1.788	0.128	-0.522	0.011	0.768	480.469
-1.649	0.322	-3.668	1.586	1.283	-1.046	-0.011	-1.734	-1.981	0.189	0.166	-0.241	1.545	4.218	0.130	1.718	2.413	0.232	3.113	3.014	4.433	3.326	2.179	1.926	0.254	-0.460	0.133	0.814	484.375
-1.751	0.130	-3.802	1.359	0.999	-1.219	-0.082	-1.714	-1.893	0.242	0.290	-0.151	1.543	4.093	0.132	1.552	2.273	0.268	3.124	2.801	4.244	3.319	2.218	2.104	0.416	-0.332	0.305	0.907	488.281
-1.901	-0.090	-3.956	1.124	0.719	-1.385	-0.142	-1.664	-1.771	0.305	0.431	-0.040	1.574	3.965	0.079	1.340	2.032	0.258	3.088	2.562	4.051	3.293	2.228	2.307	0.606	-0.132	0.525	1.056	492.188
-2.077	-0.321	-4.104	0.893	0.447	-1.541	-0.195	-1.603	-1.638	0.365	0.577	0.098	1.624	3.834	-0.023	1.094	1.715	0.202	3.019	2.302	3.852	3.244	2.213	2.517	0.813	0.134	0.786	1.265	496.094
-2.247	-0.547	-4.219	0.672	0.184	-1.689	-0.251	-1.553	-1.517	0.405	0.717	0.269	1.679	3.701	-0.155	0.828	1.357	0.109	2.932	2.028	3.642	3.173	2.180	2.712	1.022	0.449	1.073	1.531	500.000
-2.372	-0.758	-4.282	0.466	-0.070	-1.830	-0.316	-1.529	-1.427	0.410	0.840	0.471	1.724	3.561	-0.282	0.563	1.000	-0.009	2.844	1.749	3.418	3.080	2.137	2.868	1.215	0.784	1.360	1.839	503.906
-2.413	-0.942	-4.284	0.276	-0.318	-1.964	-0.397	-1.540	-1.384	0.369	0.935	0.694	1.742	3.414	-0.362	0.323	0.686	-0.128	2.774	1.478	3.182	2.970	2.096	2.961	1.374	1.104	1.612	2.163	507.812
-2.342	-1.091	-4.224	0.106	-0.555	-2.085	-0.500	-1.584	-1.398	0.268	0.983	0.920	1.717	3.260	-0.349	0.134	0.454	-0.223	2.739	1.236	2.941	2.849	2.067	2.970	1.480	1.370	1.792	2.466	511.719
-2.140	-1.195	-4.113	-0.040	-0.777	-2.188	-0.630	-1.653	-1.476	0.096	0.967	1.116	1.634	3.103	-0.205	0.023	0.336	-0.265	2.755	1.048	2.711	2.729	2.059	2.881	1.521	1.545	1.861	2.707	515.625
-1.809	-1.246	-3.968	-0.152	-0.975	-2.262	-0.788	-1.736	-1.620	-0.154	0.864	1.247	1.481	2.951	0.092	0.009	0.349	-0.226	2.833	0.938	2.513	2.622	2.083	2.686	1.488	1.599	1.791	2.848	519.531
-1.366	-1.239	-3.805	-0.219	-1.137	-2.299	-0.974	-1.818	-1.831	-0.483	0.657	1.278	1.254	2.811	0.543	0.101	0.494	-0.087	2.977	0.925	2.370	2.543	2.145	2.392	1.380	1.515	1.565	2.859	523.438
-0.847	-1.171	-3.641	-0.231	-1.255	-2.291	-1.183	-1.888	-2.103	-0.883	0.337	1.185	0.955	2.692	1.122	0.295	0.754	0.159	3.181	1.020	2.302	2.505	2.250	2.015	1.207	1.293	1.185	2.725	527.344
-0.295	-1.048	-3.487	-0.183	-1.319	-2.235	-1.405	-1.936	-2.424	-1.332	-0.088	0.960	0.600	2.599	1.780	0.571	1.097	0.503	3.426	1.217	2.319	2.515	2.397	1.583	0.983	0.946	0.673	2.454	531.250
0.239	-0.878	-3.346	-0.074	-1.325	-2.129	-1.622	-1.955	-2.769	-1.799	-0.592	0.614	0.212	2.535	2.451	0.898	1.481	0.922	3.686	1.497	2.419	2.571	2.580	1.129	0.730	0.506	0.068	2.071	535.156
0.708	-0.681	-3.219	0.085	-1.276	-1.982	-1.814	-1.939	-3.106	-2.238	-1.130	0.181	-0.177	2.496	3.062	1.236	1.857	1.377	3.924	1.823	2.586	2.661	2.785	0.689	0.474	0.018	-0.575	1.622	539.062
1.070	-0.479	-3.104	0.274	-1.178	-1.806	-1.957	-1.882	-3.392	-2.599	-1.640	-0.286	-0.532	2.475	3.544	1.540	2.181	1.822	4.105	2.152	2.791	2.766	2.988	0.302	0.241	-0.465	-1.192	1.165	542.969
1.296	-0.298	-3.000	0.465	-1.048	-1.616	-2.029	-1.781	-3.585	-2.833	-2.056	-0.728	-0.815	2.464	3.848	1.773	2.413	2.207	4.199	2.436	2.997	2.859	3.164	-0.002	0.057	-0.888	-1.716	0.761	546.875
1.372	-0.168	-2.915	0.625	-0.906	-1.436	-2.013	-1.633	-3.645	-2.899	-2.313	-1.080	-0.996	2.455	3.946	1.903	2.528	2.486	4.183	2.630	3.165	2.913	3.284	-0.193	-0.058	-1.194	-2.087	0.468	550.781
1.296	-0.115	-2.859	0.723	-0.780	-1.290	-1.900	-1.438	-3.545	-2.771	-2.357	-1.285	-1.050	2.443	3.840	1.907	2.511	2.626	4.046	2.698	3.260	2.906	3.327	-0.252	-0.084	-1.337	-2.255	0.335	554.688
1.081	-0.161	-2.849	0.730	-0.700	-1.201	-1.693	-1.203	-3.275	-2.444	-2.160	-1.304	-0.968	2.428	3.555	1.779	2.363	2.608	3.789	2.619	3.257	2.825	3.280	-0.165	-0.009	-1.286	-2.187	0.390	558.594
0.749	-0.320	-2.906	0.626	-0.693	-1.189	-1.406	-0.937	-2.845	-1.936	-1.717	-1.116	-0.754	2.412	3.138	1.521	2.097	2.434	3.420	2.388	3.147	2.671	3.145	0.068	0.172	-1.026	-1.872	0.641	562.500
0.328	-0.597	-3.045	0.402	-0.781	-1.265	-1.064	-0.654	-2.284	-1.282	-1.054	-0.726	-0.425	2.399	2.646	1.148	1.735	2.126	2.959	2.017	2.933	2.457	2.934	0.442	0.456	-0.569	-1.326	1.075	566.406
-0.150	-0.981	-3.274	0.065	-0.974	-1.433	-0.697	-0.370	-1.637	-0.536	-0.222	-0.165	-0.012	2.394	2.139	0.682	1.308	1.723	2.437	1.533	2.633	2.203	2.671	0.934	0.829	0.055	-0.587	1.657	570.312
-0.653	-1.451	-3.588	-0.367	-1.270	-1.681	-0.337	-0.101	-0.958	0.244	0.705	0.518	0.446	2.402	1.670	0.154	0.855	1.277	1.890	0.976	2.275	1.938	2.385	1.512	1.269	0.789	0.282	2.334	574.219
-1.147	-1.970	-3.968	-0.862	-1.649	-1.987	-0.012	0.139	-0.304	0.997	1.644	1.257	0.908	2.424	1.279	-0.398	0.412	0.840	1.360	0.394	1.896	1.685	2.104	2.134	1.740	1.567	1.206	3.045	578.125
-1.599	-2.494	-4.380	-1.377	-2.073	-2.319	0.257	0.340	0.275	1.669	2.510	1.981	1.332	2.460	0.991	-0.936	0.016	0.461	0.887	-0.163	1.532	1.468	1.851	2.747	2.201	2.314	2.099	3.722	582.031
-1.978	-2.969	-4.779	-1.861	-2.496	-2.638	0.460	0.498	0.740	2.218	3.229	2.621	1.683	2.509	0.810	-1.416	-0.303	0.174	0.506	-0.646	1.218	1.301	1.641	3.302	2.610	2.959	2.882	4.304	585.938
-2.258	-3.341	-5.117	-2.265	-2.865	-2.905	0.595	0.613	1.065	2.614	3.744	3.120	1.937	2.567	0.730	-1.799	-0.521	-0.004	0.240	-1.011	0.985	1.191	1.482	3.749	2.925	3.442	3.486	4.736	589.844
-2.417	-3.562	-5.348	-2.540	-3.131	-3.086	0.669	0.687	1.236	2.841	4.018	3.432	2.080	2.631	0.736	-2.045	-0.625	-0.072	0.101	-1.225	0.855	1.141	1.374	4.052	3.111	3.718	3.861	4.980	593.750
-2.441	-3.593	-5.435	-2.649	-3.255	-3.158	0.692	0.722	1.251	2.894	4.038	3.530	2.109	2.699	0.809	-2.126	-0.608	-0.043	0.089	-1.269	0.840	1.149	1.316	4.190	3.148	3.764	3.977	5.010	597.656
-2.329	-3.413	-5.360	-2.572	-3.216	-3.109	0.673	0.719	1.118	2.778	3.807	3.405	2.033	2.768	0.937	-2.025	-0.469	0.063	0.195	-1.138	0.942	1.209	1.304	4.160	3.029	3.578	3.834	4.823	601.562
-2.091	-3.023	-5.126	-2.307	-3.016	-2.944	0.623	0.677	0.852	2.508	3.346	3.065	1.867	2.838	1.112	-1.738	-0.213	0.225	0.405	-0.844	1.154	1.319	1.339	3.977	2.765	3.178	3.451	4.431	605.469
-1.749	-2.451	-4.757	-1.875	-2.676	-2.680	0.545	0.596	0.473	2.104	2.687	2.535	1.632	2.910	1.332	-1.282	0.152	0.424	0.702	-0.413	1.460	1.473	1.421	3.671	2.382	2.600	2.869	3.863	609.375
-1.334	-1.742	-4.291	-1.314	-2.234	-2.342	0.443	0.478	0.007	1.593	1.873	1.851	1.354	2.984	1.599	-0.687	0.615	0.649	1.069	0.118	1.833	1.665	1.550	3.282	1.917	1.890	2.142	3.161	613.281
-0.884	-0.964	-3.777	-0.680	-1.739	-1.961	0.319	0.329	-0.520	1.006	0.952	1.059	1.056	3.059	1.914	0.000	1.154	0.893	1.488	0.702	2.245	1.887	1.727	2.855	1.413	1.106	1.335	2.377	617.188
-0.435	-0.188	-3.267	-0.033	-1.244	-1.569	0.171	0.159	-1.073	0.379	-0.023	0.210	0.759	3.133	2.271	0.723	1.744	1.153	1.937	1.289	2.660	2.125	1.944	2.432	0.914	0.305	0.511	1.564	621.094
-0.019	0.514	-2.803	0.563	-0.797	-1.194	0.003	-0.017	-1.622	-0.250	-0.995	-0.643	0.480	3.198	2.656	1.423	2.348	1.425	2.389	1.833	3.044	2.364	2.189	2.045	0.461	-0.457	-0.271	0.777	625.000
0.339	1.084	-2.415	1.056	-0.437	-0.861	-0.180	-0.183	-2.131	-0.842	-1.908	-1.449	0.232	3.246	3.048	2.043	2.924	1.705	2.813	2.291	3.365	2.583	2.444	1.717	0.085	-1.132	-0.963	0.063	628.906
0.629	1.482	-2.115	1.408	-0.188	-0.585	-0.369	-0.322	-2.569	-1.361	-2.706	-2.162	0.019	3.268	3.419	2.540	3.428	1.980	3.175	2.632	3.597	2.763	2.686	1.457	-0.193	-1.683	-1.533	-0.541	632.812
0.853	1.696	-1.903	1.600	-0.058	-0.375	-0.548	-0.417	-2.909	-1.777	-3.341	-2.744	-0.160	3.254	3.746	2.884	3.823	2.237	3.444	2.837	3.723	2.881	2.890	1.259	-0.368	-2.088	-1.963	-1.010	636.719
1.020	1.736	-1.766	1.632	-0.043	-0.231	-0.704	-0.458	-3.128	-2.064	-3.775	-3.167	-0.307	3.194	4.011	3.067	4.081	2.458	3.592	2.901	3.735	2.920	3.031	1.109	-0.445	-2.342	-2.251	-1.333	640.625
1.147	1.631	-1.687	1.525	-0.124	-0.149	-0.820	-0.437	-3.213	-2.209	-3.986	-3.417	-0.429	3.084	4.205	3.098	4.193	2.629	3.604	2.831	3.635	2.868	3.090	0.985	-0.444	-2.453	-2.410	-1.515	644.531
1.250	1.421	-1.653	1.310	-0.277	-0.122	-0.885	-0.354	-3.161	-2.208	-3.968	-3.489	-0.531	2.924	4.333	3.000	4.163	2.740	3.480	2.646	3.433	2.720	3.055	0.869	-0.389	-2.439	-2.456	-1.569	648.438
1.337	1.148	-1.656	1.024	-0.478	-0.140	-0.894	-0.217	-2.980	-2.066	-3.733	-3.387	-0.615	2.720	4.408	2.809	4.015	2.785	3.236	2.372	3.142	2.482	2.925	0.749	-0.306	-2.327	-2.409	-1.514	652.344
1.410	0.846	-1.698	0.700	-0.707	-0.201	-0.850	-0.038	-2.688	-1.800	-3.307	-3.125	-0.681	2.480	4.450	2.558	3.781	2.770	2.904	2.038	2.783	2.170	2.709	0.620	-0.218	-2.140	-2.286	-1.371	656.250
1.462	0.534	-1.788	0.364	-0.951	-0.303	-0.763	0.164	-2.314	-1.434	-2.723	-2.719	-0.723	2.218	4.477	2.277	3.498	2.703	2.525	1.670	2.373	1.807	2.426	0.491	-0.136	-1.900	-2.099	-1.156	660.156
1.482	0.223	-1.936	0.028	-1.204	-0.448	-0.652	0.367	-1.888	-0.997	-2.025	-2.190	-0.735	1.949	4.505	1.986	3.200	2.597	2.139	1.288	1.933	1.424	2.102	0.379	-0.064	-1.617	-1.853	-0.877	664.062
1.459	-0.091	-2.147	-0.305	-1.466	-0.639	-0.539	0.548	-1.447	-0.526	-1.258	-1.563	-0.708	1.686	4.541	1.692	2.913	2.467	1.780	0.905	1.480	1.052	1.767	0.307	0.010	-1.297	-1.547	-0.540	667.969
1.387	-0.414	-2.416	-0.639	-1.739	-0.880	-0.445	0.685	-1.024	-0.056	-0.470	-0.869	-0.637	1.443	4.584	1.395	2.651	2.328	1.471	0.528	1.032	0.721	1.451	0.297	0.102	-0.941	-1.185	-0.146	671.875
1.271	-0.749	-2.730	-0.980	-2.021	-1.166	-0.389	0.759	-0.653	0.372	0.290	-0.145	-0.523	1.232	4.625	1.090	2.420	2.191	1.214	0.160	0.607	0.454	1.183	0.362	0.232	-0.547	-0.772	0.303	675.781
1.124	-1.094	-3.061	-1.328	-2.308	-1.488	-0.385	0.758	-0.360	0.725	0.971	0.564	-0.373	1.060	4.654	0.779	2.217	2.067	1.003	-0.193	0.222	0.263	0.984	0.506	0.414	-0.123	-0.324	0.796	679.688
0.966	-1.433	-3.378	-1.674	-2.586	-1.827	-0.440	0.678	-0.166	0.971	1.530	1.214	-0.201	0.933	4.662	0.467	2.038	1.963	0.824	-0.523	-0.108	0.151	0.867	0.722	0.654	0.319	0.135	1.316	683.594
0.820	-1.743	-3.649	-1.999	-2.838	-2.157	-0.553	0.522	-0.083	1.092	1.928	1.757	-0.026	0.853	4.647	0.173	1.882	1.884	0.663	-0.815	-0.369	0.112	0.831	0.989	0.942	0.757	0.574	1.835	687.500
0.705	-1.999	-3.847	-2.277	-3.044	-2.452	-0.714	0.304	-0.113	1.078	2.142	2.158	0.131	0.820	4.609	-0.077	1.751	1.835	0.515	-1.049	-0.550	0.131	0.869	1.277	1.258	1.160	0.956	2.320	691.406
0.634	-2.175	-3.958	-2.483	-3.189	-2.684	-0.909	0.043	-0.250	0.938	2.166	2.389	0.254	0.830	4.558	-0.255	1.655	1.816	0.382	-1.206	-0.645	0.190	0.962	1.554	1.568	1.497	1.250	2.734	695.312
0.607	-2.255	-3.976	-2.596	-3.259	-2.832	-1.119	-0.237	-0.474	0.691	2.014	2.441	0.328	0.877	4.503	-0.338	1.605	1.827	0.277	-1.269	-0.655	0.273	1.088	1.789	1.840	1.740	1.430	3.043	699.219
0.614	-2.235	-3.908	-2.607	-3.253	-2.887	-1.322	-0.509	-0.759	0.371	1.720	2.323	0.349	0.952	4.453	-0.312	1.613	1.864	0.217	-1.233	-0.588	0.364	1.223	1.957	2.039	1.866	1.486	3.218	703.125
0.640	-2.123	-3.769	-2.520	-3.178	-2.850	-1.496	-0.748	-1.069	0.020	1.332	2.062	0.319	1.045	4.413	-0.180	1.686	1.923	0.213	-1.106	-0.460	0.451	1.349	2.043	2.146	1.868	1.419	3.245	707.031
0.668	-1.938	-3.575	-2.354	-3.050	-2.730	-1.624	-0.933	-1.369	-0.317	0.906	1.695	0.248	1.143	4.383	0.039	1.819	1.998	0.272	-0.908	-0.296	0.528	1.449	2.043	2.151	1.752	1.243	3.126	710.938
0.681	-1.708	-3.345	-2.135	-2.890	-2.548	-1.692	-1.047	-1.621	-0.600	0.501	1.271	0.146	1.234	4.359	0.310	2.002	2.079	0.385	-0.673	-0.122	0.588	1.517	1.964	2.064	1.535	0.985	2.880	714.844
0.673	-1.463	-3.097	-1.899	-2.720	-2.327	-1.693	-1.083	-1.796	-0.791	0.167	0.841	0.026	1.305	4.334	0.591	2.209	2.159	0.532	-0.439	0.033	0.624	1.547	1.820	1.903	1.250	0.676	2.539	718.750
0.643	-1.232	-2.848	-1.675	-2.560	-2.089	-1.624	-1.038	-1.870	-0.870	-0.056	0.452	-0.099	1.347	4.301	0.837	2.408	2.223	0.682	-0.247	0.149	0.631	1.540	1.632	1.699	0.934	0.352	2.149	722.656
0.595	-1.039	-2.610	-1.492	-2.425	-1.855	-1.492	-0.916	-1.832	-0.825	-0.143	0.145	-0.220	1.357	4.251	1.008	2.565	2.258	0.795	-0.127	0.208	0.598	1.492	1.422	1.484	0.627	0.046	1.758	726.562
0.538	-0.900	-2.396	-1.365	-2.320	-1.639	-1.304	-0.729	-1.681	-0.660	-0.086	-0.052	-0.327	1.333	4.179	1.077	2.648	2.250	0.835	-0.101	0.208	0.516	1.403	1.211	1.285	0.367	-0.211	1.411	730.469
0.481	-0.824	-2.215	-1.301	-2.247	-1.449	-1.076	-0.492	-1.431	-0.392	0.108	-0.123	-0.413	1.280	4.085	1.034	2.632	2.185	0.772	-0.174	0.153	0.377	1.268	1.015	1.125	0.184	-0.395	1.148	734.375
0.429	-0.810	-2.075	-1.297	-2.198	-1.291	-0.822	-0.225	-1.104	-0.046	0.419	-0.066	-0.472	1.207	3.969	0.884	2.510	2.055	0.593	-0.336	0.056	0.179	1.086	0.849	1.015	0.098	-0.491	0.994	738.281
0.382	-0.853	-1.980	-1.343	-2.167	-1.166	-0.562	0.046	-0.731	0.347	0.817	0.108	-0.497	1.126	3.837	0.648	2.287	1.862	0.299	-0.568	-0.065	-0.074	0.856	0.719	0.957	0.113	-0.492	0.960	742.188
0.338	-0.941	-1.930	-1.423	-2.146	-1.077	-0.311	0.297	-0.348	0.755	1.267	0.381	-0.485	1.050	3.694	0.354	1.983	1.614	-0.086	-0.839	-0.192	-0.370	0.585	0.630	0.943	0.224	-0.400	1.043	746.094
0.290	-1.062	-1.924	-1.523	-2.127	-1.026	-0.085	0.505	0.007	1.147	1.730	0.726	-0.432	0.992	3.546	0.038	1.631	1.333	-0.526	-1.121	-0.309	-0.688	0.285	0.583	0.962	0.414	-0.229	1.226	750.000
0.231	-1.202	-1.955	-1.629	-2.110	-1.015	0.106	0.650	0.303	1.498	2.173	1.114	-0.337	0.960	3.399	-0.270	1.270	1.046	-0.975	-1.383	-0.404	-1.005	-0.024	0.576	1.000	0.660	0.003	1.485	753.906
0.158	-1.349	-2.015	-1.729	-2.094	-1.041	0.253	0.721	0.513	1.790	2.565	1.514	-0.205	0.961	3.257	-0.541	0.938	0.781	-1.385	-1.603	-0.471	-1.292	-0.321	0.605	1.046	0.934	0.269	1.790	757.812
0.074	-1.488	-2.091	-1.813	-2.081	-1.102	0.354	0.715	0.624	2.009	2.882	1.895	-0.045	0.994	3.127	-0.755	0.673	0.566	-1.715	-1.765	-0.508	-1.527	-0.584	0.663	1.089	1.207	0.540	2.111	761.719
-0.011	-1.606	-2.169	-1.877	-2.075	-1.189	0.406	0.636	0.630	2.148	3.104	2.228	0.130	1.056	3.017	-0.898	0.499	0.419	-1.934	-1.860	-0.514	-1.692	-0.792	0.741	1.122	1.451	0.786	2.416	765.625
-0.080	-1.693	-2.232	-1.914	-2.077	-1.288	0.407	0.496	0.537	2.201	3.218	2.489	0.304	1.139	2.942	-0.964	0.434	0.350	-2.026	-1.884	-0.490	-1.774	-0.933	0.831	1.140	1.642	0.985	2.680	769.531
-0.111	-1.736	-2.265	-1.925	-2.087	-1.385	0.357	0.310	0.355	2.166	3.212	2.658	0.459	1.236	2.918	-0.952	0.481	0.354	-1.989	-1.841	-0.438	-1.772	-0.999	0.921	1.139	1.761	1.119	2.885	773.438
-0.083	-1.731	-2.256	-1.912	-2.106	-1.466	0.252	0.094	0.101	2.042	3.083	2.720	0.581	1.338	2.960	-0.866	0.635	0.421	-1.831	-1.735	-0.359	-1.688	-0.993	1.006	1.120	1.798	1.182	3.022	777.344
0.019	-1.677	-2.198	-1.880	-2.133	-1.521	0.095	-0.138	-0.208	1.834	2.833	2.674	0.661	1.441	3.081	-0.714	0.883	0.534	-1.572	-1.579	-0.256	-1.533	-0.921	1.081	1.083	1.753	1.177	3.091	781.250
0.201	-1.577	-2.092	-1.835	-2.168	-1.545	-0.112	-0.376	-0.555	1.550	2.474	2.527	0.698	1.541	3.283	-0.505	1.204	0.676	-1.234	-1.382	-0.130	-1.318	-0.795	1.146	1.031	1.632	1.116	3.102	785.156
0.456	-1.443	-1.944	-1.786	-2.209	-1.539	-0.361	-0.612	-0.925	1.206	2.026	2.300	0.697	1.637	3.558	-0.256	1.576	0.829	-0.846	-1.159	0.012	-1.060	-0.630	1.203	0.970	1.453	1.017	3.072	789.062
0.765	-1.286	-1.767	-1.737	-2.254	-1.511	-0.640	-0.845	-1.305	0.823	1.520	2.020	0.668	1.731	3.889	0.017	1.976	0.982	-0.431	-0.921	0.166	-0.779	-0.445	1.254	0.903	1.235	0.898	3.020	792.969
1.103	-1.120	-1.576	-1.691	-2.301	-1.470	-0.932	-1.072	-1.684	0.424	0.991	1.720	0.626	1.823	4.248	0.298	2.381	1.126	-0.014	-0.683	0.324	-0.491	-0.255	1.304	0.835	1.004	0.775	2.964	796.875
