FP1	F3	F7	FC3	C3	C5	P3	P7	PO7	PO3	O1	Oz	Pz	CPz	FP2	Fz	F4	F8	FC4	FCz	Cz	C4	C6	P4	P8	PO8	PO4	O2	time
0.969	1.006	-0.498	1.045	0.308	-0.269	-0.819	-2.056	-2.032	-1.359	-1.576	-0.884	0.238	0.692	0.451	1.401	1.238	1.054	1.456	1.533	1.757	0.698	0.962	0.544	1.149	-0.174	-0.354	-0.233	-199.219
0.762	0.578	-0.608	0.959	0.366	-0.195	-0.533	-1.536	-1.496	-0.993	-1.146	-0.661	0.291	0.665	0.129	1.034	0.893	0.881	1.078	1.219	1.513	0.704	0.679	0.527	0.923	-0.098	-0.238	-0.265	-195.312
0.569	0.188	-0.711	0.872	0.416	-0.126	-0.260	-1.049	-0.992	-0.638	-0.737	-0.451	0.340	0.638	-0.173	0.697	0.577	0.718	0.718	0.927	1.279	0.692	0.431	0.509	0.712	-0.032	-0.122	-0.291	-191.406
0.398	-0.130	-0.799	0.785	0.453	-0.066	-0.015	-0.629	-0.550	-0.307	-0.372	-0.266	0.387	0.614	-0.439	0.412	0.311	0.574	0.393	0.677	1.063	0.652	0.242	0.492	0.523	0.019	-0.006	-0.302	-187.500
0.252	-0.354	-0.859	0.699	0.476	-0.014	0.190	-0.297	-0.196	-0.015	-0.074	-0.114	0.431	0.594	-0.653	0.194	0.104	0.451	0.116	0.480	0.875	0.582	0.122	0.476	0.363	0.050	0.108	-0.295	-183.594
0.134	-0.471	-0.882	0.620	0.490	0.033	0.347	-0.067	0.056	0.224	0.144	0.003	0.472	0.583	-0.801	0.050	-0.041	0.344	-0.106	0.342	0.723	0.491	0.067	0.461	0.234	0.059	0.213	-0.274	-179.688
0.039	-0.481	-0.860	0.551	0.499	0.079	0.452	0.063	0.201	0.400	0.276	0.082	0.510	0.581	-0.875	-0.025	-0.134	0.245	-0.270	0.264	0.613	0.393	0.062	0.446	0.136	0.045	0.301	-0.251	-175.781
-0.039	-0.394	-0.791	0.500	0.511	0.126	0.505	0.103	0.249	0.506	0.322	0.126	0.543	0.588	-0.874	-0.043	-0.190	0.147	-0.378	0.238	0.546	0.307	0.087	0.429	0.066	0.007	0.361	-0.235	-171.875
-0.108	-0.232	-0.678	0.469	0.531	0.177	0.513	0.073	0.218	0.542	0.294	0.138	0.569	0.602	-0.806	-0.021	-0.228	0.045	-0.436	0.247	0.516	0.251	0.126	0.410	0.021	-0.048	0.389	-0.237	-167.969
-0.172	-0.027	-0.535	0.455	0.559	0.231	0.483	-0.004	0.134	0.516	0.209	0.124	0.585	0.616	-0.691	0.022	-0.264	-0.057	-0.453	0.274	0.514	0.240	0.165	0.388	-0.001	-0.111	0.385	-0.257	-164.062
-0.232	0.185	-0.375	0.451	0.591	0.282	0.429	-0.103	0.028	0.444	0.087	0.091	0.588	0.625	-0.552	0.067	-0.312	-0.154	-0.437	0.299	0.528	0.276	0.198	0.363	-0.003	-0.171	0.352	-0.290	-160.156
-0.278	0.367	-0.219	0.450	0.620	0.323	0.362	-0.203	-0.071	0.344	-0.048	0.050	0.575	0.618	-0.414	0.101	-0.374	-0.241	-0.400	0.308	0.544	0.352	0.223	0.331	0.013	-0.216	0.294	-0.324	-156.250
-0.297	0.491	-0.080	0.442	0.638	0.346	0.295	-0.288	-0.143	0.241	-0.173	0.009	0.542	0.591	-0.296	0.122	-0.444	-0.314	-0.348	0.294	0.553	0.449	0.243	0.285	0.045	-0.239	0.215	-0.347	-152.344
-0.272	0.543	0.029	0.423	0.641	0.348	0.237	-0.347	-0.174	0.151	-0.269	-0.021	0.483	0.536	-0.210	0.132	-0.509	-0.374	-0.290	0.259	0.547	0.543	0.257	0.214	0.085	-0.241	0.112	-0.354	-148.438
-0.192	0.526	0.103	0.392	0.627	0.327	0.192	-0.373	-0.160	0.091	-0.323	-0.037	0.395	0.452	-0.154	0.142	-0.551	-0.420	-0.230	0.212	0.525	0.608	0.267	0.108	0.125	-0.228	-0.017	-0.345	-144.531
-0.054	0.456	0.144	0.356	0.602	0.289	0.162	-0.364	-0.108	0.064	-0.327	-0.035	0.276	0.342	-0.121	0.163	-0.551	-0.451	-0.173	0.167	0.487	0.623	0.268	-0.039	0.152	-0.216	-0.177	-0.327	-140.625
0.132	0.361	0.157	0.320	0.574	0.245	0.144	-0.322	-0.031	0.071	-0.281	-0.019	0.129	0.211	-0.096	0.202	-0.500	-0.463	-0.123	0.137	0.438	0.575	0.255	-0.226	0.155	-0.215	-0.367	-0.312	-136.719
0.341	0.267	0.150	0.290	0.549	0.207	0.133	-0.253	0.059	0.104	-0.192	0.007	-0.039	0.068	-0.064	0.259	-0.399	-0.449	-0.086	0.128	0.380	0.461	0.221	-0.440	0.126	-0.234	-0.577	-0.308	-132.812
0.538	0.192	0.130	0.267	0.534	0.186	0.126	-0.163	0.148	0.154	-0.070	0.038	-0.211	-0.073	-0.018	0.325	-0.260	-0.404	-0.065	0.136	0.318	0.294	0.160	-0.656	0.065	-0.271	-0.785	-0.318	-128.906
0.684	0.142	0.104	0.244	0.527	0.188	0.121	-0.062	0.231	0.213	0.069	0.071	-0.370	-0.200	0.044	0.381	-0.109	-0.326	-0.066	0.150	0.252	0.091	0.070	-0.843	-0.021	-0.316	-0.961	-0.337	-125.000
0.745	0.108	0.077	0.213	0.521	0.212	0.119	0.042	0.305	0.273	0.210	0.106	-0.492	-0.302	0.112	0.404	0.020	-0.220	-0.090	0.153	0.185	-0.120	-0.042	-0.966	-0.113	-0.350	-1.071	-0.354	-121.094
0.701	0.073	0.054	0.163	0.507	0.253	0.127	0.141	0.371	0.331	0.334	0.142	-0.562	-0.369	0.167	0.377	0.096	-0.098	-0.135	0.126	0.118	-0.316	-0.166	-0.999	-0.192	-0.354	-1.087	-0.354	-117.188
0.553	0.021	0.041	0.088	0.476	0.301	0.148	0.229	0.431	0.384	0.426	0.181	-0.566	-0.398	0.188	0.288	0.097	0.022	-0.197	0.058	0.054	-0.474	-0.287	-0.928	-0.239	-0.315	-0.996	-0.326	-113.281
0.318	-0.060	0.040	-0.011	0.424	0.348	0.189	0.306	0.485	0.432	0.475	0.220	-0.506	-0.390	0.157	0.138	0.016	0.118	-0.268	-0.052	-0.005	-0.577	-0.391	-0.758	-0.246	-0.228	-0.799	-0.263	-109.375
0.033	-0.165	0.052	-0.125	0.349	0.384	0.251	0.373	0.532	0.475	0.474	0.255	-0.390	-0.351	0.067	-0.056	-0.132	0.172	-0.334	-0.195	-0.055	-0.618	-0.468	-0.510	-0.218	-0.102	-0.521	-0.169	-105.469
-0.263	-0.281	0.078	-0.237	0.259	0.406	0.332	0.432	0.568	0.510	0.423	0.282	-0.235	-0.290	-0.073	-0.270	-0.319	0.170	-0.381	-0.351	-0.095	-0.596	-0.514	-0.218	-0.171	0.044	-0.199	-0.054	-101.562
-0.531	-0.384	0.114	-0.329	0.162	0.413	0.424	0.485	0.586	0.536	0.331	0.292	-0.065	-0.217	-0.238	-0.471	-0.504	0.113	-0.398	-0.498	-0.126	-0.519	-0.533	0.075	-0.134	0.184	0.121	0.066	-97.656
-0.741	-0.444	0.156	-0.382	0.070	0.408	0.516	0.531	0.579	0.548	0.212	0.280	0.097	-0.143	-0.393	-0.631	-0.646	0.011	-0.375	-0.612	-0.149	-0.398	-0.537	0.330	-0.137	0.293	0.397	0.173	-93.750
-0.878	-0.437	0.201	-0.386	-0.007	0.393	0.593	0.568	0.542	0.542	0.085	0.245	0.233	-0.076	-0.508	-0.727	-0.715	-0.112	-0.307	-0.675	-0.165	-0.251	-0.537	0.516	-0.201	0.349	0.593	0.252	-89.844
-0.939	-0.350	0.245	-0.339	-0.066	0.370	0.641	0.590	0.474	0.514	-0.028	0.188	0.328	-0.021	-0.558	-0.746	-0.697	-0.230	-0.198	-0.678	-0.175	-0.096	-0.547	0.615	-0.335	0.342	0.694	0.292	-85.938
-0.932	-0.189	0.284	-0.250	-0.104	0.335	0.650	0.593	0.380	0.463	-0.107	0.113	0.380	0.023	-0.536	-0.689	-0.595	-0.317	-0.061	-0.618	-0.178	0.050	-0.570	0.626	-0.527	0.272	0.700	0.289	-82.031
-0.868	0.021	0.315	-0.136	-0.125	0.286	0.615	0.571	0.273	0.389	-0.140	0.029	0.389	0.057	-0.449	-0.566	-0.432	-0.357	0.089	-0.505	-0.176	0.174	-0.600	0.563	-0.750	0.154	0.626	0.248	-78.125
-0.765	0.241	0.334	-0.021	-0.137	0.218	0.537	0.523	0.164	0.297	-0.121	-0.056	0.362	0.083	-0.316	-0.396	-0.239	-0.344	0.230	-0.353	-0.166	0.268	-0.622	0.446	-0.965	0.009	0.497	0.181	-74.219
-0.631	0.426	0.339	0.070	-0.146	0.131	0.420	0.449	0.065	0.189	-0.060	-0.135	0.308	0.103	-0.160	-0.201	-0.046	-0.283	0.344	-0.177	-0.152	0.331	-0.617	0.302	-1.132	-0.138	0.341	0.102	-70.312
-0.476	0.536	0.333	0.121	-0.160	0.028	0.272	0.350	-0.016	0.071	0.027	-0.206	0.236	0.118	-0.001	-0.003	0.125	-0.188	0.419	0.002	-0.135	0.367	-0.566	0.153	-1.223	-0.264	0.184	0.026	-66.406
-0.301	0.551	0.321	0.121	-0.186	-0.083	0.101	0.230	-0.080	-0.056	0.113	-0.266	0.149	0.123	0.150	0.182	0.267	-0.078	0.453	0.169	-0.122	0.381	-0.459	0.015	-1.229	-0.353	0.044	-0.032	-62.500
-0.108	0.476	0.311	0.072	-0.228	-0.193	-0.084	0.094	-0.133	-0.190	0.171	-0.319	0.051	0.112	0.289	0.341	0.390	0.032	0.452	0.309	-0.119	0.380	-0.297	-0.104	-1.159	-0.399	-0.071	-0.068	-58.594
0.096	0.338	0.314	-0.016	-0.289	-0.294	-0.275	-0.050	-0.184	-0.329	0.182	-0.367	-0.056	0.079	0.418	0.464	0.510	0.126	0.429	0.411	-0.132	0.364	-0.095	-0.201	-1.034	-0.402	-0.159	-0.078	-54.688
0.296	0.177	0.337	-0.128	-0.370	-0.377	-0.462	-0.190	-0.241	-0.467	0.138	-0.413	-0.169	0.019	0.540	0.546	0.639	0.198	0.399	0.465	-0.168	0.329	0.122	-0.280	-0.880	-0.373	-0.221	-0.067	-50.781
0.472	0.035	0.383	-0.247	-0.471	-0.440	-0.634	-0.311	-0.306	-0.598	0.043	-0.453	-0.283	-0.070	0.656	0.579	0.781	0.249	0.372	0.466	-0.232	0.269	0.326	-0.339	-0.717	-0.319	-0.261	-0.040	-46.875
0.599	-0.058	0.444	-0.361	-0.586	-0.487	-0.779	-0.399	-0.371	-0.707	-0.081	-0.481	-0.392	-0.183	0.762	0.559	0.923	0.283	0.352	0.411	-0.325	0.172	0.492	-0.380	-0.552	-0.250	-0.276	0.002	-42.969
0.653	-0.095	0.504	-0.463	-0.711	-0.523	-0.884	-0.438	-0.424	-0.783	-0.204	-0.483	-0.485	-0.313	0.848	0.479	1.036	0.308	0.335	0.300	-0.447	0.031	0.602	-0.397	-0.379	-0.166	-0.261	0.059	-39.062
0.624	-0.090	0.542	-0.557	-0.838	-0.555	-0.939	-0.417	-0.445	-0.811	-0.290	-0.445	-0.554	-0.448	0.901	0.339	1.088	0.327	0.311	0.137	-0.595	-0.157	0.649	-0.385	-0.189	-0.066	-0.210	0.135	-35.156
0.513	-0.073	0.539	-0.647	-0.959	-0.586	-0.939	-0.331	-0.416	-0.781	-0.308	-0.352	-0.595	-0.577	0.912	0.143	1.049	0.336	0.266	-0.066	-0.762	-0.383	0.635	-0.344	0.031	0.054	-0.117	0.236	-31.250
0.339	-0.079	0.482	-0.740	-1.065	-0.617	-0.887	-0.186	-0.325	-0.694	-0.239	-0.201	-0.606	-0.691	0.876	-0.094	0.906	0.324	0.191	-0.297	-0.942	-0.633	0.568	-0.275	0.283	0.194	0.017	0.364	-27.344
0.135	-0.131	0.372	-0.836	-1.151	-0.639	-0.794	0.005	-0.174	-0.559	-0.084	0.001	-0.596	-0.787	0.800	-0.349	0.668	0.275	0.082	-0.536	-1.127	-0.882	0.466	-0.189	0.556	0.353	0.183	0.514	-23.438
-0.060	-0.233	0.225	-0.929	-1.212	-0.643	-0.677	0.221	0.024	-0.395	0.137	0.229	-0.576	-0.867	0.699	-0.591	0.368	0.174	-0.056	-0.766	-1.311	-1.104	0.348	-0.100	0.830	0.518	0.362	0.675	-19.531
-0.208	-0.369	0.067	-1.006	-1.250	-0.617	-0.556	0.435	0.239	-0.229	0.381	0.450	-0.561	-0.935	0.592	-0.792	0.056	0.013	-0.207	-0.969	-1.489	-1.273	0.239	-0.026	1.076	0.675	0.532	0.831	-15.625
-0.279	-0.504	-0.067	-1.052	-1.266	-0.554	-0.454	0.621	0.436	-0.094	0.600	0.627	-0.566	-0.999	0.499	-0.926	-0.214	-0.202	-0.350	-1.131	-1.653	-1.369	0.164	0.019	1.265	0.806	0.669	0.964	-11.719
-0.264	-0.603	-0.150	-1.054	-1.266	-0.454	-0.388	0.761	0.580	-0.015	0.743	0.727	-0.601	-1.064	0.432	-0.981	-0.396	-0.450	-0.465	-1.245	-1.799	-1.382	0.143	0.025	1.375	0.898	0.754	1.059	-7.812
-0.169	-0.637	-0.163	-1.006	-1.256	-0.323	-0.369	0.843	0.647	-0.010	0.776	0.732	-0.671	-1.130	0.396	-0.959	-0.468	-0.702	-0.529	-1.308	-1.922	-1.315	0.190	-0.007	1.396	0.941	0.774	1.105	-3.906
-0.018	-0.593	-0.100	-0.911	-1.239	-0.175	-0.400	0.869	0.628	-0.086	0.688	0.640	-0.771	-1.196	0.386	-0.873	-0.432	-0.920	-0.534	-1.326	-2.014	-1.178	0.307	-0.073	1.332	0.932	0.731	1.099	0.000
0.156	-0.483	0.030	-0.784	-1.219	-0.024	-0.477	0.850	0.532	-0.234	0.492	0.469	-0.895	-1.257	0.395	-0.748	-0.309	-1.069	-0.476	-1.306	-2.074	-0.995	0.485	-0.162	1.194	0.873	0.629	1.043	3.906
0.321	-0.333	0.207	-0.640	-1.198	0.112	-0.587	0.807	0.384	-0.436	0.227	0.252	-1.029	-1.310	0.413	-0.609	-0.136	-1.123	-0.367	-1.259	-2.098	-0.792	0.705	-0.264	1.004	0.769	0.483	0.944	7.812
0.453	-0.174	0.406	-0.497	-1.174	0.220	-0.717	0.757	0.218	-0.666	-0.058	0.024	-1.159	-1.350	0.438	-0.481	0.051	-1.072	-0.223	-1.194	-2.089	-0.597	0.941	-0.371	0.780	0.627	0.306	0.812	11.719
0.541	-0.033	0.606	-0.368	-1.146	0.294	-0.849	0.717	0.064	-0.896	-0.309	-0.179	-1.272	-1.380	0.471	-0.377	0.226	-0.918	-0.067	-1.121	-2.053	-0.433	1.164	-0.479	0.543	0.452	0.112	0.654	15.625
0.584	0.074	0.787	-0.255	-1.113	0.333	-0.969	0.694	-0.055	-1.101	-0.485	-0.331	-1.360	-1.403	0.516	-0.301	0.373	-0.680	0.077	-1.044	-1.999	-0.318	1.349	-0.587	0.305	0.249	-0.087	0.480	19.531
0.593	0.152	0.937	-0.156	-1.075	0.344	-1.064	0.689	-0.129	-1.263	-0.567	-0.423	-1.417	-1.424	0.581	-0.246	0.493	-0.387	0.191	-0.966	-1.936	-0.262	1.478	-0.695	0.078	0.028	-0.282	0.298	23.438
0.581	0.214	1.052	-0.063	-1.033	0.335	-1.125	0.694	-0.161	-1.370	-0.557	-0.457	-1.445	-1.450	0.668	-0.200	0.592	-0.076	0.260	-0.892	-1.878	-0.267	1.541	-0.805	-0.128	-0.201	-0.464	0.119	27.344
0.558	0.279	1.130	0.029	-0.992	0.317	-1.147	0.702	-0.161	-1.415	-0.475	-0.448	-1.449	-1.488	0.778	-0.151	0.676	0.211	0.274	-0.827	-1.834	-0.331	1.540	-0.914	-0.302	-0.417	-0.619	-0.042	31.250
0.533	0.357	1.175	0.124	-0.960	0.296	-1.127	0.708	-0.136	-1.398	-0.352	-0.415	-1.440	-1.541	0.902	-0.094	0.744	0.435	0.227	-0.781	-1.814	-0.448	1.482	-1.015	-0.432	-0.593	-0.732	-0.169	35.156
0.504	0.446	1.195	0.214	-0.947	0.275	-1.066	0.710	-0.092	-1.323	-0.217	-0.375	-1.431	-1.613	1.027	-0.035	0.787	0.561	0.117	-0.768	-1.827	-0.610	1.379	-1.099	-0.502	-0.696	-0.783	-0.240	39.062
0.465	0.529	1.193	0.285	-0.965	0.251	-0.969	0.715	-0.021	-1.196	-0.092	-0.340	-1.441	-1.708	1.138	0.011	0.788	0.568	-0.054	-0.805	-1.880	-0.811	1.248	-1.153	-0.491	-0.691	-0.752	-0.236	42.969
0.407	0.574	1.176	0.319	-1.023	0.217	-0.846	0.735	0.089	-1.029	0.014	-0.316	-1.485	-1.827	1.218	0.021	0.727	0.451	-0.280	-0.906	-1.976	-1.039	1.105	-1.165	-0.382	-0.550	-0.620	-0.139	46.875
0.323	0.544	1.144	0.295	-1.129	0.163	-0.711	0.787	0.252	-0.836	0.103	-0.304	-1.580	-1.972	1.254	-0.030	0.590	0.225	-0.551	-1.081	-2.120	-1.281	0.967	-1.123	-0.159	-0.253	-0.377	0.057	50.781
0.211	0.407	1.097	0.198	-1.285	0.081	-0.582	0.887	0.483	-0.636	0.182	-0.302	-1.738	-2.144	1.235	-0.162	0.373	-0.078	-0.852	-1.333	-2.310	-1.522	0.851	-1.023	0.183	0.200	-0.025	0.352	54.688
0.077	0.149	1.034	0.019	-1.490	-0.035	-0.480	1.052	0.787	-0.452	0.266	-0.309	-1.966	-2.343	1.156	-0.382	0.087	-0.414	-1.166	-1.656	-2.540	-1.743	0.769	-0.866	0.636	0.793	0.419	0.731	58.594
-0.063	-0.224	0.950	-0.236	-1.735	-0.182	-0.423	1.291	1.163	-0.302	0.367	-0.324	-2.260	-2.567	1.015	-0.684	-0.246	-0.737	-1.476	-2.031	-2.803	-1.929	0.731	-0.664	1.177	1.492	0.928	1.171	62.500
-0.189	-0.681	0.841	-0.550	-2.004	-0.352	-0.424	1.607	1.598	-0.202	0.495	-0.347	-2.609	-2.811	0.818	-1.048	-0.595	-1.008	-1.769	-2.435	-3.086	-2.072	0.734	-0.437	1.772	2.247	1.461	1.645	66.406
-0.279	-1.168	0.706	-0.898	-2.280	-0.532	-0.486	1.996	2.077	-0.157	0.657	-0.375	-2.992	-3.066	0.574	-1.442	-0.932	-1.204	-2.039	-2.842	-3.374	-2.174	0.766	-0.209	2.377	3.001	1.972	2.120	70.312
-0.320	-1.625	0.548	-1.247	-2.542	-0.703	-0.601	2.444	2.578	-0.164	0.855	-0.404	-3.379	-3.323	0.300	-1.832	-1.232	-1.315	-2.285	-3.223	-3.652	-2.246	0.807	-0.009	2.947	3.696	2.414	2.565	74.219
-0.313	-1.995	0.372	-1.564	-2.770	-0.850	-0.751	2.930	3.080	-0.205	1.090	-0.428	-3.734	-3.565	0.017	-2.188	-1.484	-1.353	-2.512	-3.556	-3.904	-2.304	0.831	0.140	3.439	4.277	2.751	2.955	78.125
-0.272	-2.241	0.190	-1.824	-2.949	-0.961	-0.909	3.429	3.562	-0.257	1.353	-0.433	-4.019	-3.775	-0.250	-2.489	-1.691	-1.337	-2.723	-3.824	-4.117	-2.362	0.819	0.222	3.816	4.705	2.957	3.270	82.031
-0.228	-2.353	0.015	-2.013	-3.071	-1.032	-1.042	3.906	3.999	-0.294	1.634	-0.407	-4.194	-3.933	-0.474	-2.723	-1.864	-1.295	-2.920	-4.018	-4.276	-2.429	0.760	0.234	4.052	4.952	3.026	3.500	85.938
-0.218	-2.352	-0.143	-2.129	-3.131	-1.065	-1.121	4.322	4.365	-0.292	1.916	-0.333	-4.226	-4.017	-0.635	-2.893	-2.021	-1.253	-3.097	-4.135	-4.371	-2.499	0.659	0.185	4.129	5.009	2.970	3.642	89.844
-0.276	-2.285	-0.277	-2.184	-3.132	-1.068	-1.121	4.638	4.633	-0.233	2.183	-0.198	-4.091	-4.006	-0.720	-3.006	-2.178	-1.228	-3.243	-4.176	-4.390	-2.559	0.532	0.097	4.043	4.884	2.817	3.706	93.750
-0.427	-2.208	-0.384	-2.192	-3.080	-1.053	-1.024	4.816	4.776	-0.110	2.419	0.007	-3.778	-3.885	-0.729	-3.072	-2.347	-1.228	-3.347	-4.145	-4.326	-2.590	0.405	-0.004	3.797	4.594	2.603	3.703	97.656
-0.671	-2.174	-0.468	-2.173	-2.980	-1.030	-0.825	4.824	4.769	0.073	2.611	0.286	-3.291	-3.645	-0.674	-3.100	-2.527	-1.252	-3.393	-4.043	-4.170	-2.574	0.308	-0.091	3.403	4.164	2.364	3.650	101.562
-0.990	-2.217	-0.534	-2.136	-2.833	-1.005	-0.527	4.641	4.598	0.303	2.750	0.630	-2.653	-3.285	-0.576	-3.088	-2.705	-1.289	-3.372	-3.866	-3.919	-2.496	0.264	-0.146	2.878	3.618	2.128	3.563	105.469
-1.340	-2.343	-0.586	-2.080	-2.639	-0.980	-0.150	4.257	4.256	0.555	2.829	1.019	-1.902	-2.814	-0.459	-3.028	-2.854	-1.321	-3.276	-3.609	-3.570	-2.351	0.290	-0.158	2.239	2.978	1.908	3.451	109.375
-1.667	-2.525	-0.624	-1.993	-2.392	-0.950	0.282	3.679	3.749	0.800	2.841	1.423	-1.089	-2.252	-0.346	-2.903	-2.937	-1.333	-3.102	-3.263	-3.126	-2.140	0.391	-0.130	1.503	2.259	1.705	3.316	113.281
-1.917	-2.715	-0.642	-1.854	-2.087	-0.906	0.732	2.930	3.095	1.006	2.775	1.800	-0.271	-1.625	-0.252	-2.696	-2.914	-1.307	-2.853	-2.822	-2.594	-1.873	0.566	-0.074	0.685	1.475	1.504	3.152	117.188
-2.046	-2.851	-0.629	-1.641	-1.724	-0.841	1.167	2.046	2.325	1.147	2.625	2.108	0.497	-0.965	-0.184	-2.392	-2.751	-1.230	-2.533	-2.289	-1.989	-1.563	0.804	-0.009	-0.196	0.638	1.289	2.948	121.094
-2.035	-2.875	-0.575	-1.337	-1.312	-0.748	1.552	1.077	1.482	1.205	2.388	2.311	1.164	-0.306	-0.142	-1.989	-2.430	-1.094	-2.154	-1.675	-1.332	-1.229	1.093	0.048	-1.120	-0.231	1.042	2.694	125.000
-1.890	-2.750	-0.474	-0.942	-0.870	-0.630	1.861	0.083	0.618	1.180	2.074	2.387	1.694	0.313	-0.118	-1.502	-1.959	-0.896	-1.732	-1.010	-0.658	-0.890	1.419	0.081	-2.055	-1.104	0.758	2.385	128.906
-1.645	-2.466	-0.327	-0.475	-0.426	-0.497	2.082	-0.876	-0.210	1.088	1.708	2.337	2.065	0.861	-0.103	-0.963	-1.372	-0.643	-1.288	-0.335	-0.005	-0.568	1.767	0.083	-2.964	-1.943	0.445	2.032	132.812
-1.351	-2.050	-0.144	0.027	-0.014	-0.360	2.214	-1.738	-0.947	0.961	1.327	2.182	2.272	1.307	-0.091	-0.421	-0.728	-0.352	-0.851	0.299	0.582	-0.284	2.121	0.054	-3.799	-2.697	0.127	1.655	136.719
-1.069	-1.557	0.057	0.513	0.332	-0.236	2.271	-2.451	-1.540	0.839	0.979	1.967	2.326	1.630	-0.078	0.065	-0.103	-0.049	-0.455	0.836	1.060	-0.059	2.463	0.003	-4.509	-3.313	-0.160	1.291	140.625
-0.855	-1.068	0.250	0.926	0.586	-0.136	2.278	-2.974	-1.951	0.769	0.713	1.746	2.251	1.815	-0.067	0.433	0.423	0.229	-0.140	1.220	1.390	0.090	2.773	-0.055	-5.045	-3.739	-0.375	0.985	144.531
-0.753	-0.671	0.408	1.214	0.731	-0.065	2.273	-3.276	-2.150	0.793	0.574	1.579	2.080	1.855	-0.068	0.627	0.773	0.447	0.053	1.407	1.541	0.148	3.031	-0.101	-5.365	-3.933	-0.475	0.783	148.438
-0.790	-0.448	0.506	1.338	0.763	-0.021	2.292	-3.343	-2.124	0.943	0.595	1.517	1.847	1.754	-0.096	0.603	0.886	0.572	0.085	1.363	1.497	0.106	3.218	-0.117	-5.443	-3.869	-0.426	0.725	152.344
-0.969	-0.461	0.525	1.277	0.688	0.004	2.371	-3.171	-1.874	1.238	0.793	1.594	1.588	1.522	-0.170	0.337	0.727	0.583	-0.074	1.075	1.257	-0.037	3.320	-0.087	-5.267	-3.540	-0.209	0.837	156.250
-1.279	-0.743	0.450	1.032	0.522	0.023	2.537	-2.769	-1.412	1.681	1.164	1.823	1.335	1.177	-0.311	-0.174	0.292	0.474	-0.437	0.548	0.834	-0.274	3.334	0.002	-4.849	-2.965	0.180	1.127	160.156
-1.688	-1.290	0.276	0.622	0.282	0.044	2.804	-2.159	-0.760	2.259	1.686	2.191	1.113	0.742	-0.538	-0.910	-0.395	0.252	-0.995	-0.194	0.255	-0.590	3.268	0.154	-4.215	-2.180	0.727	1.581	164.062
-2.158	-2.065	0.007	0.082	-0.013	0.072	3.170	-1.372	0.051	2.943	2.321	2.666	0.938	0.244	-0.864	-1.831	-1.280	-0.058	-1.718	-1.112	-0.445	-0.966	3.139	0.367	-3.408	-1.237	1.400	2.166	167.969
-2.651	-3.006	-0.346	-0.546	-0.346	0.108	3.620	-0.450	0.985	3.699	3.029	3.203	0.819	-0.287	-1.289	-2.885	-2.289	-0.424	-2.556	-2.155	-1.223	-1.377	2.974	0.633	-2.481	-0.198	2.160	2.835	171.875
-3.133	-4.039	-0.767	-1.221	-0.703	0.144	4.129	0.555	2.003	4.484	3.767	3.755	0.755	-0.821	-1.803	-4.011	-3.342	-0.810	-3.447	-3.267	-2.035	-1.800	2.801	0.938	-1.493	0.876	2.961	3.538	175.781
-3.584	-5.090	-1.232	-1.905	-1.069	0.172	4.663	1.588	3.063	5.261	4.502	4.279	0.738	-1.332	-2.380	-5.149	-4.363	-1.184	-4.328	-4.393	-2.840	-2.213	2.645	1.266	-0.501	1.930	3.758	4.229	179.688
-3.993	-6.097	-1.717	-2.567	-1.431	0.182	5.194	2.595	4.128	5.997	5.208	4.745	0.757	-1.794	-2.982	-6.246	-5.293	-1.524	-5.142	-5.479	-3.598	-2.600	2.523	1.600	0.443	2.919	4.514	4.870	183.594
-4.362	-7.016	-2.198	-3.187	-1.774	0.167	5.692	3.524	5.158	6.666	5.869	5.140	0.797	-2.186	-3.567	-7.257	-6.096	-1.822	-5.846	-6.479	-4.277	-2.949	2.444	1.926	1.299	3.816	5.202	5.439	187.500
-4.696	-7.817	-2.658	-3.749	-2.082	0.125	6.139	4.336	6.118	7.251	6.470	5.460	0.845	-2.495	-4.090	-8.150	-6.761	-2.087	-6.415	-7.357	-4.851	-3.254	2.409	2.234	2.043	4.604	5.809	5.928	191.406
-5.004	-8.489	-3.084	-4.244	-2.343	0.055	6.522	5.004	6.976	7.743	7.000	5.715	0.887	-2.710	-4.518	-8.907	-7.299	-2.335	-6.845	-8.085	-5.300	-3.512	2.416	2.519	2.667	5.284	6.329	6.341	195.312
-5.289	-9.027	-3.471	-4.665	-2.546	-0.037	6.835	5.514	7.704	8.136	7.444	5.917	0.914	-2.828	-4.830	-9.520	-7.735	-2.592	-7.144	-8.648	-5.614	-3.721	2.462	2.781	3.177	5.864	6.769	6.690	199.219
-5.554	-9.437	-3.822	-5.006	-2.684	-0.143	7.078	5.866	8.285	8.425	7.790	6.078	0.921	-2.851	-5.025	-9.990	-8.100	-2.875	-7.332	-9.042	-5.786	-3.883	2.543	3.024	3.588	6.356	7.137	6.988	203.125
-5.796	-9.726	-4.142	-5.265	-2.759	-0.254	7.251	6.071	8.707	8.612	8.026	6.206	0.904	-2.784	-5.117	-10.327	-8.419	-3.197	-7.433	-9.271	-5.821	-3.998	2.661	3.250	3.919	6.771	7.442	7.246	207.031
-6.012	-9.909	-4.439	-5.442	-2.776	-0.362	7.360	6.150	8.971	8.696	8.147	6.302	0.866	-2.638	-5.133	-10.543	-8.700	-3.557	-7.466	-9.349	-5.727	-4.065	2.816	3.463	4.186	7.114	7.690	7.465	210.938
-6.195	-10.004	-4.718	-5.538	-2.748	-0.461	7.407	6.125	9.088	8.684	8.155	6.357	0.812	-2.424	-5.107	-10.650	-8.939	-3.941	-7.442	-9.293	-5.516	-4.081	3.010	3.661	4.404	7.384	7.883	7.638	214.844
-6.339	-10.033	-4.981	-5.562	-2.687	-0.548	7.399	6.022	9.076	8.583	8.059	6.360	0.749	-2.157	-5.067	-10.657	-9.112	-4.329	-7.363	-9.118	-5.205	-4.040	3.240	3.842	4.579	7.572	8.017	7.750	218.750
-6.437	-10.015	-5.225	-5.523	-2.611	-0.627	7.340	5.859	8.957	8.404	7.870	6.296	0.686	-1.848	-5.037	-10.570	-9.187	-4.696	-7.226	-8.840	-4.810	-3.938	3.496	4.002	4.712	7.670	8.089	7.781	222.656
-6.479	-9.964	-5.441	-5.431	-2.530	-0.706	7.236	5.651	8.753	8.161	7.600	6.148	0.633	-1.511	-5.026	-10.386	-9.135	-5.016	-7.023	-8.465	-4.347	-3.765	3.765	4.135	4.799	7.668	8.092	7.711	226.562
-6.461	-9.878	-5.619	-5.292	-2.454	-0.797	7.094	5.404	8.480	7.867	7.256	5.905	0.599	-1.154	-5.032	-10.102	-8.934	-5.268	-6.749	-8.000	-3.829	-3.519	4.026	4.240	4.835	7.565	8.024	7.528	230.469
-6.378	-9.748	-5.750	-5.110	-2.385	-0.911	6.923	5.118	8.150	7.537	6.844	5.558	0.596	-0.787	-5.042	-9.712	-8.582	-5.436	-6.403	-7.448	-3.271	-3.203	4.257	4.317	4.818	7.367	7.886	7.232	234.375
-6.233	-9.555	-5.825	-4.887	-2.321	-1.056	6.733	4.790	7.774	7.183	6.367	5.110	0.632	-0.416	-5.037	-9.213	-8.095	-5.510	-5.993	-6.813	-2.688	-2.826	4.434	4.371	4.749	7.088	7.683	6.836	238.281
-6.035	-9.282	-5.841	-4.623	-2.256	-1.235	6.535	4.418	7.359	6.820	5.829	4.572	0.714	-0.049	-4.999	-8.610	-7.509	-5.489	-5.533	-6.110	-2.097	-2.408	4.541	4.408	4.634	6.749	7.425	6.364	242.188
-5.800	-8.918	-5.804	-4.322	-2.184	-1.442	6.341	4.005	6.914	6.461	5.241	3.965	0.845	0.308	-4.910	-7.919	-6.871	-5.375	-5.042	-5.358	-1.514	-1.974	4.567	4.436	4.485	6.372	7.125	5.847	246.094
-5.546	-8.470	-5.721	-3.992	-2.100	-1.668	6.164	3.561	6.451	6.118	4.618	3.316	1.022	0.648	-4.763	-7.164	-6.228	-5.172	-4.537	-4.585	-0.959	-1.547	4.515	4.463	4.316	5.979	6.798	5.316	250.000
-5.291	-7.957	-5.606	-3.644	-2.001	-1.895	6.011	3.100	5.983	5.802	3.978	2.658	1.238	0.961	-4.561	-6.379	-5.619	-4.885	-4.033	-3.822	-0.446	-1.149	4.396	4.491	4.139	5.586	6.455	4.797	253.906
-5.046	-7.408	-5.474	-3.292	-1.890	-2.110	5.890	2.642	5.522	5.522	3.341	2.018	1.477	1.240	-4.316	-5.599	-5.067	-4.522	-3.537	-3.099	0.012	-0.790	4.235	4.523	3.964	5.202	6.106	4.305	257.812
-4.813	-6.854	-5.341	-2.950	-1.770	-2.297	5.802	2.207	5.079	5.280	2.725	1.421	1.722	1.479	-4.050	-4.855	-4.578	-4.097	-3.050	-2.439	0.408	-0.470	4.061	4.556	3.795	4.830	5.757	3.847	261.719
-4.589	-6.321	-5.218	-2.626	-1.645	-2.447	5.747	1.812	4.663	5.078	2.144	0.881	1.954	1.674	-3.790	-4.176	-4.142	-3.633	-2.572	-1.856	0.744	-0.183	3.908	4.588	3.626	4.471	5.417	3.422	265.625
-4.368	-5.828	-5.116	-2.325	-1.517	-2.555	5.724	1.469	4.280	4.915	1.609	0.406	2.158	1.828	-3.561	-3.580	-3.741	-3.168	-2.100	-1.356	1.023	0.083	3.807	4.620	3.452	4.123	5.094	3.025	269.531
-4.145	-5.385	-5.042	-2.047	-1.388	-2.618	5.731	1.186	3.935	4.788	1.127	-0.001	2.326	1.948	-3.386	-3.079	-3.361	-2.747	-1.637	-0.936	1.256	0.340	3.778	4.652	3.265	3.792	4.801	2.656	273.438
-3.919	-4.990	-5.003	-1.790	-1.257	-2.638	5.766	0.966	3.636	4.698	0.711	-0.342	2.454	2.045	-3.278	-2.675	-2.994	-2.419	-1.189	-0.592	1.451	0.589	3.830	4.690	3.063	3.481	4.552	2.314	277.344
-3.696	-4.639	-5.002	-1.548	-1.122	-2.623	5.830	0.808	3.391	4.647	0.373	-0.621	2.548	2.128	-3.244	-2.362	-2.646	-2.226	-0.772	-0.316	1.618	0.827	3.958	4.737	2.847	3.198	4.362	2.006	281.250
-3.484	-4.322	-5.042	-1.322	-0.983	-2.580	5.924	0.711	3.211	4.640	0.127	-0.841	2.618	2.208	-3.277	-2.129	-2.331	-2.196	-0.403	-0.101	1.761	1.040	4.141	4.799	2.627	2.953	4.240	1.739	285.156
-3.294	-4.029	-5.120	-1.110	-0.835	-2.519	6.050	0.671	3.102	4.679	-0.017	-1.008	2.676	2.291	-3.360	-1.960	-2.068	-2.332	-0.099	0.060	1.886	1.208	4.350	4.875	2.416	2.747	4.189	1.519	289.062
-3.134	-3.753	-5.231	-0.915	-0.678	-2.449	6.204	0.680	3.065	4.766	-0.059	-1.132	2.733	2.383	-3.471	-1.834	-1.871	-2.611	0.125	0.177	1.995	1.315	4.551	4.964	2.227	2.582	4.202	1.349	292.969
-3.005	-3.487	-5.363	-0.741	-0.507	-2.376	6.383	0.730	3.092	4.896	-0.012	-1.223	2.796	2.485	-3.581	-1.731	-1.749	-2.990	0.266	0.261	2.091	1.348	4.718	5.059	2.072	2.451	4.265	1.227	296.875
-2.900	-3.232	-5.502	-0.593	-0.320	-2.303	6.580	0.811	3.165	5.058	0.099	-1.294	2.869	2.593	-3.670	-1.631	-1.697	-3.409	0.326	0.323	2.179	1.309	4.829	5.151	1.952	2.346	4.360	1.144	300.781
-2.807	-2.992	-5.631	-0.472	-0.117	-2.231	6.784	0.911	3.261	5.237	0.242	-1.355	2.948	2.703	-3.721	-1.522	-1.699	-3.807	0.318	0.373	2.261	1.206	4.875	5.231	1.864	2.254	4.463	1.088	304.688
-2.707	-2.775	-5.737	-0.381	0.098	-2.157	6.983	1.022	3.359	5.414	0.384	-1.418	3.025	2.808	-3.734	-1.398	-1.733	-4.127	0.263	0.418	2.340	1.061	4.859	5.290	1.797	2.168	4.554	1.043	308.594
-2.585	-2.588	-5.806	-0.321	0.319	-2.079	7.166	1.139	3.439	5.574	0.498	-1.489	3.087	2.898	-3.716	-1.260	-1.770	-4.329	0.181	0.459	2.412	0.900	4.790	5.322	1.739	2.079	4.613	0.997	312.500
-2.427	-2.437	-5.826	-0.287	0.532	-1.994	7.322	1.257	3.493	5.704	0.566	-1.571	3.121	2.963	-3.683	-1.115	-1.789	-4.389	0.096	0.496	2.474	0.748	4.681	5.320	1.678	1.984	4.628	0.942	316.406
-2.224	-2.321	-5.793	-0.274	0.725	-1.903	7.443	1.372	3.517	5.796	0.583	-1.660	3.116	2.992	-3.654	-0.975	-1.772	-4.311	0.025	0.522	2.516	0.628	4.545	5.284	1.608	1.885	4.589	0.874	320.312
-1.974	-2.235	-5.704	-0.274	0.883	-1.810	7.523	1.482	3.518	5.848	0.554	-1.750	3.063	2.977	-3.643	-0.850	-1.712	-4.119	-0.020	0.533	2.532	0.556	4.390	5.215	1.527	1.787	4.495	0.796	324.219
-1.683	-2.167	-5.564	-0.273	0.997	-1.717	7.561	1.583	3.507	5.863	0.496	-1.830	2.961	2.912	-3.655	-0.749	-1.612	-3.853	-0.031	0.526	2.518	0.539	4.218	5.114	1.437	1.692	4.347	0.713	328.125
-1.360	-2.102	-5.383	-0.260	1.062	-1.628	7.559	1.671	3.498	5.851	0.431	-1.889	2.813	2.796	-3.685	-0.676	-1.486	-3.566	-0.009	0.502	2.472	0.576	4.023	4.985	1.343	1.603	4.151	0.633	332.031
-1.024	-2.028	-5.175	-0.221	1.084	-1.544	7.522	1.743	3.503	5.819	0.384	-1.913	2.624	2.633	-3.712	-0.626	-1.349	-3.308	0.042	0.465	2.399	0.657	3.802	4.827	1.246	1.515	3.915	0.561	335.938
-0.696	-1.936	-4.959	-0.147	1.073	-1.464	7.456	1.796	3.526	5.779	0.374	-1.894	2.405	2.432	-3.711	-0.595	-1.223	-3.120	0.112	0.426	2.309	0.770	3.548	4.642	1.148	1.423	3.647	0.500	339.844
-0.401	-1.829	-4.751	-0.035	1.044	-1.386	7.365	1.825	3.566	5.735	0.412	-1.826	2.165	2.205	-3.655	-0.572	-1.126	-3.023	0.191	0.396	2.216	0.895	3.265	4.429	1.050	1.320	3.359	0.452	343.750
-0.161	-1.713	-4.566	0.115	1.015	-1.305	7.254	1.828	3.611	5.688	0.493	-1.713	1.915	1.970	-3.525	-0.549	-1.073	-3.019	0.268	0.388	2.135	1.016	2.960	4.191	0.952	1.206	3.067	0.420	347.656
0.010	-1.605	-4.415	0.291	1.000	-1.219	7.121	1.804	3.646	5.632	0.600	-1.563	1.660	1.743	-3.315	-0.517	-1.074	-3.091	0.333	0.414	2.081	1.116	2.651	3.938	0.858	1.089	2.789	0.408	351.562
0.106	-1.518	-4.304	0.482	1.008	-1.127	6.962	1.753	3.655	5.556	0.707	-1.399	1.406	1.543	-3.038	-0.471	-1.127	-3.207	0.383	0.485	2.065	1.184	2.363	3.680	0.772	0.984	2.544	0.420	355.469
0.135	-1.462	-4.236	0.672	1.043	-1.033	6.771	1.675	3.625	5.446	0.778	-1.252	1.157	1.383	-2.723	-0.403	-1.218	-3.324	0.420	0.609	2.097	1.219	2.124	3.436	0.698	0.912	2.353	0.461	359.375
0.113	-1.439	-4.213	0.850	1.104	-0.941	6.545	1.572	3.547	5.286	0.778	-1.162	0.914	1.277	-2.411	-0.310	-1.322	-3.399	0.456	0.795	2.185	1.229	1.962	3.226	0.642	0.893	2.234	0.525	363.281
0.059	-1.443	-4.233	1.010	1.189	-0.859	6.281	1.448	3.421	5.066	0.676	-1.174	0.682	1.237	-2.146	-0.183	-1.407	-3.396	0.507	1.052	2.335	1.232	1.897	3.069	0.605	0.938	2.194	0.601	367.188
-0.011	-1.463	-4.289	1.151	1.293	-0.793	5.988	1.308	3.254	4.785	0.453	-1.327	0.468	1.271	-1.967	-0.018	-1.444	-3.299	0.586	1.383	2.554	1.251	1.941	2.980	0.589	1.046	2.233	0.663	371.094
-0.090	-1.483	-4.371	1.277	1.414	-0.745	5.683	1.159	3.061	4.452	0.111	-1.643	0.284	1.385	-1.902	0.187	-1.413	-3.114	0.703	1.791	2.847	1.308	2.088	2.964	0.590	1.201	2.336	0.683	375.000
-0.179	-1.491	-4.463	1.396	1.552	-0.713	5.394	1.013	2.864	4.094	-0.326	-2.115	0.147	1.582	-1.965	0.424	-1.318	-2.877	0.854	2.266	3.215	1.416	2.317	3.019	0.599	1.372	2.480	0.634	378.906
-0.286	-1.477	-4.550	1.514	1.706	-0.689	5.156	0.877	2.686	3.754	-0.806	-2.698	0.077	1.860	-2.152	0.679	-1.178	-2.646	1.024	2.785	3.652	1.575	2.593	3.132	0.601	1.520	2.636	0.497	382.812
-0.424	-1.442	-4.617	1.633	1.873	-0.663	5.007	0.759	2.549	3.485	-1.257	-3.313	0.101	2.210	-2.440	0.925	-1.033	-2.488	1.186	3.314	4.142	1.771	2.876	3.280	0.576	1.599	2.772	0.270	386.719
-0.599	-1.393	-4.656	1.749	2.051	-0.627	4.982	0.660	2.464	3.343	-1.598	-3.852	0.240	2.617	-2.797	1.129	-0.924	-2.459	1.309	3.811	4.663	1.978	3.123	3.434	0.497	1.568	2.862	-0.030	390.625
-0.808	-1.345	-4.667	1.853	2.230	-0.574	5.102	0.573	2.434	3.377	-1.755	-4.206	0.513	3.059	-3.182	1.262	-0.890	-2.592	1.366	4.231	5.182	2.165	3.298	3.564	0.342	1.394	2.887	-0.370	394.531
-1.044	-1.312	-4.654	1.934	2.405	-0.507	5.374	0.485	2.449	3.617	-1.676	-4.280	0.925	3.514	-3.551	1.299	-0.953	-2.881	1.344	4.540	5.671	2.310	3.375	3.643	0.088	1.059	2.835	-0.713	398.438
-1.286	-1.304	-4.621	1.989	2.572	-0.427	5.780	0.379	2.488	4.061	-1.351	-4.030	1.465	3.962	-3.868	1.235	-1.113	-3.284	1.245	4.722	6.103	2.399	3.345	3.649	-0.275	0.559	2.696	-1.027	402.344
-1.516	-1.321	-4.567	2.019	2.733	-0.342	6.284	0.237	2.522	4.671	-0.813	-3.471	2.102	4.386	-4.101	1.087	-1.350	-3.728	1.090	4.788	6.468	2.439	3.217	3.567	-0.745	-0.093	2.461	-1.295	406.250
-1.713	-1.352	-4.485	2.038	2.898	-0.252	6.832	0.048	2.519	5.371	-0.145	-2.686	2.783	4.777	-4.229	0.892	-1.622	-4.125	0.919	4.775	6.770	2.453	3.016	3.392	-1.306	-0.875	2.120	-1.525	410.156
-1.863	-1.377	-4.360	2.071	3.085	-0.156	7.358	-0.191	2.450	6.061	0.541	-1.813	3.444	5.134	-4.241	0.707	-1.874	-4.394	0.781	4.740	7.026	2.477	2.788	3.126	-1.928	-1.756	1.654	-1.748	414.062
-1.958	-1.372	-4.176	2.144	3.312	-0.044	7.794	-0.476	2.294	6.624	1.120	-1.015	4.012	5.459	-4.135	0.594	-2.051	-4.471	0.727	4.753	7.268	2.551	2.589	2.775	-2.572	-2.699	1.048	-2.008	417.969
-1.997	-1.316	-3.918	2.283	3.594	0.098	8.076	-0.787	2.040	6.950	1.480	-0.455	4.420	5.755	-3.920	0.606	-2.104	-4.328	0.801	4.872	7.527	2.712	2.477	2.349	-3.195	-3.664	0.288	-2.351	421.875
-1.985	-1.196	-3.579	2.506	3.940	0.283	8.158	-1.101	1.687	6.955	1.535	-0.257	4.619	6.025	-3.614	0.778	-1.998	-3.971	1.031	5.140	7.830	2.982	2.500	1.862	-3.754	-4.611	-0.627	-2.815	425.781
-1.923	-1.011	-3.164	2.817	4.347	0.522	8.012	-1.390	1.243	6.591	1.247	-0.489	4.582	6.269	-3.243	1.117	-1.721	-3.439	1.422	5.569	8.191	3.368	2.690	1.334	-4.214	-5.502	-1.683	-3.413	429.688
-1.817	-0.769	-2.685	3.206	4.801	0.822	7.638	-1.631	0.722	5.856	0.623	-1.151	4.316	6.482	-2.839	1.601	-1.283	-2.791	1.960	6.138	8.607	3.855	3.048	0.785	-4.550	-6.304	-2.847	-4.137	433.594
-1.669	-0.487	-2.164	3.655	5.280	1.179	7.058	-1.807	0.140	4.799	-0.288	-2.176	3.853	6.658	-2.434	2.185	-0.712	-2.091	2.609	6.805	9.060	4.414	3.548	0.238	-4.753	-6.993	-4.067	-4.953	437.500
-1.483	-0.180	-1.626	4.139	5.760	1.581	6.320	-1.912	-0.482	3.507	-1.400	-3.451	3.255	6.795	-2.055	2.810	-0.049	-1.399	3.321	7.507	9.520	5.006	4.144	-0.284	-4.835	-7.561	-5.281	-5.816	441.406
-1.264	0.140	-1.101	4.631	6.213	2.009	5.487	-1.951	-1.124	2.096	-2.608	-4.834	2.595	6.889	-1.722	3.418	0.657	-0.760	4.041	8.184	9.950	5.589	4.773	-0.760	-4.823	-8.011	-6.425	-6.674	445.312
-1.023	0.469	-0.615	5.106	6.617	2.439	4.629	-1.941	-1.761	0.693	-3.801	-6.179	1.951	6.943	-1.444	3.959	1.359	-0.203	4.719	8.779	10.318	6.127	5.376	-1.175	-4.757	-8.362	-7.438	-7.474	449.219
-0.775	0.807	-0.194	5.544	6.956	2.840	3.815	-1.900	-2.367	-0.584	-4.874	-7.360	1.395	6.965	-1.224	4.401	2.015	0.259	5.308	9.254	10.599	6.591	5.901	-1.517	-4.683	-8.636	-8.271	-8.174	453.125
-0.538	1.151	0.142	5.926	7.217	3.185	3.102	-1.851	-2.912	-1.639	-5.742	-8.281	0.976	6.962	-1.055	4.729	2.587	0.620	5.775	9.590	10.778	6.965	6.318	-1.781	-4.643	-8.859	-8.889	-8.737	457.031
-0.333	1.496	0.375	6.239	7.398	3.446	2.529	-1.812	-3.369	-2.412	-6.350	-8.887	0.723	6.947	-0.929	4.945	3.047	0.877	6.099	9.783	10.856	7.242	6.616	-1.968	-4.664	-9.045	-9.279	-9.140	460.938
-0.180	1.825	0.498	6.469	7.496	3.604	2.112	-1.792	-3.718	-2.884	-6.677	-9.166	0.642	6.928	-0.833	5.058	3.373	1.030	6.270	9.847	10.842	7.424	6.797	-2.080	-4.750	-9.197	-9.442	-9.369	464.844
-0.093	2.117	0.509	6.608	7.518	3.649	1.848	-1.795	-3.947	-3.076	-6.738	-9.143	0.715	6.915	-0.760	5.085	3.551	1.079	6.292	9.804	10.756	7.514	6.875	-2.123	-4.889	-9.308	-9.398	-9.420	468.750
-0.083	2.345	0.418	6.649	7.473	3.585	1.713	-1.820	-4.056	-3.041	-6.574	-8.871	0.911	6.912	-0.702	5.043	3.573	1.030	6.175	9.680	10.620	7.523	6.867	-2.105	-5.049	-9.361	-9.179	-9.302	472.656
-0.151	2.490	0.244	6.596	7.371	3.428	1.672	-1.860	-4.061	-2.850	-6.248	-8.425	1.192	6.923	-0.660	4.948	3.447	0.895	5.944	9.505	10.459	7.462	6.787	-2.035	-5.194	-9.336	-8.825	-9.033	476.562
-0.291	2.537	0.014	6.458	7.228	3.202	1.682	-1.907	-3.985	-2.585	-5.832	-7.883	1.514	6.947	-0.638	4.813	3.190	0.697	5.627	9.305	10.291	7.343	6.648	-1.921	-5.288	-9.223	-8.382	-8.645	480.469
-0.484	2.484	-0.243	6.250	7.054	2.938	1.703	-1.956	-3.857	-2.318	-5.396	-7.322	1.837	6.983	-0.645	4.649	2.838	0.468	5.260	9.101	10.132	7.183	6.466	-1.775	-5.306	-9.019	-7.896	-8.176	484.375
-0.706	2.337	-0.497	5.993	6.861	2.662	1.702	-2.004	-3.710	-2.107	-4.996	-6.805	2.126	7.022	-0.690	4.467	2.434	0.249	4.882	8.908	9.989	7.003	6.261	-1.607	-5.236	-8.734	-7.406	-7.670	488.281
-0.924	2.109	-0.723	5.703	6.654	2.395	1.660	-2.050	-3.569	-1.980	-4.671	-6.371	2.355	7.056	-0.779	4.271	2.026	0.077	4.526	8.733	9.860	6.822	6.062	-1.430	-5.079	-8.387	-6.944	-7.165	492.188
-1.109	1.816	-0.908	5.396	6.435	2.147	1.573	-2.097	-3.448	-1.942	-4.433	-6.033	2.505	7.071	-0.912	4.065	1.652	-0.019	4.218	8.572	9.739	6.654	5.900	-1.251	-4.844	-8.001	-6.524	-6.690	496.094
-1.238	1.471	-1.048	5.079	6.199	1.919	1.455	-2.146	-3.351	-1.970	-4.268	-5.779	2.571	7.054	-1.083	3.846	1.335	-0.030	3.966	8.414	9.613	6.508	5.806	-1.078	-4.548	-7.599	-6.152	-6.263	500.000
-1.303	1.088	-1.153	4.755	5.943	1.704	1.329	-2.194	-3.267	-2.022	-4.143	-5.574	2.553	6.991	-1.280	3.607	1.073	0.035	3.763	8.243	9.467	6.379	5.804	-0.916	-4.209	-7.196	-5.816	-5.884	503.906
-1.309	0.680	-1.236	4.423	5.661	1.494	1.228	-2.237	-3.177	-2.051	-4.015	-5.374	2.465	6.872	-1.488	3.339	0.847	0.147	3.588	8.040	9.286	6.255	5.905	-0.766	-3.843	-6.802	-5.501	-5.542	507.812
-1.276	0.259	-1.317	4.081	5.351	1.280	1.179	-2.260	-3.058	-2.014	-3.841	-5.134	2.323	6.695	-1.692	3.031	0.624	0.266	3.414	7.788	9.061	6.118	6.099	-0.630	-3.466	-6.418	-5.186	-5.222	511.719
-1.232	-0.158	-1.411	3.731	5.015	1.061	1.201	-2.249	-2.894	-1.883	-3.592	-4.823	2.149	6.461	-1.883	2.681	0.372	0.351	3.212	7.480	8.788	5.952	6.362	-0.507	-3.092	-6.044	-4.855	-4.906	515.625
-1.204	-0.555	-1.530	3.379	4.663	0.838	1.297	-2.190	-2.675	-1.652	-3.257	-4.430	1.962	6.180	-2.053	2.293	0.070	0.368	2.963	7.119	8.472	5.745	6.652	-0.395	-2.730	-5.675	-4.500	-4.584	519.531
-1.211	-0.911	-1.675	3.031	4.306	0.619	1.449	-2.072	-2.404	-1.338	-2.845	-3.964	1.778	5.866	-2.198	1.880	-0.285	0.303	2.662	6.717	8.124	5.497	6.926	-0.298	-2.393	-5.311	-4.124	-4.250	523.438
-1.260	-1.210	-1.843	2.700	3.956	0.412	1.627	-1.895	-2.099	-0.979	-2.388	-3.458	1.604	5.534	-2.312	1.465	-0.673	0.166	2.320	6.294	7.758	5.213	7.144	-0.219	-2.087	-4.950	-3.745	-3.910	527.344
-1.345	-1.438	-2.020	2.394	3.625	0.229	1.791	-1.667	-1.786	-0.626	-1.928	-2.954	1.440	5.197	-2.386	1.075	-1.057	-0.015	1.960	5.875	7.394	4.907	7.275	-0.166	-1.818	-4.599	-3.390	-3.574	531.250
-1.450	-1.592	-2.185	2.124	3.320	0.077	1.899	-1.410	-1.493	-0.328	-1.511	-2.499	1.280	4.866	-2.410	0.738	-1.394	-0.196	1.614	5.484	7.046	4.597	7.312	-0.149	-1.590	-4.268	-3.093	-3.257	535.156
-1.553	-1.676	-2.317	1.895	3.044	-0.041	1.923	-1.148	-1.249	-0.129	-1.173	-2.133	1.116	4.548	-2.376	0.477	-1.641	-0.328	1.313	5.141	6.729	4.297	7.259	-0.177	-1.405	-3.969	-2.886	-2.975	539.062
-1.632	-1.703	-2.397	1.710	2.800	-0.126	1.850	-0.908	-1.072	-0.050	-0.938	-1.881	0.943	4.243	-2.275	0.305	-1.774	-0.371	1.083	4.858	6.451	4.016	7.139	-0.259	-1.265	-3.716	-2.794	-2.742	542.969
-1.673	-1.693	-2.410	1.567	2.587	-0.184	1.685	-0.714	-0.968	-0.093	-0.808	-1.748	0.761	3.953	-2.111	0.224	-1.784	-0.302	0.934	4.640	6.215	3.759	6.978	-0.395	-1.172	-3.521	-2.830	-2.567	546.875
-1.667	-1.665	-2.352	1.464	2.404	-0.222	1.450	-0.580	-0.931	-0.237	-0.767	-1.718	0.579	3.676	-1.895	0.224	-1.686	-0.123	0.863	4.483	6.023	3.526	6.808	-0.580	-1.128	-3.392	-2.986	-2.451	550.781
-1.615	-1.636	-2.226	1.396	2.251	-0.253	1.180	-0.510	-0.943	-0.445	-0.786	-1.761	0.411	3.413	-1.648	0.285	-1.514	0.141	0.852	4.373	5.868	3.312	6.652	-0.800	-1.133	-3.328	-3.240	-2.387	554.688
-1.526	-1.615	-2.048	1.357	2.128	-0.284	0.911	-0.500	-0.981	-0.674	-0.830	-1.838	0.276	3.166	-1.397	0.382	-1.306	0.445	0.878	4.293	5.745	3.113	6.525	-1.034	-1.182	-3.322	-3.553	-2.363	558.594
-1.409	-1.600	-1.835	1.342	2.034	-0.323	0.675	-0.541	-1.023	-0.885	-0.867	-1.911	0.190	2.939	-1.171	0.489	-1.103	0.736	0.912	4.226	5.642	2.927	6.432	-1.258	-1.266	-3.362	-3.877	-2.364	562.500
-1.273	-1.581	-1.612	1.347	1.968	-0.373	0.496	-0.621	-1.055	-1.047	-0.871	-1.947	0.165	2.738	-0.992	0.586	-0.934	0.968	0.933	4.156	5.549	2.756	6.367	-1.447	-1.371	-3.430	-4.165	-2.375	566.406
-1.125	-1.546	-1.398	1.369	1.926	-0.433	0.384	-0.728	-1.068	-1.145	-0.830	-1.927	0.204	2.566	-0.873	0.659	-0.816	1.106	0.923	4.072	5.453	2.602	6.320	-1.581	-1.478	-3.513	-4.377	-2.381	570.312
-0.971	-1.481	-1.210	1.403	1.902	-0.497	0.335	-0.853	-1.067	-1.179	-0.743	-1.845	0.300	2.428	-0.814	0.704	-0.747	1.141	0.877	3.971	5.344	2.468	6.277	-1.648	-1.572	-3.594	-4.486	-2.373	574.219
-0.815	-1.379	-1.055	1.446	1.888	-0.560	0.336	-0.988	-1.064	-1.164	-0.624	-1.709	0.435	2.320	-0.799	0.724	-0.716	1.089	0.798	3.854	5.210	2.354	6.227	-1.646	-1.639	-3.665	-4.483	-2.345	578.125
-0.665	-1.239	-0.928	1.494	1.876	-0.615	0.364	-1.127	-1.076	-1.124	-0.496	-1.533	0.585	2.238	-0.807	0.727	-0.702	0.983	0.696	3.726	5.044	2.259	6.164	-1.584	-1.672	-3.717	-4.380	-2.293	582.031
-0.531	-1.066	-0.822	1.545	1.855	-0.658	0.394	-1.263	-1.124	-1.086	-0.387	-1.339	0.726	2.174	-0.808	0.721	-0.686	0.872	0.585	3.591	4.843	2.177	6.088	-1.481	-1.673	-3.748	-4.201	-2.219	585.938
-0.425	-0.873	-0.724	1.596	1.821	-0.688	0.403	-1.387	-1.217	-1.072	-0.321	-1.150	0.833	2.116	-0.780	0.715	-0.651	0.803	0.483	3.455	4.607	2.104	6.003	-1.357	-1.648	-3.760	-3.982	-2.126	589.844
-0.358	-0.675	-0.624	1.646	1.773	-0.706	0.373	-1.492	-1.360	-1.100	-0.316	-0.985	0.889	2.055	-0.706	0.713	-0.590	0.815	0.405	3.322	4.344	2.033	5.916	-1.238	-1.607	-3.756	-3.761	-2.022	593.750
-0.335	-0.488	-0.516	1.698	1.714	-0.713	0.295	-1.573	-1.542	-1.177	-0.375	-0.859	0.884	1.985	-0.583	0.718	-0.500	0.934	0.363	3.195	4.066	1.962	5.835	-1.142	-1.564	-3.743	-3.570	-1.917	597.656
-0.357	-0.324	-0.403	1.753	1.651	-0.709	0.167	-1.625	-1.745	-1.300	-0.492	-0.778	0.817	1.903	-0.419	0.728	-0.388	1.163	0.364	3.075	3.788	1.891	5.765	-1.081	-1.528	-3.726	-3.433	-1.824	601.562
-0.416	-0.192	-0.292	1.815	1.596	-0.693	-0.003	-1.652	-1.948	-1.461	-0.653	-0.743	0.695	1.809	-0.233	0.744	-0.259	1.488	0.407	2.968	3.529	1.823	5.708	-1.057	-1.507	-3.710	-3.361	-1.753	605.469
-0.500	-0.097	-0.193	1.886	1.560	-0.662	-0.201	-1.659	-2.126	-1.646	-0.838	-0.753	0.532	1.708	-0.053	0.763	-0.124	1.873	0.487	2.876	3.307	1.766	5.666	-1.064	-1.503	-3.697	-3.347	-1.714	609.375
-0.593	-0.040	-0.119	1.966	1.551	-0.611	-0.408	-1.654	-2.261	-1.840	-1.028	-0.799	0.346	1.609	0.092	0.784	0.005	2.273	0.590	2.803	3.135	1.725	5.639	-1.087	-1.514	-3.688	-3.375	-1.709	613.281
-0.679	-0.022	-0.080	2.049	1.573	-0.539	-0.600	-1.639	-2.339	-2.022	-1.202	-0.872	0.158	1.519	0.174	0.804	0.116	2.637	0.701	2.750	3.021	1.701	5.626	-1.109	-1.531	-3.677	-3.421	-1.734	617.188
-0.747	-0.040	-0.085	2.125	1.623	-0.452	-0.753	-1.617	-2.350	-2.173	-1.341	-0.959	-0.012	1.445	0.174	0.817	0.195	2.919	0.802	2.715	2.965	1.694	5.621	-1.115	-1.546	-3.656	-3.455	-1.778	621.094
-0.792	-0.096	-0.141	2.179	1.690	-0.359	-0.848	-1.580	-2.292	-2.275	-1.428	-1.044	-0.146	1.386	0.083	0.817	0.227	3.081	0.877	2.689	2.953	1.693	5.621	-1.089	-1.547	-3.614	-3.449	-1.821	625.000
-0.816	-0.188	-0.252	2.195	1.755	-0.277	-0.873	-1.520	-2.166	-2.310	-1.451	-1.112	-0.234	1.340	-0.090	0.795	0.200	3.102	0.912	2.661	2.966	1.687	5.621	-1.028	-1.522	-3.540	-3.383	-1.839	628.906
-0.825	-0.315	-0.416	2.159	1.797	-0.225	-0.824	-1.427	-1.979	-2.269	-1.403	-1.147	-0.273	1.295	-0.321	0.743	0.106	2.978	0.903	2.615	2.975	1.663	5.614	-0.932	-1.460	-3.424	-3.248	-1.807	632.812
-0.826	-0.476	-0.623	2.063	1.795	-0.215	-0.710	-1.295	-1.744	-2.149	-1.284	-1.137	-0.267	1.236	-0.575	0.656	-0.053	2.725	0.849	2.534	2.953	1.609	5.598	-0.812	-1.356	-3.261	-3.046	-1.710	636.719
-0.827	-0.664	-0.855	1.905	1.735	-0.255	-0.548	-1.122	-1.478	-1.958	-1.104	-1.074	-0.228	1.146	-0.807	0.532	-0.270	2.376	0.760	2.408	2.871	1.522	5.571	-0.686	-1.211	-3.051	-2.794	-1.541	640.625
-0.830	-0.867	-1.085	1.695	1.611	-0.338	-0.362	-0.915	-1.205	-1.713	-0.881	-0.960	-0.174	1.012	-0.980	0.374	-0.529	1.982	0.645	2.227	2.712	1.403	5.535	-0.574	-1.032	-2.807	-2.519	-1.310	644.531
-0.832	-1.069	-1.282	1.451	1.432	-0.449	-0.177	-0.690	-0.948	-1.437	-0.638	-0.803	-0.123	0.827	-1.065	0.193	-0.806	1.601	0.519	1.992	2.470	1.262	5.493	-0.500	-0.832	-2.546	-2.255	-1.039	648.438
-0.826	-1.248	-1.415	1.194	1.217	-0.566	-0.020	-0.467	-0.730	-1.160	-0.399	-0.619	-0.092	0.591	-1.050	0.003	-1.072	1.291	0.397	1.713	2.154	1.114	5.448	-0.482	-0.632	-2.292	-2.040	-0.763	652.344
-0.798	-1.384	-1.457	0.948	0.991	-0.663	0.092	-0.270	-0.572	-0.912	-0.192	-0.431	-0.093	0.318	-0.941	-0.178	-1.297	1.102	0.294	1.408	1.784	0.974	5.407	-0.529	-0.448	-2.069	-1.905	-0.516	656.250
-0.736	-1.457	-1.393	0.738	0.781	-0.724	0.144	-0.124	-0.487	-0.719	-0.041	-0.263	-0.131	0.027	-0.758	-0.329	-1.448	1.066	0.224	1.100	1.392	0.861	5.377	-0.644	-0.298	-1.901	-1.873	-0.334	660.156
-0.631	-1.455	-1.226	0.580	0.609	-0.741	0.129	-0.048	-0.484	-0.603	0.034	-0.142	-0.205	-0.255	-0.528	-0.429	-1.496	1.194	0.202	0.818	1.018	0.791	5.370	-0.815	-0.192	-1.802	-1.953	-0.241	664.062
-0.479	-1.374	-0.975	0.487	0.486	-0.720	0.050	-0.057	-0.567	-0.577	0.020	-0.089	-0.309	-0.500	-0.283	-0.461	-1.418	1.469	0.239	0.591	0.697	0.772	5.394	-1.019	-0.135	-1.779	-2.137	-0.247	667.969
-0.286	-1.223	-0.673	0.463	0.415	-0.677	-0.087	-0.154	-0.727	-0.643	-0.085	-0.117	-0.429	-0.684	-0.054	-0.414	-1.207	1.856	0.341	0.444	0.464	0.811	5.455	-1.228	-0.128	-1.826	-2.401	-0.348	671.875
-0.068	-1.018	-0.364	0.505	0.390	-0.634	-0.268	-0.328	-0.950	-0.790	-0.272	-0.229	-0.549	-0.787	0.133	-0.283	-0.871	2.303	0.508	0.393	0.340	0.905	5.554	-1.408	-0.167	-1.932	-2.709	-0.527	675.781
0.152	-0.780	-0.093	0.601	0.399	-0.612	-0.475	-0.560	-1.212	-1.001	-0.515	-0.412	-0.653	-0.802	0.259	-0.076	-0.439	2.752	0.727	0.446	0.333	1.045	5.686	-1.531	-0.247	-2.077	-3.017	-0.757	679.688
0.349	-0.533	0.103	0.738	0.432	-0.622	-0.691	-0.820	-1.486	-1.250	-0.784	-0.648	-0.729	-0.732	0.317	0.194	0.044	3.149	0.983	0.594	0.436	1.216	5.837	-1.575	-0.364	-2.242	-3.284	-1.011	683.594
0.501	-0.295	0.203	0.899	0.478	-0.664	-0.898	-1.074	-1.744	-1.512	-1.041	-0.908	-0.773	-0.595	0.310	0.504	0.525	3.451	1.251	0.821	0.627	1.399	5.995	-1.535	-0.513	-2.406	-3.474	-1.258	687.500
0.595	-0.078	0.205	1.065	0.533	-0.726	-1.082	-1.291	-1.963	-1.763	-1.253	-1.160	-0.788	-0.416	0.255	0.830	0.948	3.629	1.508	1.096	0.872	1.571	6.143	-1.417	-0.683	-2.554	-3.568	-1.474	691.406
0.629	0.111	0.128	1.221	0.595	-0.787	-1.235	-1.445	-2.128	-1.986	-1.399	-1.374	-0.782	-0.227	0.173	1.147	1.268	3.679	1.730	1.386	1.128	1.710	6.268	-1.238	-0.864	-2.673	-3.558	-1.641	695.312
0.613	0.271	0.004	1.351	0.661	-0.826	-1.354	-1.520	-2.237	-2.171	-1.470	-1.530	-0.770	-0.059	0.093	1.430	1.457	3.611	1.902	1.656	1.355	1.797	6.360	-1.022	-1.039	-2.756	-3.454	-1.746	699.219
0.565	0.409	-0.125	1.448	0.729	-0.826	-1.438	-1.518	-2.299	-2.315	-1.475	-1.612	-0.766	0.061	0.038	1.663	1.507	3.453	2.012	1.873	1.517	1.819	6.412	-0.794	-1.189	-2.795	-3.274	-1.783	703.125
0.507	0.532	-0.223	1.505	0.794	-0.779	-1.488	-1.452	-2.333	-2.420	-1.431	-1.621	-0.783	0.115	0.027	1.832	1.432	3.240	2.056	2.014	1.590	1.774	6.423	-0.575	-1.295	-2.787	-3.040	-1.753	707.031
0.462	0.652	-0.258	1.523	0.846	-0.691	-1.506	-1.346	-2.356	-2.490	-1.362	-1.563	-0.828	0.095	0.063	1.932	1.263	3.004	2.035	2.065	1.563	1.667	6.397	-0.379	-1.339	-2.730	-2.778	-1.660	710.938
0.446	0.775	-0.217	1.506	0.875	-0.574	-1.494	-1.227	-2.384	-2.527	-1.288	-1.457	-0.903	0.000	0.138	1.963	1.039	2.773	1.955	2.022	1.440	1.513	6.343	-0.214	-1.313	-2.624	-2.505	-1.515	714.844
0.469	0.910	-0.104	1.461	0.868	-0.450	-1.453	-1.121	-2.425	-2.531	-1.226	-1.323	-1.005	-0.160	0.232	1.933	0.805	2.567	1.825	1.891	1.234	1.332	6.280	-0.081	-1.219	-2.474	-2.239	-1.332	718.750
0.531	1.056	0.063	1.396	0.813	-0.341	-1.384	-1.048	-2.474	-2.499	-1.182	-1.185	-1.127	-0.373	0.324	1.855	0.601	2.395	1.657	1.690	0.967	1.146	6.229	0.018	-1.072	-2.291	-1.992	-1.131	722.656
0.623	1.213	0.255	1.318	0.705	-0.267	-1.289	-1.016	-2.519	-2.426	-1.153	-1.058	-1.261	-0.624	0.390	1.747	0.459	2.261	1.468	1.441	0.666	0.973	6.208	0.085	-0.901	-2.091	-1.774	-0.934	726.562
0.730	1.372	0.440	1.231	0.542	-0.245	-1.173	-1.024	-2.544	-2.310	-1.129	-0.953	-1.398	-0.894	0.420	1.627	0.398	2.168	1.274	1.173	0.358	0.829	6.231	0.117	-0.739	-1.894	-1.597	-0.763	730.469
0.836	1.523	0.591	1.138	0.332	-0.280	-1.044	-1.065	-2.531	-2.150	-1.095	-0.870	-1.526	-1.168	0.412	1.514	0.422	2.115	1.091	0.912	0.066	0.723	6.300	0.106	-0.619	-1.725	-1.471	-0.635	734.375
0.925	1.653	0.688	1.038	0.089	-0.371	-0.910	-1.128	-2.470	-1.947	-1.039	-0.802	-1.635	-1.426	0.376	1.422	0.519	2.096	0.934	0.682	-0.188	0.657	6.407	0.049	-0.567	-1.602	-1.404	-0.562	738.281
0.989	1.747	0.725	0.929	-0.165	-0.506	-0.781	-1.200	-2.358	-1.711	-0.951	-0.737	-1.714	-1.650	0.332	1.357	0.665	2.108	0.812	0.499	-0.390	0.628	6.536	-0.059	-0.598	-1.539	-1.401	-0.541	742.188
1.024	1.792	0.707	0.809	-0.409	-0.671	-0.663	-1.273	-2.202	-1.454	-0.830	-0.664	-1.752	-1.822	0.298	1.323	0.832	2.143	0.729	0.370	-0.531	0.628	6.667	-0.212	-0.711	-1.537	-1.458	-0.560	746.094
1.033	1.783	0.651	0.676	-0.620	-0.846	-0.564	-1.344	-2.019	-1.193	-0.681	-0.574	-1.740	-1.925	0.292	1.314	0.991	2.191	0.685	0.291	-0.607	0.647	6.782	-0.397	-0.891	-1.590	-1.564	-0.598	750.000
1.021	1.720	0.573	0.532	-0.783	-1.017	-0.485	-1.413	-1.828	-0.946	-0.520	-0.465	-1.670	-1.951	0.324	1.323	1.117	2.245	0.673	0.252	-0.620	0.677	6.868	-0.593	-1.112	-1.679	-1.699	-0.632	753.906
0.994	1.613	0.493	0.382	-0.888	-1.170	-0.428	-1.481	-1.649	-0.731	-0.363	-0.340	-1.542	-1.897	0.394	1.341	1.198	2.296	0.684	0.240	-0.576	0.711	6.916	-0.772	-1.342	-1.781	-1.840	-0.641	757.812
0.959	1.476	0.425	0.230	-0.938	-1.298	-0.390	-1.551	-1.498	-0.564	-0.228	-0.209	-1.362	-1.769	0.494	1.359	1.231	2.338	0.708	0.242	-0.484	0.743	6.925	-0.906	-1.545	-1.871	-1.963	-0.613	761.719
0.922	1.329	0.380	0.085	-0.942	-1.400	-0.370	-1.624	-1.387	-0.456	-0.133	-0.085	-1.146	-1.584	0.604	1.370	1.226	2.361	0.738	0.247	-0.358	0.771	6.898	-0.973	-1.690	-1.931	-2.048	-0.548	765.625
0.892	1.191	0.364	-0.046	-0.918	-1.480	-0.368	-1.697	-1.321	-0.415	-0.091	0.017	-0.916	-1.366	0.698	1.373	1.200	2.358	0.770	0.252	-0.211	0.793	6.840	-0.961	-1.752	-1.944	-2.081	-0.457	769.531
0.881	1.078	0.380	-0.156	-0.885	-1.551	-0.388	-1.769	-1.302	-0.443	-0.115	0.083	-0.697	-1.141	0.749	1.366	1.171	2.318	0.801	0.258	-0.057	0.809	6.758	-0.868	-1.712	-1.904	-2.057	-0.357	773.438
0.901	1.003	0.431	-0.240	-0.866	-1.625	-0.436	-1.834	-1.329	-0.543	-0.214	0.101	-0.517	-0.940	0.730	1.355	1.159	2.231	0.834	0.273	0.094	0.818	6.659	-0.704	-1.565	-1.810	-1.979	-0.267	777.344
0.966	0.972	0.516	-0.296	-0.878	-1.719	-0.521	-1.890	-1.402	-0.712	-0.396	0.066	-0.397	-0.783	0.623	1.343	1.180	2.087	0.872	0.303	0.231	0.820	6.545	-0.486	-1.314	-1.666	-1.855	-0.205	781.250
1.083	0.987	0.635	-0.324	-0.931	-1.844	-0.648	-1.935	-1.518	-0.943	-0.661	-0.023	-0.348	-0.684	0.421	1.336	1.241	1.885	0.916	0.356	0.352	0.816	6.417	-0.234	-0.973	-1.484	-1.696	-0.179	785.156
1.252	1.044	0.783	-0.328	-1.024	-2.003	-0.817	-1.968	-1.670	-1.227	-0.999	-0.159	-0.368	-0.643	0.133	1.337	1.342	1.630	0.968	0.433	0.457	0.806	6.278	0.033	-0.562	-1.273	-1.516	-0.192	789.062
1.464	1.131	0.952	-0.315	-1.153	-2.194	-1.019	-1.992	-1.848	-1.546	-1.392	-0.329	-0.440	-0.648	-0.222	1.346	1.476	1.337	1.028	0.533	0.549	0.793	6.128	0.301	-0.108	-1.048	-1.328	-0.238	792.969
1.697	1.232	1.131	-0.296	-1.302	-2.406	-1.240	-2.011	-2.034	-1.880	-1.811	-0.516	-0.541	-0.678	-0.610	1.362	1.630	1.024	1.093	0.647	0.636	0.777	5.974	0.563	0.361	-0.820	-1.141	-0.304	796.875
