FP1	F3	F7	FC3	C3	C5	P3	P7	PO7	PO3	O1	Oz	Pz	CPz	FP2	Fz	F4	F8	FC4	FCz	Cz	C4	C6	P4	P8	PO8	PO4	O2	time
0.445	0.228	0.479	0.294	-0.087	-0.138	-0.517	-0.746	-1.213	-0.613	-0.570	-0.372	-0.633	-0.097	0.787	0.897	0.016	-0.495	0.077	0.849	1.081	1.021	1.309	-0.032	0.879	-0.061	-0.323	-0.231	-199.219
0.528	0.322	0.343	0.289	0.054	-0.156	-0.325	-0.710	-1.088	-0.482	-0.768	-0.463	-0.340	0.114	0.464	0.991	0.257	-0.407	0.143	0.959	1.110	0.839	1.245	0.036	0.581	-0.200	-0.297	-0.417	-195.312
0.611	0.417	0.223	0.283	0.178	-0.174	-0.143	-0.680	-0.957	-0.347	-0.923	-0.533	-0.074	0.292	0.181	1.077	0.475	-0.319	0.200	1.054	1.123	0.661	1.178	0.086	0.303	-0.334	-0.275	-0.583	-191.406
0.694	0.505	0.129	0.274	0.275	-0.191	0.020	-0.656	-0.819	-0.209	-1.005	-0.566	0.144	0.412	-0.038	1.145	0.645	-0.229	0.238	1.122	1.108	0.496	1.105	0.109	0.066	-0.457	-0.261	-0.714	-187.500
0.772	0.578	0.069	0.264	0.341	-0.203	0.155	-0.635	-0.676	-0.070	-0.997	-0.554	0.299	0.461	-0.174	1.186	0.756	-0.141	0.251	1.151	1.059	0.354	1.024	0.097	-0.120	-0.561	-0.258	-0.800	-183.594
0.837	0.629	0.050	0.253	0.377	-0.202	0.258	-0.613	-0.531	0.061	-0.896	-0.498	0.383	0.436	-0.220	1.190	0.802	-0.060	0.235	1.135	0.973	0.239	0.938	0.048	-0.253	-0.647	-0.270	-0.841	-179.688
0.877	0.651	0.072	0.243	0.389	-0.181	0.323	-0.581	-0.392	0.175	-0.718	-0.410	0.395	0.347	-0.180	1.154	0.791	0.003	0.192	1.070	0.852	0.156	0.847	-0.035	-0.341	-0.713	-0.302	-0.843	-175.781
0.880	0.640	0.132	0.236	0.391	-0.132	0.351	-0.531	-0.265	0.263	-0.488	-0.304	0.346	0.214	-0.071	1.076	0.734	0.042	0.126	0.960	0.707	0.101	0.753	-0.141	-0.395	-0.762	-0.354	-0.820	-171.875
0.838	0.596	0.222	0.235	0.395	-0.050	0.342	-0.458	-0.154	0.317	-0.238	-0.198	0.247	0.061	0.077	0.960	0.648	0.054	0.047	0.814	0.550	0.074	0.655	-0.257	-0.429	-0.795	-0.421	-0.781	-167.969
0.750	0.526	0.329	0.239	0.411	0.063	0.300	-0.363	-0.065	0.332	-0.001	-0.108	0.117	-0.089	0.225	0.815	0.548	0.048	-0.035	0.645	0.398	0.070	0.557	-0.368	-0.455	-0.813	-0.497	-0.734	-164.062
0.627	0.441	0.439	0.247	0.445	0.201	0.228	-0.252	-0.003	0.305	0.191	-0.042	-0.028	-0.216	0.340	0.654	0.447	0.037	-0.105	0.467	0.265	0.091	0.465	-0.459	-0.479	-0.813	-0.569	-0.680	-160.156
0.489	0.353	0.534	0.257	0.494	0.351	0.129	-0.139	0.028	0.236	0.314	-0.006	-0.172	-0.309	0.396	0.492	0.355	0.041	-0.147	0.296	0.166	0.138	0.384	-0.515	-0.503	-0.793	-0.628	-0.616	-156.250
0.362	0.281	0.606	0.267	0.552	0.495	0.006	-0.040	0.024	0.131	0.357	0.005	-0.305	-0.365	0.382	0.343	0.283	0.075	-0.148	0.145	0.103	0.214	0.322	-0.531	-0.529	-0.752	-0.668	-0.537	-152.344
0.268	0.243	0.648	0.276	0.606	0.620	-0.134	0.031	-0.012	-0.004	0.321	-0.005	-0.421	-0.390	0.305	0.222	0.236	0.149	-0.097	0.024	0.075	0.315	0.279	-0.509	-0.560	-0.693	-0.690	-0.440	-148.438
0.223	0.258	0.663	0.285	0.646	0.713	-0.283	0.068	-0.069	-0.154	0.222	-0.026	-0.518	-0.394	0.186	0.139	0.219	0.259	0.006	-0.062	0.072	0.435	0.253	-0.459	-0.597	-0.626	-0.702	-0.329	-144.531
0.229	0.334	0.662	0.296	0.662	0.771	-0.430	0.073	-0.134	-0.304	0.087	-0.053	-0.597	-0.390	0.053	0.098	0.231	0.392	0.152	-0.110	0.081	0.556	0.235	-0.398	-0.646	-0.562	-0.714	-0.215	-140.625
0.272	0.472	0.656	0.311	0.652	0.795	-0.560	0.058	-0.189	-0.433	-0.052	-0.082	-0.656	-0.390	-0.065	0.097	0.268	0.526	0.323	-0.123	0.090	0.657	0.212	-0.344	-0.705	-0.515	-0.735	-0.114	-136.719
0.330	0.654	0.657	0.330	0.615	0.790	-0.659	0.036	-0.218	-0.525	-0.165	-0.112	-0.696	-0.400	-0.149	0.127	0.317	0.641	0.494	-0.107	0.089	0.717	0.169	-0.310	-0.769	-0.490	-0.767	-0.040	-132.812
0.375	0.848	0.669	0.350	0.555	0.764	-0.716	0.018	-0.214	-0.568	-0.231	-0.144	-0.715	-0.419	-0.188	0.172	0.366	0.722	0.638	-0.070	0.075	0.719	0.098	-0.301	-0.823	-0.485	-0.804	-0.004	-128.906
0.383	1.014	0.690	0.363	0.477	0.723	-0.723	0.010	-0.180	-0.559	-0.246	-0.180	-0.707	-0.443	-0.185	0.215	0.399	0.762	0.730	-0.021	0.051	0.655	-0.002	-0.314	-0.848	-0.485	-0.830	-0.003	-125.000
0.337	1.108	0.708	0.359	0.386	0.667	-0.682	0.009	-0.128	-0.502	-0.215	-0.219	-0.672	-0.463	-0.151	0.238	0.402	0.764	0.756	0.031	0.022	0.530	-0.120	-0.336	-0.821	-0.472	-0.827	-0.028	-121.094
0.239	1.098	0.707	0.329	0.288	0.598	-0.598	0.005	-0.072	-0.408	-0.154	-0.256	-0.608	-0.472	-0.100	0.228	0.369	0.735	0.713	0.077	-0.003	0.361	-0.238	-0.351	-0.729	-0.425	-0.776	-0.063	-117.188
0.100	0.970	0.669	0.269	0.189	0.514	-0.478	-0.013	-0.029	-0.291	-0.081	-0.283	-0.518	-0.463	-0.046	0.178	0.296	0.685	0.610	0.108	-0.020	0.172	-0.332	-0.343	-0.565	-0.333	-0.666	-0.089	-113.281
-0.055	0.734	0.578	0.180	0.096	0.414	-0.332	-0.054	-0.006	-0.161	-0.011	-0.291	-0.408	-0.437	0.001	0.089	0.191	0.620	0.463	0.120	-0.028	-0.008	-0.381	-0.301	-0.342	-0.192	-0.498	-0.089	-109.375
-0.203	0.423	0.429	0.069	0.017	0.303	-0.171	-0.117	-0.002	-0.028	0.048	-0.272	-0.286	-0.395	0.038	-0.029	0.064	0.540	0.292	0.108	-0.030	-0.158	-0.374	-0.223	-0.082	-0.015	-0.285	-0.057	-105.469
-0.321	0.085	0.229	-0.049	-0.042	0.188	-0.003	-0.192	-0.008	0.104	0.095	-0.221	-0.161	-0.346	0.064	-0.163	-0.070	0.442	0.118	0.073	-0.033	-0.263	-0.314	-0.112	0.181	0.178	-0.047	0.007	-101.562
-0.399	-0.228	-0.003	-0.159	-0.078	0.079	0.164	-0.263	-0.009	0.233	0.134	-0.143	-0.044	-0.298	0.082	-0.297	-0.196	0.324	-0.041	0.016	-0.046	-0.320	-0.219	0.018	0.411	0.359	0.187	0.093	-97.656
-0.438	-0.468	-0.242	-0.244	-0.088	-0.013	0.319	-0.309	0.010	0.357	0.173	-0.046	0.058	-0.256	0.092	-0.416	-0.302	0.185	-0.176	-0.059	-0.076	-0.335	-0.114	0.153	0.577	0.502	0.390	0.185	-93.750
-0.453	-0.607	-0.459	-0.295	-0.079	-0.080	0.453	-0.314	0.057	0.472	0.216	0.056	0.139	-0.225	0.095	-0.510	-0.376	0.033	-0.279	-0.146	-0.131	-0.317	-0.030	0.276	0.658	0.591	0.543	0.267	-89.844
-0.460	-0.637	-0.631	-0.313	-0.059	-0.117	0.555	-0.268	0.132	0.572	0.264	0.149	0.197	-0.202	0.091	-0.575	-0.412	-0.118	-0.349	-0.239	-0.209	-0.276	0.011	0.377	0.651	0.617	0.635	0.327	-85.938
-0.478	-0.578	-0.743	-0.304	-0.042	-0.130	0.618	-0.174	0.226	0.648	0.314	0.219	0.235	-0.183	0.081	-0.611	-0.408	-0.251	-0.385	-0.329	-0.307	-0.221	-0.007	0.446	0.565	0.585	0.665	0.358	-82.031
-0.518	-0.467	-0.795	-0.281	-0.040	-0.127	0.637	-0.045	0.324	0.692	0.355	0.261	0.257	-0.159	0.071	-0.624	-0.365	-0.348	-0.391	-0.409	-0.416	-0.156	-0.083	0.482	0.423	0.509	0.643	0.362	-78.125
-0.581	-0.350	-0.798	-0.258	-0.064	-0.121	0.611	0.100	0.407	0.698	0.378	0.274	0.270	-0.123	0.065	-0.620	-0.288	-0.393	-0.370	-0.469	-0.521	-0.082	-0.207	0.487	0.254	0.409	0.585	0.346	-74.219
-0.657	-0.269	-0.770	-0.244	-0.116	-0.124	0.546	0.238	0.456	0.660	0.376	0.263	0.279	-0.067	0.071	-0.601	-0.185	-0.380	-0.325	-0.502	-0.606	-0.003	-0.358	0.465	0.088	0.304	0.507	0.317	-70.312
-0.728	-0.247	-0.729	-0.242	-0.195	-0.141	0.451	0.350	0.461	0.581	0.347	0.240	0.289	0.009	0.094	-0.569	-0.069	-0.314	-0.262	-0.500	-0.656	0.075	-0.510	0.420	-0.051	0.207	0.425	0.282	-66.406
-0.773	-0.287	-0.692	-0.249	-0.290	-0.173	0.337	0.418	0.418	0.465	0.294	0.215	0.300	0.103	0.137	-0.523	0.048	-0.212	-0.187	-0.460	-0.660	0.143	-0.635	0.358	-0.147	0.129	0.348	0.242	-62.500
-0.776	-0.367	-0.663	-0.255	-0.391	-0.215	0.217	0.437	0.332	0.321	0.230	0.199	0.311	0.207	0.198	-0.461	0.151	-0.100	-0.105	-0.383	-0.615	0.189	-0.707	0.282	-0.193	0.072	0.283	0.199	-58.594
-0.728	-0.457	-0.644	-0.250	-0.483	-0.261	0.100	0.407	0.218	0.162	0.166	0.196	0.321	0.310	0.268	-0.382	0.226	-0.009	-0.023	-0.279	-0.524	0.202	-0.709	0.200	-0.191	0.037	0.233	0.155	-54.688
-0.631	-0.523	-0.625	-0.229	-0.558	-0.303	-0.003	0.339	0.095	0.002	0.118	0.210	0.327	0.402	0.331	-0.292	0.259	0.033	0.050	-0.164	-0.402	0.172	-0.636	0.119	-0.144	0.025	0.201	0.113	-50.781
-0.498	-0.546	-0.602	-0.193	-0.609	-0.338	-0.088	0.250	-0.011	-0.145	0.096	0.236	0.328	0.474	0.368	-0.203	0.243	0.010	0.106	-0.058	-0.268	0.097	-0.499	0.050	-0.061	0.038	0.191	0.082	-46.875
-0.349	-0.523	-0.568	-0.148	-0.636	-0.367	-0.149	0.161	-0.079	-0.264	0.106	0.271	0.325	0.519	0.361	-0.130	0.170	-0.081	0.137	0.015	-0.146	-0.022	-0.325	0.004	0.050	0.083	0.209	0.077	-42.969
-0.209	-0.468	-0.526	-0.107	-0.643	-0.395	-0.185	0.093	-0.091	-0.346	0.148	0.311	0.321	0.535	0.295	-0.091	0.042	-0.222	0.135	0.038	-0.057	-0.176	-0.151	-0.011	0.182	0.163	0.262	0.108	-39.062
-0.103	-0.409	-0.476	-0.084	-0.636	-0.427	-0.195	0.064	-0.041	-0.383	0.214	0.351	0.316	0.523	0.171	-0.101	-0.138	-0.383	0.093	-0.003	-0.019	-0.356	-0.020	0.009	0.327	0.282	0.351	0.186	-35.156
-0.048	-0.380	-0.422	-0.089	-0.622	-0.468	-0.179	0.087	0.068	-0.373	0.294	0.388	0.312	0.487	-0.003	-0.171	-0.356	-0.525	0.010	-0.112	-0.037	-0.547	0.033	0.062	0.475	0.436	0.476	0.310	-31.250
-0.052	-0.405	-0.364	-0.129	-0.608	-0.516	-0.139	0.165	0.221	-0.319	0.377	0.421	0.309	0.432	-0.203	-0.300	-0.599	-0.614	-0.113	-0.280	-0.112	-0.737	-0.015	0.139	0.616	0.617	0.627	0.473	-27.344
-0.110	-0.497	-0.303	-0.202	-0.595	-0.568	-0.078	0.294	0.399	-0.229	0.452	0.449	0.306	0.363	-0.401	-0.479	-0.848	-0.629	-0.271	-0.492	-0.232	-0.915	-0.166	0.224	0.741	0.807	0.787	0.656	-23.438
-0.210	-0.651	-0.235	-0.300	-0.583	-0.612	0.003	0.461	0.579	-0.115	0.513	0.472	0.299	0.287	-0.569	-0.690	-1.088	-0.565	-0.455	-0.724	-0.383	-1.073	-0.406	0.301	0.843	0.984	0.935	0.837	-19.531
-0.337	-0.843	-0.159	-0.410	-0.568	-0.637	0.098	0.649	0.743	0.011	0.556	0.490	0.287	0.207	-0.681	-0.908	-1.307	-0.433	-0.651	-0.950	-0.545	-1.204	-0.703	0.353	0.916	1.126	1.052	0.989	-15.625
-0.475	-1.040	-0.076	-0.513	-0.544	-0.630	0.202	0.839	0.879	0.135	0.580	0.499	0.267	0.130	-0.725	-1.107	-1.497	-0.264	-0.847	-1.148	-0.701	-1.307	-1.018	0.366	0.957	1.214	1.118	1.093	-11.719
-0.612	-1.209	0.009	-0.594	-0.506	-0.583	0.309	1.015	0.982	0.245	0.588	0.498	0.239	0.060	-0.700	-1.265	-1.653	-0.090	-1.030	-1.299	-0.836	-1.380	-1.310	0.335	0.968	1.236	1.125	1.134	-7.812
-0.740	-1.322	0.089	-0.643	-0.453	-0.496	0.409	1.162	1.057	0.329	0.579	0.484	0.203	0.001	-0.616	-1.366	-1.774	0.055	-1.185	-1.390	-0.941	-1.421	-1.543	0.258	0.952	1.192	1.073	1.109	-3.906
-0.855	-1.366	0.156	-0.655	-0.389	-0.375	0.491	1.274	1.109	0.380	0.554	0.455	0.161	-0.045	-0.494	-1.403	-1.857	0.147	-1.304	-1.421	-1.009	-1.426	-1.691	0.145	0.915	1.088	0.970	1.021	0.000
-0.950	-1.340	0.199	-0.633	-0.323	-0.237	0.543	1.346	1.147	0.391	0.512	0.414	0.116	-0.075	-0.358	-1.381	-1.900	0.177	-1.377	-1.395	-1.040	-1.393	-1.743	0.006	0.862	0.943	0.834	0.884	3.906
-1.022	-1.262	0.210	-0.588	-0.270	-0.104	0.555	1.380	1.172	0.361	0.456	0.364	0.072	-0.088	-0.231	-1.309	-1.899	0.150	-1.401	-1.322	-1.036	-1.317	-1.699	-0.142	0.804	0.775	0.683	0.714	7.812
-1.066	-1.155	0.187	-0.530	-0.242	-0.000	0.520	1.377	1.185	0.291	0.388	0.312	0.031	-0.085	-0.128	-1.204	-1.847	0.084	-1.375	-1.214	-1.001	-1.195	-1.572	-0.284	0.747	0.605	0.535	0.529	11.719
-1.075	-1.045	0.130	-0.474	-0.250	0.054	0.437	1.343	1.181	0.186	0.312	0.265	-0.005	-0.067	-0.055	-1.079	-1.743	0.002	-1.303	-1.084	-0.940	-1.030	-1.385	-0.409	0.699	0.448	0.403	0.345	15.625
-1.045	-0.956	0.049	-0.431	-0.299	0.046	0.311	1.282	1.152	0.055	0.237	0.230	-0.035	-0.040	-0.012	-0.947	-1.585	-0.076	-1.190	-0.946	-0.862	-0.828	-1.167	-0.511	0.662	0.312	0.291	0.173	19.531
-0.972	-0.903	-0.047	-0.410	-0.388	-0.024	0.150	1.202	1.095	-0.089	0.170	0.211	-0.062	-0.009	0.008	-0.817	-1.378	-0.134	-1.043	-0.809	-0.775	-0.599	-0.950	-0.587	0.637	0.201	0.201	0.025	23.438
-0.854	-0.892	-0.142	-0.413	-0.508	-0.147	-0.029	1.109	1.011	-0.234	0.123	0.212	-0.091	0.016	0.012	-0.693	-1.133	-0.168	-0.871	-0.686	-0.690	-0.360	-0.764	-0.640	0.621	0.116	0.132	-0.094	27.344
-0.696	-0.917	-0.223	-0.440	-0.644	-0.304	-0.211	1.011	0.908	-0.365	0.103	0.234	-0.128	0.024	0.006	-0.578	-0.870	-0.180	-0.687	-0.585	-0.619	-0.129	-0.635	-0.675	0.611	0.056	0.085	-0.177	31.250
-0.510	-0.964	-0.279	-0.489	-0.783	-0.472	-0.380	0.918	0.803	-0.471	0.118	0.275	-0.184	0.002	-0.003	-0.477	-0.614	-0.181	-0.513	-0.517	-0.578	0.073	-0.580	-0.694	0.605	0.030	0.067	-0.213	35.156
-0.318	-1.018	-0.304	-0.553	-0.913	-0.629	-0.525	0.839	0.719	-0.544	0.171	0.332	-0.271	-0.062	-0.010	-0.399	-0.398	-0.182	-0.372	-0.495	-0.581	0.224	-0.607	-0.698	0.610	0.051	0.089	-0.191	39.062
-0.149	-1.062	-0.300	-0.627	-1.026	-0.755	-0.640	0.788	0.683	-0.581	0.259	0.399	-0.402	-0.182	-0.013	-0.357	-0.256	-0.197	-0.292	-0.532	-0.645	0.304	-0.708	-0.684	0.642	0.142	0.171	-0.098	42.969
-0.036	-1.091	-0.273	-0.710	-1.122	-0.839	-0.724	0.782	0.719	-0.581	0.374	0.462	-0.589	-0.365	-0.012	-0.370	-0.220	-0.232	-0.301	-0.640	-0.780	0.299	-0.868	-0.646	0.725	0.332	0.330	0.075	46.875
-0.009	-1.108	-0.231	-0.800	-1.203	-0.878	-0.785	0.841	0.848	-0.556	0.502	0.502	-0.842	-0.616	-0.009	-0.457	-0.312	-0.289	-0.417	-0.824	-0.989	0.199	-1.063	-0.575	0.885	0.649	0.577	0.331	50.781
-0.087	-1.125	-0.184	-0.901	-1.276	-0.878	-0.833	0.985	1.079	-0.520	0.624	0.495	-1.162	-0.931	-0.010	-0.630	-0.540	-0.362	-0.647	-1.087	-1.270	0.005	-1.264	-0.464	1.151	1.113	0.915	0.664	54.688
-0.267	-1.158	-0.140	-1.019	-1.347	-0.846	-0.879	1.229	1.412	-0.494	0.719	0.410	-1.546	-1.295	-0.025	-0.894	-0.888	-0.436	-0.980	-1.419	-1.608	-0.274	-1.446	-0.312	1.540	1.726	1.327	1.054	58.594
-0.529	-1.221	-0.102	-1.156	-1.421	-0.795	-0.935	1.582	1.831	-0.501	0.763	0.222	-1.978	-1.689	-0.067	-1.238	-1.317	-0.498	-1.387	-1.803	-1.985	-0.618	-1.591	-0.125	2.050	2.470	1.781	1.472	62.500
-0.831	-1.317	-0.071	-1.312	-1.498	-0.732	-1.008	2.038	2.313	-0.561	0.737	-0.089	-2.434	-2.085	-0.154	-1.639	-1.770	-0.532	-1.826	-2.212	-2.373	-1.003	-1.688	0.084	2.660	3.300	2.232	1.880	66.406
-1.125	-1.442	-0.044	-1.478	-1.573	-0.663	-1.098	2.581	2.827	-0.683	0.632	-0.525	-2.877	-2.449	-0.299	-2.060	-2.181	-0.535	-2.246	-2.614	-2.742	-1.399	-1.739	0.293	3.322	4.146	2.626	2.238	70.312
-1.370	-1.583	-0.017	-1.643	-1.634	-0.587	-1.193	3.183	3.340	-0.861	0.451	-1.068	-3.264	-2.745	-0.509	-2.457	-2.490	-0.508	-2.597	-2.972	-3.058	-1.770	-1.750	0.478	3.966	4.920	2.909	2.506	74.219
-1.546	-1.725	0.012	-1.790	-1.664	-0.496	-1.273	3.802	3.816	-1.073	0.207	-1.682	-3.542	-2.935	-0.780	-2.787	-2.655	-0.467	-2.835	-3.249	-3.286	-2.082	-1.728	0.619	4.512	5.526	3.037	2.650	78.125
-1.661	-1.856	0.049	-1.897	-1.642	-0.382	-1.311	4.389	4.219	-1.288	-0.077	-2.313	-3.660	-2.983	-1.090	-3.012	-2.663	-0.430	-2.927	-3.407	-3.389	-2.295	-1.676	0.702	4.877	5.870	2.979	2.643	82.031
-1.748	-1.969	0.095	-1.942	-1.544	-0.236	-1.274	4.885	4.509	-1.466	-0.378	-2.905	-3.571	-2.854	-1.408	-3.103	-2.525	-0.417	-2.850	-3.411	-3.328	-2.371	-1.592	0.727	4.986	5.877	2.724	2.468	85.938
-1.853	-2.059	0.154	-1.906	-1.348	-0.052	-1.137	5.230	4.648	-1.576	-0.681	-3.410	-3.240	-2.519	-1.696	-3.037	-2.273	-0.444	-2.596	-3.230	-3.073	-2.276	-1.465	0.704	4.787	5.501	2.282	2.121	89.844
-2.026	-2.127	0.229	-1.774	-1.038	0.170	-0.883	5.363	4.602	-1.599	-0.977	-3.791	-2.656	-1.964	-1.919	-2.808	-1.949	-0.513	-2.163	-2.841	-2.601	-1.985	-1.280	0.654	4.255	4.729	1.678	1.606	93.750
-2.297	-2.171	0.320	-1.537	-0.607	0.425	-0.511	5.239	4.345	-1.533	-1.265	-4.032	-1.831	-1.189	-2.050	-2.417	-1.591	-0.610	-1.565	-2.236	-1.909	-1.492	-1.021	0.601	3.398	3.591	0.953	0.941	97.656
-2.675	-2.186	0.429	-1.200	-0.063	0.700	-0.041	4.831	3.867	-1.399	-1.550	-4.138	-0.804	-0.218	-2.078	-1.880	-1.228	-0.708	-0.825	-1.429	-1.016	-0.812	-0.680	0.568	2.257	2.153	0.152	0.157	101.562
-3.135	-2.163	0.553	-0.776	0.569	0.976	0.488	4.140	3.176	-1.232	-1.836	-4.126	0.356	0.904	-2.007	-1.221	-0.873	-0.766	0.023	-0.456	0.034	0.017	-0.256	0.566	0.902	0.512	-0.681	-0.707	105.469
-3.629	-2.089	0.693	-0.288	1.255	1.237	1.023	3.200	2.301	-1.080	-2.129	-4.030	1.563	2.108	-1.852	-0.477	-0.522	-0.740	0.932	0.624	1.176	0.934	0.238	0.599	-0.577	-1.218	-1.503	-1.602	109.375
-4.087	-1.946	0.847	0.236	1.947	1.462	1.496	2.072	1.285	-0.991	-2.431	-3.886	2.719	3.307	-1.634	0.310	-0.157	-0.590	1.852	1.738	2.325	1.868	0.777	0.654	-2.075	-2.913	-2.279	-2.478	113.281
-4.437	-1.716	1.018	0.764	2.592	1.635	1.846	0.838	0.186	-1.007	-2.742	-3.729	3.723	4.405	-1.375	1.094	0.242	-0.289	2.727	2.802	3.388	2.737	1.325	0.710	-3.491	-4.454	-2.979	-3.280	117.188
-4.615	-1.386	1.206	1.265	3.135	1.743	2.017	-0.410	-0.929	-1.152	-3.052	-3.583	4.488	5.306	-1.093	1.827	0.690	0.167	3.504	3.733	4.275	3.467	1.837	0.741	-4.728	-5.735	-3.574	-3.956	121.094
-4.579	-0.958	1.411	1.708	3.527	1.777	1.980	-1.578	-1.987	-1.423	-3.340	-3.456	4.944	5.925	-0.803	2.464	1.184	0.754	4.132	4.457	4.905	3.988	2.260	0.726	-5.706	-6.671	-4.033	-4.456	125.000
-4.319	-0.455	1.621	2.063	3.729	1.730	1.732	-2.584	-2.912	-1.791	-3.573	-3.336	5.055	6.202	-0.513	2.965	1.697	1.419	4.570	4.919	5.221	4.251	2.541	0.651	-6.366	-7.199	-4.326	-4.735	128.906
-3.855	0.075	1.813	2.304	3.717	1.602	1.306	-3.362	-3.626	-2.195	-3.705	-3.192	4.819	6.108	-0.232	3.296	2.176	2.088	4.786	5.087	5.191	4.225	2.638	0.515	-6.672	-7.286	-4.417	-4.756	132.812
-3.238	0.560	1.953	2.406	3.488	1.392	0.764	-3.867	-4.062	-2.559	-3.686	-2.985	4.273	5.652	0.028	3.429	2.553	2.674	4.762	4.953	4.820	3.908	2.525	0.333	-6.611	-6.929	-4.277	-4.498	136.719
-2.539	0.917	1.996	2.349	3.057	1.107	0.190	-4.078	-4.165	-2.796	-3.466	-2.674	3.484	4.880	0.251	3.350	2.749	3.091	4.496	4.536	4.142	3.323	2.201	0.130	-6.199	-6.154	-3.883	-3.957	140.625
-1.838	1.059	1.899	2.124	2.459	0.755	-0.325	-3.995	-3.904	-2.827	-3.013	-2.227	2.543	3.870	0.412	3.051	2.698	3.266	4.004	3.875	3.219	2.516	1.690	-0.064	-5.470	-5.017	-3.229	-3.152	144.531
-1.214	0.918	1.629	1.729	1.740	0.355	-0.695	-3.640	-3.278	-2.594	-2.315	-1.630	1.553	2.716	0.488	2.537	2.353	3.152	3.315	3.023	2.131	1.551	1.037	-0.218	-4.484	-3.595	-2.329	-2.120	148.438
-0.728	0.455	1.174	1.179	0.957	-0.067	-0.856	-3.055	-2.317	-2.072	-1.387	-0.887	0.611	1.520	0.455	1.823	1.701	2.735	2.474	2.036	0.962	0.502	0.304	-0.308	-3.312	-1.980	-1.220	-0.915	152.344
-0.423	-0.324	0.546	0.503	0.169	-0.480	-0.775	-2.289	-1.081	-1.274	-0.277	-0.028	-0.200	0.373	0.293	0.931	0.763	2.041	1.531	0.968	-0.210	-0.554	-0.445	-0.318	-2.035	-0.271	0.039	0.394	156.250
-0.315	-1.372	-0.215	-0.258	-0.571	-0.848	-0.451	-1.403	0.345	-0.247	0.949	0.904	-0.824	-0.652	-0.006	-0.105	-0.408	1.131	0.541	-0.135	-1.319	-1.547	-1.151	-0.246	-0.733	1.433	1.372	1.734	160.156
-0.392	-2.600	-1.045	-1.051	-1.217	-1.138	0.081	-0.455	1.862	0.932	2.210	1.855	-1.235	-1.508	-0.436	-1.248	-1.733	0.100	-0.447	-1.236	-2.321	-2.420	-1.767	-0.102	0.522	3.046	2.696	3.032	164.062
-0.624	-3.893	-1.872	-1.822	-1.739	-1.323	0.765	0.496	3.368	2.171	3.422	2.766	-1.438	-2.175	-0.980	-2.450	-3.119	-0.946	-1.386	-2.308	-3.190	-3.134	-2.261	0.099	1.669	4.495	3.928	4.219	167.969
-0.964	-5.131	-2.621	-2.521	-2.120	-1.391	1.528	1.402	4.770	3.376	4.516	3.587	-1.463	-2.657	-1.603	-3.663	-4.475	-1.902	-2.241	-3.329	-3.917	-3.670	-2.617	0.331	2.667	5.727	4.995	5.241	171.875
-1.361	-6.203	-3.232	-3.111	-2.363	-1.342	2.297	2.221	5.994	4.466	5.440	4.279	-1.360	-2.976	-2.259	-4.835	-5.716	-2.686	-2.982	-4.283	-4.505	-4.029	-2.832	0.572	3.491	6.712	5.844	6.061	175.781
-1.772	-7.033	-3.666	-3.569	-2.479	-1.194	3.009	2.925	6.991	5.379	6.165	4.819	-1.181	-3.163	-2.895	-5.919	-6.776	-3.247	-3.595	-5.156	-4.960	-4.231	-2.913	0.800	4.136	7.441	6.445	6.660	179.688
-2.165	-7.584	-3.913	-3.891	-2.490	-0.970	3.617	3.497	7.736	6.080	6.682	5.199	-0.979	-3.249	-3.458	-6.877	-7.612	-3.574	-4.069	-5.934	-5.294	-4.306	-2.875	0.998	4.611	7.926	6.795	7.040	183.594
-2.526	-7.865	-3.990	-4.086	-2.417	-0.700	4.100	3.933	8.234	6.564	7.002	5.424	-0.794	-3.260	-3.906	-7.680	-8.208	-3.690	-4.407	-6.603	-5.513	-4.293	-2.738	1.156	4.935	8.191	6.913	7.220	187.500
-2.853	-7.923	-3.933	-4.176	-2.280	-0.413	4.457	4.240	8.507	6.845	7.146	5.508	-0.647	-3.212	-4.210	-8.315	-8.569	-3.646	-4.621	-7.151	-5.621	-4.230	-2.528	1.272	5.132	8.271	6.838	7.231	191.406
-3.157	-7.829	-3.795	-4.189	-2.095	-0.133	4.707	4.433	8.597	6.959	7.141	5.473	-0.544	-3.111	-4.365	-8.783	-8.718	-3.503	-4.730	-7.569	-5.623	-4.151	-2.271	1.350	5.232	8.210	6.620	7.112	195.312
-3.454	-7.667	-3.628	-4.151	-1.872	0.123	4.880	4.536	8.554	6.948	7.017	5.342	-0.476	-2.954	-4.385	-9.097	-8.695	-3.325	-4.759	-7.854	-5.519	-4.077	-1.995	1.402	5.260	8.050	6.315	6.904	199.219
-3.756	-7.513	-3.484	-4.088	-1.619	0.343	5.010	4.573	8.428	6.859	6.802	5.137	-0.419	-2.735	-4.305	-9.282	-8.548	-3.168	-4.736	-8.011	-5.314	-4.018	-1.725	1.446	5.245	7.835	5.979	6.648	203.125
-4.073	-7.431	-3.402	-4.020	-1.341	0.522	5.129	4.566	8.266	6.734	6.523	4.883	-0.348	-2.443	-4.173	-9.367	-8.329	-3.074	-4.689	-8.049	-5.017	-3.970	-1.481	1.503	5.211	7.607	5.663	6.381	207.031
-4.402	-7.457	-3.409	-3.961	-1.045	0.658	5.262	4.533	8.102	6.607	6.203	4.599	-0.234	-2.074	-4.039	-9.380	-8.086	-3.071	-4.638	-7.984	-4.635	-3.920	-1.276	1.595	5.180	7.400	5.409	6.132	210.938
-4.735	-7.603	-3.518	-3.916	-0.739	0.751	5.422	4.485	7.960	6.503	5.865	4.302	-0.055	-1.622	-3.953	-9.345	-7.863	-3.174	-4.593	-7.832	-4.179	-3.846	-1.111	1.741	5.169	7.239	5.245	5.918	214.844
-5.057	-7.853	-3.726	-3.887	-0.434	0.801	5.610	4.425	7.850	6.433	5.525	4.003	0.202	-1.090	-3.949	-9.276	-7.687	-3.382	-4.554	-7.604	-3.657	-3.726	-0.979	1.952	5.187	7.137	5.186	5.744	218.750
-5.351	-8.168	-4.016	-3.865	-0.139	0.808	5.819	4.347	7.766	6.399	5.191	3.701	0.539	-0.485	-4.041	-9.172	-7.569	-3.681	-4.512	-7.305	-3.077	-3.539	-0.866	2.234	5.234	7.091	5.229	5.598	222.656
-5.599	-8.489	-4.361	-3.839	0.134	0.772	6.029	4.242	7.690	6.388	4.864	3.391	0.947	0.179	-4.223	-9.019	-7.503	-4.043	-4.445	-6.934	-2.442	-3.268	-0.752	2.583	5.300	7.085	5.354	5.459	226.562
-5.789	-8.751	-4.727	-3.790	0.377	0.691	6.219	4.094	7.595	6.380	4.531	3.055	1.408	0.883	-4.468	-8.793	-7.459	-4.430	-4.330	-6.479	-1.757	-2.902	-0.622	2.982	5.367	7.092	5.531	5.296	230.469
-5.910	-8.892	-5.078	-3.701	0.583	0.566	6.361	3.885	7.449	6.351	4.175	2.675	1.897	1.607	-4.733	-8.462	-7.397	-4.797	-4.141	-5.925	-1.024	-2.441	-0.465	3.411	5.412	7.077	5.720	5.077	234.375
-5.958	-8.863	-5.383	-3.553	0.749	0.400	6.433	3.601	7.223	6.276	3.774	2.230	2.386	2.326	-4.970	-8.000	-7.267	-5.096	-3.853	-5.261	-0.252	-1.886	-0.283	3.843	5.413	7.005	5.881	4.772	238.281
-5.933	-8.638	-5.619	-3.337	0.876	0.197	6.421	3.238	6.898	6.134	3.312	1.705	2.851	3.019	-5.134	-7.391	-7.021	-5.289	-3.452	-4.480	0.548	-1.252	-0.089	4.252	5.351	6.846	5.979	4.363	242.188
-5.842	-8.221	-5.772	-3.048	0.967	-0.034	6.322	2.801	6.474	5.917	2.781	1.098	3.272	3.667	-5.199	-6.637	-6.629	-5.350	-2.932	-3.590	1.362	-0.553	0.094	4.616	5.218	6.580	5.989	3.846	246.094
-5.696	-7.643	-5.843	-2.695	1.031	-0.284	6.147	2.309	5.966	5.630	2.189	0.414	3.641	4.256	-5.160	-5.762	-6.082	-5.273	-2.299	-2.612	2.168	0.188	0.240	4.919	5.018	6.202	5.901	3.230	250.000
-5.510	-6.956	-5.841	-2.293	1.076	-0.539	5.920	1.793	5.403	5.291	1.557	-0.327	3.955	4.778	-5.033	-4.807	-5.397	-5.072	-1.575	-1.583	2.946	0.951	0.328	5.156	4.768	5.724	5.721	2.541	253.906
-5.298	-6.223	-5.783	-1.863	1.113	-0.788	5.669	1.290	4.826	4.926	0.913	-1.099	4.219	5.229	-4.855	-3.829	-4.618	-4.774	-0.791	-0.546	3.672	1.712	0.346	5.332	4.490	5.169	5.466	1.811	257.812
-5.075	-5.507	-5.690	-1.432	1.155	-1.017	5.427	0.839	4.270	4.567	0.288	-1.872	4.442	5.609	-4.668	-2.886	-3.800	-4.417	0.013	0.451	4.327	2.452	0.296	5.456	4.212	4.571	5.161	1.079	261.719
-4.844	-4.854	-5.578	-1.017	1.210	-1.213	5.223	0.468	3.764	4.243	-0.293	-2.615	4.630	5.918	-4.511	-2.027	-3.001	-4.041	0.795	1.367	4.895	3.150	0.193	5.538	3.953	3.964	4.833	0.381	265.625
-4.606	-4.292	-5.460	-0.634	1.287	-1.363	5.076	0.194	3.324	3.973	-0.817	-3.304	4.787	6.157	-4.407	-1.286	-2.269	-3.686	1.514	2.170	5.363	3.790	0.066	5.590	3.728	3.382	4.505	-0.256	269.531
-4.352	-3.818	-5.339	-0.283	1.393	-1.454	4.993	0.018	2.948	3.766	-1.282	-3.922	4.913	6.327	-4.363	-0.677	-1.634	-3.385	2.138	2.841	5.728	4.355	-0.056	5.617	3.536	2.847	4.191	-0.814	273.438
-4.071	-3.411	-5.209	0.042	1.531	-1.475	4.973	-0.074	2.625	3.620	-1.696	-4.458	5.002	6.429	-4.363	-0.193	-1.108	-3.159	2.644	3.377	5.988	4.833	-0.141	5.619	3.368	2.372	3.898	-1.288	277.344
-3.756	-3.034	-5.063	0.354	1.702	-1.421	5.005	-0.105	2.337	3.522	-2.074	-4.911	5.050	6.466	-4.380	0.192	-0.685	-3.016	3.025	3.791	6.152	5.215	-0.167	5.592	3.208	1.960	3.625	-1.686	281.250
-3.408	-2.646	-4.891	0.669	1.904	-1.293	5.072	-0.102	2.068	3.452	-2.428	-5.285	5.053	6.444	-4.380	0.511	-0.347	-2.954	3.285	4.102	6.231	5.499	-0.117	5.531	3.035	1.602	3.365	-2.024	285.156
-3.033	-2.216	-4.691	0.998	2.131	-1.099	5.155	-0.089	1.807	3.391	-2.765	-5.590	5.008	6.373	-4.330	0.800	-0.073	-2.954	3.445	4.337	6.244	5.689	0.011	5.432	2.831	1.285	3.110	-2.323	289.062
-2.649	-1.727	-4.470	1.348	2.376	-0.854	5.236	-0.087	1.550	3.320	-3.084	-5.838	4.919	6.265	-4.208	1.090	0.159	-2.994	3.533	4.525	6.211	5.800	0.208	5.295	2.584	0.993	2.852	-2.604	292.969
-2.271	-1.182	-4.243	1.717	2.630	-0.576	5.303	-0.103	1.306	3.229	-3.378	-6.044	4.793	6.136	-4.008	1.401	0.365	-3.049	3.582	4.693	6.157	5.856	0.455	5.124	2.288	0.707	2.588	-2.882	296.875
-1.915	-0.597	-4.034	2.100	2.888	-0.282	5.347	-0.139	1.085	3.112	-3.641	-6.224	4.641	6.002	-3.741	1.745	0.560	-3.093	3.626	4.861	6.107	5.886	0.726	4.926	1.946	0.417	2.316	-3.166	300.781
-1.584	0.002	-3.865	2.486	3.148	0.014	5.370	-0.188	0.899	2.971	-3.867	-6.395	4.476	5.877	-3.434	2.120	0.752	-3.109	3.692	5.047	6.082	5.919	0.992	4.713	1.565	0.112	2.038	-3.460	304.688
-1.276	0.590	-3.754	2.864	3.412	0.306	5.374	-0.240	0.756	2.809	-4.059	-6.569	4.309	5.775	-3.126	2.519	0.947	-3.084	3.798	5.260	6.099	5.979	1.223	4.496	1.158	-0.211	1.756	-3.758	308.594
-0.980	1.144	-3.708	3.224	3.685	0.593	5.369	-0.287	0.655	2.634	-4.226	-6.761	4.150	5.706	-2.852	2.932	1.149	-3.010	3.951	5.505	6.169	6.083	1.394	4.283	0.735	-0.553	1.468	-4.057	312.500
-0.686	1.650	-3.720	3.561	3.977	0.877	5.361	-0.323	0.587	2.451	-4.380	-6.975	4.006	5.673	-2.641	3.344	1.363	-2.889	4.150	5.780	6.294	6.233	1.486	4.081	0.309	-0.911	1.174	-4.352	316.406
-0.388	2.100	-3.772	3.869	4.291	1.162	5.356	-0.346	0.535	2.266	-4.536	-7.214	3.880	5.678	-2.505	3.744	1.592	-2.730	4.383	6.078	6.470	6.423	1.493	3.894	-0.112	-1.282	0.870	-4.642	320.312
-0.085	2.496	-3.838	4.145	4.628	1.451	5.356	-0.356	0.482	2.083	-4.702	-7.471	3.771	5.715	-2.440	4.122	1.839	-2.552	4.634	6.387	6.683	6.638	1.418	3.720	-0.524	-1.659	0.554	-4.928	324.219
0.218	2.839	-3.893	4.389	4.979	1.743	5.361	-0.358	0.413	1.909	-4.877	-7.729	3.678	5.774	-2.427	4.470	2.100	-2.381	4.882	6.691	6.916	6.862	1.271	3.558	-0.921	-2.034	0.228	-5.209	328.125
0.513	3.135	-3.915	4.594	5.328	2.030	5.370	-0.354	0.322	1.754	-5.050	-7.965	3.600	5.844	-2.440	4.781	2.366	-2.247	5.105	6.974	7.145	7.072	1.071	3.402	-1.296	-2.400	-0.103	-5.478	332.031
0.788	3.381	-3.895	4.758	5.653	2.301	5.382	-0.344	0.214	1.631	-5.199	-8.146	3.535	5.911	-2.455	5.047	2.617	-2.177	5.280	7.217	7.349	7.249	0.832	3.246	-1.642	-2.747	-0.426	-5.724	335.938
1.031	3.572	-3.833	4.871	5.931	2.541	5.400	-0.327	0.105	1.556	-5.291	-8.238	3.488	5.964	-2.454	5.262	2.825	-2.189	5.384	7.405	7.507	7.375	0.570	3.088	-1.948	-3.063	-0.725	-5.926	339.844
1.230	3.696	-3.740	4.928	6.142	2.737	5.424	-0.302	0.016	1.543	-5.295	-8.212	3.459	5.994	-2.427	5.419	2.957	-2.288	5.398	7.531	7.606	7.436	0.296	2.925	-2.201	-3.335	-0.979	-6.062	343.750
1.377	3.739	-3.636	4.925	6.271	2.878	5.453	-0.268	-0.035	1.596	-5.188	-8.050	3.450	5.998	-2.372	5.515	2.986	-2.464	5.314	7.593	7.644	7.422	0.021	2.756	-2.389	-3.551	-1.171	-6.108	347.656
1.472	3.692	-3.540	4.864	6.317	2.961	5.479	-0.227	-0.037	1.701	-4.969	-7.760	3.455	5.981	-2.296	5.553	2.902	-2.690	5.138	7.602	7.628	7.336	-0.241	2.587	-2.507	-3.699	-1.288	-6.056	351.562
1.518	3.558	-3.470	4.757	6.287	2.987	5.484	-0.187	0.004	1.827	-4.665	-7.377	3.462	5.947	-2.210	5.543	2.715	-2.925	4.894	7.578	7.577	7.194	-0.469	2.423	-2.552	-3.773	-1.328	-5.908	355.469
1.522	3.352	-3.427	4.623	6.200	2.967	5.441	-0.154	0.066	1.925	-4.332	-6.970	3.453	5.909	-2.125	5.504	2.460	-3.121	4.622	7.547	7.519	7.019	-0.640	2.272	-2.531	-3.769	-1.298	-5.687	359.375
1.490	3.102	-3.406	4.489	6.080	2.919	5.320	-0.140	0.121	1.938	-4.048	-6.628	3.401	5.876	-2.054	5.458	2.191	-3.230	4.369	7.541	7.484	6.846	-0.731	2.144	-2.452	-3.688	-1.216	-5.435	363.281
1.424	2.846	-3.386	4.383	5.956	2.860	5.098	-0.148	0.135	1.814	-3.893	-6.447	3.286	5.858	-2.008	5.427	1.965	-3.218	4.183	7.586	7.501	6.707	-0.727	2.048	-2.324	-3.536	-1.105	-5.202	367.188
1.317	2.621	-3.344	4.330	5.852	2.810	4.762	-0.181	0.088	1.519	-3.933	-6.507	3.090	5.864	-1.994	5.426	1.832	-3.075	4.097	7.696	7.588	6.628	-0.626	1.990	-2.156	-3.322	-0.989	-5.037	371.094
1.155	2.453	-3.260	4.344	5.787	2.787	4.322	-0.228	-0.025	1.058	-4.193	-6.844	2.813	5.894	-2.017	5.459	1.816	-2.818	4.121	7.872	7.754	6.622	-0.443	1.971	-1.957	-3.060	-0.886	-4.975	375.000
0.920	2.353	-3.125	4.420	5.766	2.801	3.813	-0.276	-0.182	0.474	-4.649	-7.439	2.472	5.947	-2.077	5.510	1.909	-2.491	4.238	8.095	7.987	6.685	-0.213	1.986	-1.734	-2.770	-0.806	-5.030	378.906
0.599	2.305	-2.945	4.539	5.788	2.854	3.294	-0.302	-0.345	-0.150	-5.220	-8.204	2.104	6.015	-2.167	5.548	2.065	-2.163	4.405	8.326	8.264	6.794	0.019	2.024	-1.499	-2.477	-0.749	-5.187	382.812
0.188	2.276	-2.742	4.666	5.837	2.938	2.838	-0.288	-0.461	-0.703	-5.784	-8.996	1.763	6.090	-2.283	5.532	2.217	-1.902	4.563	8.521	8.548	6.915	0.205	2.069	-1.269	-2.211	-0.708	-5.405	386.719
-0.301	2.224	-2.549	4.759	5.898	3.041	2.522	-0.219	-0.480	-1.070	-6.202	-9.646	1.512	6.165	-2.420	5.420	2.286	-1.770	4.650	8.632	8.796	7.009	0.301	2.105	-1.069	-2.004	-0.676	-5.629	390.625
-0.834	2.105	-2.399	4.780	5.951	3.142	2.406	-0.093	-0.370	-1.154	-6.349	-9.992	1.409	6.237	-2.576	5.179	2.206	-1.797	4.616	8.620	8.972	7.045	0.283	2.118	-0.927	-1.892	-0.647	-5.803	394.531
-1.366	1.891	-2.322	4.707	5.986	3.220	2.527	0.078	-0.124	-0.904	-6.143	-9.919	1.496	6.308	-2.756	4.794	1.941	-1.982	4.436	8.469	9.054	7.003	0.146	2.094	-0.871	-1.905	-0.626	-5.884	398.438
-1.843	1.578	-2.334	4.535	5.997	3.262	2.885	0.274	0.237	-0.325	-5.568	-9.385	1.786	6.385	-2.961	4.279	1.496	-2.290	4.117	8.188	9.038	6.882	-0.090	2.028	-0.925	-2.063	-0.628	-5.854	402.344
-2.218	1.184	-2.434	4.281	5.990	3.258	3.441	0.465	0.663	0.520	-4.680	-8.435	2.259	6.478	-3.189	3.670	0.921	-2.661	3.701	7.812	8.940	6.700	-0.387	1.918	-1.099	-2.374	-0.679	-5.727	406.250
-2.460	0.746	-2.605	3.983	5.981	3.212	4.128	0.623	1.090	1.516	-3.597	-7.194	2.860	6.595	-3.427	3.026	0.296	-3.026	3.251	7.397	8.798	6.488	-0.698	1.763	-1.390	-2.832	-0.812	-5.542	410.156
-2.564	0.312	-2.815	3.690	5.987	3.139	4.857	0.724	1.453	2.521	-2.476	-5.842	3.513	6.741	-3.654	2.416	-0.285	-3.321	2.841	7.013	8.659	6.285	-0.973	1.566	-1.783	-3.410	-1.055	-5.354	414.062
-2.553	-0.069	-3.027	3.453	6.030	3.062	5.531	0.756	1.692	3.387	-1.486	-4.581	4.127	6.918	-3.838	1.909	-0.733	-3.495	2.543	6.730	8.576	6.127	-1.174	1.332	-2.247	-4.072	-1.431	-5.228	417.969
-2.466	-0.359	-3.203	3.319	6.128	3.009	6.063	0.717	1.767	3.987	-0.773	-3.594	4.620	7.119	-3.947	1.561	-0.987	-3.522	2.409	6.605	8.592	6.045	-1.271	1.066	-2.744	-4.767	-1.946	-5.214	421.875
-2.352	-0.537	-3.311	3.315	6.291	3.003	6.387	0.616	1.662	4.233	-0.441	-3.017	4.928	7.335	-3.955	1.405	-1.019	-3.406	2.464	6.674	8.738	6.059	-1.253	0.776	-3.230	-5.444	-2.585	-5.345	425.781
-2.255	-0.599	-3.334	3.449	6.521	3.064	6.464	0.470	1.385	4.088	-0.528	-2.913	5.015	7.552	-3.853	1.450	-0.846	-3.173	2.704	6.943	9.020	6.175	-1.120	0.471	-3.663	-6.052	-3.315	-5.627	429.688
-2.204	-0.564	-3.271	3.708	6.810	3.199	6.288	0.303	0.963	3.568	-1.008	-3.270	4.881	7.758	-3.649	1.674	-0.517	-2.870	3.095	7.390	9.425	6.386	-0.881	0.165	-4.005	-6.551	-4.089	-6.038	433.594
-2.210	-0.456	-3.133	4.059	7.145	3.403	5.884	0.139	0.443	2.735	-1.800	-4.007	4.557	7.941	-3.374	2.036	-0.102	-2.549	3.586	7.966	9.915	6.679	-0.553	-0.128	-4.233	-6.917	-4.851	-6.539	437.500
-2.264	-0.308	-2.940	4.461	7.505	3.662	5.301	-0.003	-0.124	1.688	-2.788	-4.996	4.098	8.094	-3.069	2.479	0.321	-2.259	4.117	8.608	10.445	7.031	-0.153	-0.393	-4.341	-7.144	-5.547	-7.076	441.406
-2.345	-0.142	-2.715	4.870	7.869	3.958	4.607	-0.111	-0.683	0.541	-3.839	-6.089	3.575	8.215	-2.781	2.947	0.688	-2.034	4.632	9.248	10.960	7.418	0.298	-0.618	-4.342	-7.249	-6.136	-7.597	445.312
-2.425	0.026	-2.478	5.248	8.217	4.266	3.873	-0.183	-1.191	-0.595	-4.835	-7.143	3.059	8.307	-2.550	3.391	0.957	-1.890	5.086	9.825	11.412	7.812	0.778	-0.796	-4.266	-7.261	-6.592	-8.060	449.219
-2.476	0.194	-2.242	5.570	8.530	4.567	3.163	-0.226	-1.615	-1.624	-5.678	-8.044	2.614	8.372	-2.399	3.777	1.116	-1.821	5.452	10.293	11.765	8.185	1.265	-0.925	-4.152	-7.221	-6.911	-8.435	453.125
-2.477	0.368	-2.012	5.820	8.792	4.840	2.525	-0.257	-1.942	-2.483	-6.313	-8.718	2.280	8.413	-2.327	4.089	1.180	-1.804	5.724	10.628	11.996	8.512	1.739	-1.010	-4.040	-7.171	-7.107	-8.709	457.031
-2.418	0.555	-1.790	5.997	8.987	5.074	1.984	-0.293	-2.175	-3.140	-6.719	-9.138	2.075	8.429	-2.316	4.325	1.181	-1.805	5.907	10.823	12.099	8.767	2.179	-1.062	-3.958	-7.141	-7.206	-8.882	460.938
-2.300	0.759	-1.570	6.108	9.107	5.259	1.541	-0.350	-2.328	-3.602	-6.911	-9.315	1.988	8.416	-2.336	4.495	1.160	-1.786	6.023	10.888	12.080	8.931	2.566	-1.095	-3.921	-7.150	-7.242	-8.966	464.844
-2.135	0.978	-1.351	6.163	9.144	5.390	1.177	-0.438	-2.424	-3.896	-6.927	-9.289	1.991	8.368	-2.350	4.610	1.156	-1.712	6.093	10.843	11.956	8.993	2.886	-1.128	-3.926	-7.198	-7.248	-8.976	468.750
-1.942	1.198	-1.136	6.169	9.094	5.467	0.863	-0.555	-2.481	-4.070	-6.814	-9.116	2.039	8.275	-2.330	4.679	1.192	-1.560	6.139	10.711	11.747	8.954	3.127	-1.175	-3.955	-7.273	-7.253	-8.930	472.656
-1.746	1.397	-0.934	6.130	8.958	5.489	0.572	-0.687	-2.510	-4.169	-6.618	-8.850	2.088	8.134	-2.262	4.704	1.277	-1.324	6.173	10.513	11.475	8.825	3.285	-1.247	-3.983	-7.350	-7.274	-8.844	476.562
-1.573	1.550	-0.759	6.044	8.742	5.462	0.284	-0.811	-2.511	-4.231	-6.371	-8.537	2.102	7.943	-2.155	4.680	1.399	-1.014	6.199	10.264	11.157	8.625	3.359	-1.346	-3.983	-7.403	-7.315	-8.728	480.469
-1.449	1.632	-0.629	5.907	8.453	5.388	-0.006	-0.901	-2.477	-4.278	-6.095	-8.208	2.059	7.709	-2.033	4.594	1.531	-0.660	6.207	9.973	10.810	8.382	3.356	-1.464	-3.931	-7.407	-7.363	-8.586	484.375
-1.392	1.620	-0.559	5.711	8.105	5.272	-0.287	-0.932	-2.395	-4.314	-5.799	-7.876	1.954	7.445	-1.935	4.434	1.635	-0.305	6.182	9.644	10.446	8.124	3.292	-1.581	-3.814	-7.339	-7.395	-8.414	488.281
-1.417	1.502	-0.558	5.452	7.710	5.119	-0.535	-0.888	-2.258	-4.330	-5.487	-7.541	1.803	7.170	-1.899	4.189	1.676	0.007	6.103	9.280	10.074	7.875	3.185	-1.673	-3.628	-7.189	-7.381	-8.204	492.188
-1.528	1.275	-0.632	5.131	7.282	4.930	-0.719	-0.766	-2.071	-4.307	-5.164	-7.197	1.631	6.905	-1.952	3.857	1.625	0.232	5.954	8.883	9.703	7.655	3.060	-1.710	-3.378	-6.954	-7.287	-7.946	496.094
-1.723	0.948	-0.776	4.754	6.835	4.708	-0.811	-0.579	-1.846	-4.224	-4.838	-6.835	1.471	6.669	-2.102	3.446	1.467	0.342	5.730	8.459	9.340	7.475	2.942	-1.666	-3.078	-6.638	-7.087	-7.631	500.000
-1.991	0.541	-0.979	4.330	6.386	4.455	-0.787	-0.352	-1.607	-4.068	-4.521	-6.450	1.352	6.477	-2.337	2.971	1.205	0.321	5.435	8.017	8.993	7.337	2.850	-1.526	-2.748	-6.255	-6.770	-7.258	503.906
-2.314	0.081	-1.225	3.878	5.948	4.178	-0.639	-0.115	-1.382	-3.828	-4.224	-6.039	1.297	6.334	-2.627	2.458	0.856	0.176	5.084	7.569	8.667	7.235	2.798	-1.289	-2.411	-5.827	-6.337	-6.832	507.812
-2.671	-0.397	-1.493	3.416	5.535	3.886	-0.372	0.103	-1.192	-3.506	-3.955	-5.606	1.315	6.237	-2.935	1.935	0.447	-0.073	4.703	7.125	8.364	7.153	2.790	-0.970	-2.087	-5.377	-5.811	-6.365	511.719
-3.035	-0.857	-1.760	2.962	5.160	3.591	-0.006	0.276	-1.053	-3.117	-3.712	-5.159	1.397	6.171	-3.221	1.428	0.011	-0.387	4.315	6.696	8.082	7.073	2.817	-0.601	-1.793	-4.930	-5.226	-5.877	515.625
-3.379	-1.268	-2.003	2.534	4.830	3.309	0.421	0.394	-0.967	-2.682	-3.488	-4.707	1.524	6.114	-3.451	0.961	-0.418	-0.722	3.947	6.289	7.816	6.973	2.869	-0.224	-1.540	-4.509	-4.632	-5.391	519.531
-3.672	-1.604	-2.202	2.144	4.547	3.057	0.866	0.457	-0.929	-2.233	-3.270	-4.263	1.662	6.039	-3.604	0.554	-0.812	-1.029	3.616	5.907	7.555	6.835	2.927	0.113	-1.333	-4.133	-4.078	-4.931	523.438
-3.887	-1.850	-2.339	1.801	4.312	2.847	1.275	0.477	-0.926	-1.808	-3.047	-3.844	1.776	5.921	-3.669	0.217	-1.145	-1.266	3.335	5.551	7.291	6.646	2.979	0.364	-1.169	-3.817	-3.615	-4.518	527.344
-3.998	-2.000	-2.402	1.511	4.117	2.689	1.602	0.472	-0.944	-1.445	-2.810	-3.467	1.830	5.742	-3.648	-0.041	-1.401	-1.404	3.110	5.223	7.017	6.404	3.015	0.495	-1.040	-3.569	-3.284	-4.171	531.250
-3.988	-2.058	-2.385	1.278	3.956	2.587	1.806	0.463	-0.968	-1.177	-2.564	-3.151	1.797	5.491	-3.549	-0.218	-1.566	-1.428	2.939	4.924	6.728	6.115	3.031	0.485	-0.938	-3.391	-3.111	-3.900	535.156
-3.846	-2.034	-2.291	1.105	3.820	2.537	1.863	0.467	-0.991	-1.029	-2.321	-2.911	1.663	5.169	-3.387	-0.315	-1.634	-1.339	2.816	4.655	6.427	5.792	3.032	0.333	-0.850	-3.277	-3.105	-3.709	539.062
-3.580	-1.945	-2.129	0.989	3.697	2.526	1.766	0.495	-1.011	-1.012	-2.102	-2.759	1.429	4.789	-3.178	-0.340	-1.608	-1.154	2.731	4.415	6.116	5.453	3.026	0.059	-0.765	-3.216	-3.250	-3.593	542.969
-3.211	-1.811	-1.921	0.925	3.580	2.539	1.529	0.548	-1.032	-1.122	-1.932	-2.697	1.113	4.369	-2.936	-0.306	-1.496	-0.899	2.672	4.203	5.799	5.119	3.024	-0.298	-0.675	-3.190	-3.513	-3.535	546.875
-2.774	-1.655	-1.689	0.902	3.459	2.554	1.181	0.622	-1.059	-1.341	-1.832	-2.716	0.752	3.937	-2.679	-0.230	-1.316	-0.610	2.628	4.013	5.483	4.809	3.036	-0.689	-0.569	-3.179	-3.839	-3.513	550.781
-2.316	-1.502	-1.465	0.902	3.327	2.553	0.768	0.707	-1.096	-1.633	-1.814	-2.796	0.388	3.520	-2.422	-0.137	-1.093	-0.326	2.588	3.836	5.173	4.541	3.068	-1.057	-0.439	-3.161	-4.167	-3.501	554.688
-1.885	-1.375	-1.276	0.908	3.179	2.519	0.338	0.792	-1.142	-1.956	-1.871	-2.907	0.070	3.146	-2.182	-0.052	-0.860	-0.086	2.544	3.661	4.873	4.327	3.124	-1.351	-0.280	-3.117	-4.433	-3.471	558.594
-1.527	-1.293	-1.143	0.900	3.014	2.446	-0.059	0.867	-1.192	-2.262	-1.982	-3.014	-0.160	2.837	-1.975	0.000	-0.651	0.076	2.489	3.480	4.587	4.173	3.199	-1.530	-0.093	-3.037	-4.584	-3.403	562.500
-1.276	-1.268	-1.077	0.866	2.836	2.336	-0.382	0.925	-1.234	-2.510	-2.114	-3.080	-0.272	2.608	-1.815	0.004	-0.498	0.135	2.419	3.290	4.319	4.074	3.289	-1.572	0.114	-2.919	-4.591	-3.287	566.406
-1.151	-1.297	-1.077	0.803	2.654	2.199	-0.604	0.959	-1.259	-2.666	-2.228	-3.078	-0.255	2.463	-1.710	-0.048	-0.423	0.084	2.333	3.091	4.071	4.020	3.381	-1.477	0.326	-2.771	-4.448	-3.124	570.312
-1.151	-1.365	-1.129	0.716	2.481	2.052	-0.716	0.968	-1.261	-2.714	-2.288	-2.993	-0.117	2.399	-1.657	-0.149	-0.438	-0.067	2.232	2.893	3.846	3.990	3.463	-1.268	0.519	-2.610	-4.178	-2.928	574.219
-1.261	-1.448	-1.212	0.622	2.332	1.916	-0.724	0.949	-1.238	-2.655	-2.272	-2.826	0.110	2.400	-1.648	-0.283	-0.538	-0.286	2.117	2.709	3.644	3.965	3.525	-0.982	0.666	-2.457	-3.825	-2.721	578.125
-1.452	-1.514	-1.304	0.540	2.222	1.810	-0.647	0.901	-1.197	-2.507	-2.175	-2.593	0.386	2.448	-1.664	-0.426	-0.707	-0.528	1.996	2.553	3.467	3.927	3.558	-0.669	0.742	-2.333	-3.446	-2.528	582.031
-1.689	-1.536	-1.383	0.489	2.164	1.751	-0.515	0.825	-1.151	-2.302	-2.011	-2.321	0.660	2.518	-1.679	-0.551	-0.912	-0.740	1.877	2.437	3.315	3.866	3.563	-0.383	0.732	-2.255	-3.100	-2.373	585.938
-1.932	-1.495	-1.437	0.483	2.162	1.749	-0.360	0.722	-1.115	-2.077	-1.810	-2.045	0.886	2.588	-1.669	-0.633	-1.117	-0.873	1.770	2.367	3.191	3.786	3.543	-0.167	0.630	-2.233	-2.839	-2.274	589.844
-2.147	-1.385	-1.458	0.524	2.215	1.806	-0.210	0.593	-1.106	-1.872	-1.610	-1.798	1.027	2.640	-1.616	-0.654	-1.283	-0.896	1.689	2.344	3.095	3.697	3.510	-0.055	0.443	-2.269	-2.696	-2.241	593.750
-2.302	-1.213	-1.449	0.607	2.313	1.918	-0.090	0.447	-1.133	-1.717	-1.450	-1.604	1.064	2.663	-1.510	-0.609	-1.374	-0.799	1.645	2.361	3.028	3.616	3.478	-0.059	0.193	-2.359	-2.684	-2.274	597.656
-2.376	-0.999	-1.413	0.715	2.440	2.069	-0.016	0.294	-1.199	-1.635	-1.361	-1.480	0.995	2.651	-1.356	-0.500	-1.368	-0.599	1.646	2.407	2.989	3.556	3.459	-0.175	-0.094	-2.488	-2.793	-2.361	601.562
-2.361	-0.771	-1.359	0.827	2.576	2.242	0.005	0.147	-1.297	-1.634	-1.358	-1.426	0.838	2.606	-1.169	-0.342	-1.259	-0.328	1.691	2.466	2.973	3.528	3.459	-0.379	-0.385	-2.641	-2.993	-2.484	605.469
-2.265	-0.559	-1.298	0.919	2.697	2.413	-0.022	0.021	-1.412	-1.703	-1.437	-1.431	0.623	2.535	-0.972	-0.161	-1.057	-0.031	1.771	2.523	2.971	3.529	3.479	-0.637	-0.651	-2.797	-3.241	-2.618	609.375
-2.108	-0.395	-1.240	0.968	2.784	2.561	-0.085	-0.069	-1.520	-1.822	-1.575	-1.470	0.388	2.444	-0.790	0.014	-0.790	0.245	1.869	2.560	2.971	3.550	3.511	-0.908	-0.868	-2.934	-3.486	-2.736	613.281
-1.922	-0.304	-1.195	0.957	2.818	2.666	-0.166	-0.111	-1.596	-1.958	-1.736	-1.513	0.168	2.342	-0.643	0.153	-0.503	0.461	1.960	2.561	2.956	3.571	3.540	-1.153	-1.024	-3.032	-3.681	-2.810	617.188
-1.743	-0.303	-1.171	0.880	2.790	2.716	-0.245	-0.098	-1.615	-2.076	-1.876	-1.528	-0.006	2.233	-0.544	0.230	-0.245	0.589	2.021	2.513	2.911	3.572	3.547	-1.336	-1.115	-3.071	-3.785	-2.814	621.094
-1.600	-0.398	-1.171	0.738	2.696	2.704	-0.302	-0.025	-1.561	-2.145	-1.953	-1.486	-0.113	2.119	-0.498	0.224	-0.065	0.619	2.030	2.406	2.820	3.532	3.512	-1.437	-1.149	-3.039	-3.773	-2.734	625.000
-1.510	-0.583	-1.194	0.542	2.543	2.631	-0.322	0.103	-1.426	-2.142	-1.934	-1.370	-0.148	1.998	-0.500	0.130	0.000	0.554	1.974	2.236	2.670	3.436	3.423	-1.446	-1.138	-2.930	-3.638	-2.560	628.906
-1.474	-0.835	-1.231	0.310	2.341	2.507	-0.299	0.276	-1.216	-2.058	-1.802	-1.175	-0.118	1.867	-0.541	-0.045	-0.067	0.416	1.849	2.007	2.456	3.275	3.272	-1.370	-1.096	-2.746	-3.389	-2.300	632.812
-1.475	-1.121	-1.270	0.066	2.110	2.344	-0.235	0.476	-0.949	-1.900	-1.562	-0.910	-0.039	1.721	-0.608	-0.281	-0.261	0.236	1.664	1.731	2.181	3.053	3.066	-1.226	-1.039	-2.502	-3.051	-1.968	636.719
-1.488	-1.399	-1.294	-0.168	1.870	2.164	-0.144	0.679	-0.650	-1.691	-1.235	-0.598	0.065	1.559	-0.683	-0.548	-0.551	0.051	1.437	1.427	1.856	2.782	2.819	-1.043	-0.979	-2.221	-2.664	-1.593	640.625
-1.482	-1.627	-1.289	-0.371	1.641	1.985	-0.043	0.857	-0.352	-1.462	-0.860	-0.272	0.173	1.383	-0.751	-0.810	-0.888	-0.101	1.198	1.122	1.501	2.484	2.555	-0.851	-0.927	-1.932	-2.270	-1.207	644.531
-1.434	-1.767	-1.246	-0.531	1.439	1.828	0.046	0.984	-0.087	-1.247	-0.480	0.033	0.266	1.200	-0.795	-1.029	-1.211	-0.192	0.978	0.841	1.141	2.187	2.304	-0.681	-0.894	-1.668	-1.915	-0.844	648.438
-1.332	-1.797	-1.165	-0.642	1.275	1.705	0.102	1.039	0.117	-1.081	-0.143	0.282	0.330	1.023	-0.800	-1.173	-1.462	-0.203	0.811	0.614	0.806	1.923	2.100	-0.553	-0.888	-1.460	-1.637	-0.537	652.344
-1.182	-1.708	-1.056	-0.705	1.154	1.623	0.108	1.006	0.239	-0.989	0.111	0.449	0.362	0.866	-0.755	-1.219	-1.589	-0.127	0.726	0.461	0.521	1.720	1.973	-0.482	-0.918	-1.331	-1.465	-0.314	656.250
-0.998	-1.511	-0.936	-0.728	1.076	1.579	0.056	0.884	0.265	-0.985	0.254	0.514	0.361	0.745	-0.659	-1.158	-1.562	0.030	0.741	0.395	0.311	1.600	1.944	-0.468	-0.988	-1.295	-1.411	-0.190	660.156
-0.807	-1.233	-0.825	-0.720	1.035	1.566	-0.056	0.681	0.197	-1.069	0.271	0.472	0.336	0.671	-0.514	-0.993	-1.371	0.252	0.860	0.422	0.189	1.576	2.026	-0.503	-1.096	-1.353	-1.472	-0.175	664.062
-0.635	-0.907	-0.744	-0.689	1.026	1.573	-0.216	0.416	0.043	-1.226	0.165	0.332	0.296	0.651	-0.335	-0.741	-1.035	0.516	1.074	0.532	0.163	1.646	2.211	-0.570	-1.236	-1.492	-1.628	-0.262	667.969
-0.501	-0.570	-0.707	-0.641	1.043	1.589	-0.409	0.116	-0.177	-1.430	-0.046	0.116	0.252	0.688	-0.140	-0.426	-0.595	0.793	1.355	0.710	0.228	1.796	2.478	-0.649	-1.396	-1.692	-1.847	-0.434	671.875
-0.418	-0.254	-0.722	-0.581	1.081	1.602	-0.610	-0.191	-0.437	-1.649	-0.329	-0.146	0.215	0.775	0.052	-0.083	-0.102	1.053	1.671	0.934	0.373	2.003	2.791	-0.720	-1.561	-1.923	-2.090	-0.665	675.781
-0.385	0.018	-0.788	-0.509	1.135	1.604	-0.794	-0.477	-0.707	-1.847	-0.643	-0.418	0.195	0.903	0.221	0.259	0.385	1.265	1.983	1.179	0.580	2.241	3.108	-0.767	-1.716	-2.158	-2.315	-0.922	679.688
-0.391	0.236	-0.895	-0.431	1.198	1.589	-0.938	-0.720	-0.962	-1.997	-0.948	-0.664	0.199	1.058	0.351	0.570	0.815	1.405	2.256	1.420	0.826	2.484	3.389	-0.778	-1.849	-2.368	-2.485	-1.170	683.594
-0.415	0.399	-1.028	-0.347	1.263	1.554	-1.027	-0.909	-1.180	-2.082	-1.208	-0.857	0.228	1.225	0.433	0.832	1.152	1.457	2.467	1.637	1.089	2.711	3.605	-0.750	-1.954	-2.534	-2.577	-1.380	687.500
-0.436	0.515	-1.169	-0.263	1.319	1.498	-1.055	-1.043	-1.354	-2.096	-1.399	-0.981	0.279	1.392	0.465	1.035	1.380	1.417	2.600	1.817	1.349	2.910	3.741	-0.684	-2.024	-2.645	-2.581	-1.528	691.406
-0.432	0.597	-1.297	-0.180	1.358	1.426	-1.025	-1.128	-1.483	-2.053	-1.513	-1.031	0.346	1.546	0.453	1.180	1.504	1.294	2.655	1.956	1.587	3.076	3.804	-0.589	-2.059	-2.703	-2.504	-1.606	695.312
-0.390	0.659	-1.396	-0.100	1.373	1.341	-0.954	-1.179	-1.577	-1.974	-1.559	-1.018	0.416	1.682	0.410	1.279	1.542	1.107	2.641	2.057	1.794	3.212	3.809	-0.480	-2.062	-2.714	-2.368	-1.616	699.219
-0.306	0.712	-1.452	-0.022	1.363	1.251	-0.859	-1.213	-1.648	-1.885	-1.553	-0.959	0.479	1.796	0.354	1.345	1.522	0.888	2.573	2.129	1.963	3.319	3.784	-0.373	-2.039	-2.695	-2.202	-1.572	703.125
-0.187	0.762	-1.456	0.057	1.332	1.166	-0.762	-1.242	-1.705	-1.811	-1.515	-0.874	0.524	1.886	0.304	1.394	1.470	0.672	2.465	2.183	2.089	3.397	3.748	-0.286	-2.000	-2.661	-2.042	-1.494	707.031
-0.049	0.810	-1.408	0.138	1.290	1.094	-0.678	-1.272	-1.753	-1.767	-1.461	-0.783	0.543	1.951	0.276	1.440	1.406	0.492	2.331	2.229	2.171	3.441	3.712	-0.232	-1.955	-2.628	-1.915	-1.405	710.938
0.086	0.858	-1.313	0.222	1.246	1.043	-0.619	-1.303	-1.790	-1.756	-1.401	-0.701	0.535	1.988	0.284	1.488	1.344	0.371	2.183	2.268	2.205	3.441	3.674	-0.218	-1.915	-2.604	-1.837	-1.321	714.844
0.194	0.908	-1.180	0.305	1.209	1.019	-0.586	-1.333	-1.808	-1.769	-1.335	-0.633	0.503	1.994	0.330	1.537	1.286	0.321	2.026	2.299	2.190	3.388	3.622	-0.244	-1.888	-2.591	-1.810	-1.256	718.750
0.259	0.964	-1.021	0.383	1.183	1.020	-0.575	-1.355	-1.799	-1.790	-1.259	-0.581	0.458	1.963	0.409	1.581	1.230	0.338	1.868	2.310	2.123	3.275	3.540	-0.298	-1.877	-2.584	-1.817	-1.209	722.656
0.276	1.035	-0.854	0.450	1.167	1.044	-0.577	-1.369	-1.756	-1.800	-1.165	-0.539	0.411	1.895	0.507	1.609	1.171	0.408	1.713	2.291	2.004	3.105	3.415	-0.361	-1.876	-2.575	-1.833	-1.176	726.562
0.251	1.125	-0.692	0.500	1.153	1.082	-0.582	-1.376	-1.681	-1.783	-1.047	-0.497	0.379	1.788	0.601	1.610	1.104	0.513	1.567	2.232	1.838	2.890	3.241	-0.411	-1.876	-2.551	-1.827	-1.142	730.469
0.197	1.237	-0.551	0.528	1.134	1.124	-0.582	-1.386	-1.582	-1.731	-0.905	-0.447	0.375	1.652	0.664	1.577	1.025	0.634	1.439	2.127	1.637	2.655	3.025	-0.427	-1.861	-2.500	-1.768	-1.093	734.375
0.135	1.362	-0.446	0.528	1.102	1.160	-0.569	-1.409	-1.474	-1.646	-0.747	-0.380	0.412	1.498	0.673	1.505	0.934	0.761	1.335	1.980	1.418	2.431	2.779	-0.393	-1.822	-2.414	-1.638	-1.013	738.281
0.083	1.485	-0.386	0.500	1.055	1.182	-0.540	-1.453	-1.375	-1.537	-0.588	-0.293	0.496	1.348	0.611	1.400	0.833	0.888	1.258	1.803	1.201	2.252	2.520	-0.303	-1.753	-2.292	-1.431	-0.895	742.188
0.052	1.581	-0.377	0.444	0.997	1.186	-0.494	-1.524	-1.302	-1.419	-0.444	-0.189	0.629	1.224	0.470	1.270	0.723	1.014	1.209	1.615	1.011	2.144	2.264	-0.159	-1.658	-2.138	-1.156	-0.739	746.094
0.045	1.624	-0.415	0.365	0.938	1.170	-0.431	-1.615	-1.263	-1.306	-0.331	-0.075	0.806	1.149	0.255	1.129	0.606	1.136	1.182	1.436	0.870	2.121	2.023	0.025	-1.551	-1.965	-0.839	-0.555	750.000
0.056	1.591	-0.492	0.272	0.891	1.140	-0.350	-1.715	-1.258	-1.207	-0.258	0.037	1.017	1.139	-0.018	0.991	0.481	1.248	1.166	1.286	0.793	2.178	1.803	0.228	-1.447	-1.786	-0.514	-0.362	753.906
0.076	1.468	-0.592	0.174	0.871	1.099	-0.250	-1.806	-1.278	-1.125	-0.226	0.134	1.248	1.203	-0.322	0.868	0.349	1.340	1.148	1.181	0.789	2.299	1.606	0.429	-1.363	-1.620	-0.219	-0.182	757.812
0.091	1.258	-0.698	0.083	0.889	1.058	-0.132	-1.870	-1.310	-1.060	-0.231	0.204	1.483	1.339	-0.626	0.769	0.214	1.399	1.117	1.128	0.858	2.453	1.434	0.605	-1.313	-1.482	0.013	-0.036	761.719
0.096	0.985	-0.794	0.011	0.949	1.023	0.001	-1.897	-1.342	-1.006	-0.268	0.236	1.703	1.535	-0.894	0.699	0.085	1.413	1.069	1.129	0.992	2.608	1.287	0.740	-1.306	-1.385	0.156	0.061	765.625
0.091	0.696	-0.872	-0.031	1.051	1.003	0.142	-1.884	-1.370	-0.964	-0.333	0.222	1.890	1.769	-1.092	0.667	-0.018	1.369	1.010	1.182	1.179	2.735	1.172	0.823	-1.343	-1.342	0.198	0.097	769.531
0.089	0.455	-0.928	-0.027	1.191	1.002	0.279	-1.843	-1.398	-0.934	-0.427	0.156	2.032	2.017	-1.192	0.679	-0.070	1.260	0.958	1.281	1.403	2.816	1.097	0.851	-1.422	-1.360	0.137	0.069	773.438
0.115	0.334	-0.967	0.033	1.360	1.021	0.400	-1.793	-1.439	-0.921	-0.558	0.034	2.118	2.258	-1.175	0.746	-0.041	1.077	0.941	1.423	1.649	2.847	1.072	0.827	-1.532	-1.448	-0.018	-0.020	777.344
0.195	0.395	-0.997	0.159	1.548	1.058	0.494	-1.756	-1.510	-0.933	-0.733	-0.144	2.147	2.474	-1.035	0.877	0.092	0.814	0.986	1.604	1.902	2.835	1.104	0.762	-1.663	-1.607	-0.249	-0.165	781.250
0.352	0.671	-1.028	0.352	1.746	1.107	0.552	-1.751	-1.625	-0.974	-0.956	-0.374	2.121	2.657	-0.779	1.075	0.340	0.471	1.111	1.820	2.152	2.795	1.196	0.666	-1.805	-1.836	-0.536	-0.353	785.156
0.593	1.162	-1.070	0.607	1.946	1.162	0.577	-1.787	-1.790	-1.045	-1.225	-0.645	2.052	2.805	-0.428	1.337	0.698	0.053	1.321	2.065	2.394	2.742	1.344	0.552	-1.947	-2.125	-0.854	-0.572	789.062
0.908	1.824	-1.126	0.906	2.145	1.218	0.574	-1.863	-1.998	-1.139	-1.530	-0.945	1.955	2.927	-0.012	1.646	1.142	-0.421	1.601	2.330	2.627	2.690	1.532	0.432	-2.084	-2.456	-1.187	-0.809	792.969
1.267	2.581	-1.193	1.228	2.340	1.273	0.557	-1.965	-2.233	-1.246	-1.856	-1.256	1.848	3.034	0.431	1.980	1.630	-0.924	1.923	2.604	2.855	2.645	1.742	0.314	-2.214	-2.806	-1.516	-1.049	796.875
