FP1	F3	F7	FC3	C3	C5	P3	P7	PO7	PO3	O1	Oz	Pz	CPz	FP2	Fz	F4	F8	FC4	FCz	Cz	C4	C6	P4	P8	PO8	PO4	O2	time
1.174	1.631	2.087	1.773	1.817	2.206	-0.077	0.057	-0.298	-0.281	-0.327	-1.339	-1.870	-0.230	0.561	1.412	1.015	1.467	0.753	1.166	1.361	0.734	-0.317	-2.061	-1.618	-1.921	-2.373	-1.064	-199.219
0.788	1.342	1.649	1.360	1.515	1.816	0.059	-0.027	-0.359	-0.243	-0.536	-1.260	-1.612	-0.050	0.557	1.242	0.864	1.032	0.711	1.073	1.375	0.532	-0.226	-1.613	-1.255	-1.513	-1.977	-0.885	-195.312
0.440	1.041	1.227	0.960	1.217	1.436	0.178	-0.108	-0.403	-0.203	-0.704	-1.162	-1.356	0.111	0.511	1.055	0.700	0.608	0.656	0.957	1.368	0.348	-0.146	-1.166	-0.873	-1.095	-1.559	-0.691	-191.406
0.150	0.729	0.832	0.587	0.930	1.075	0.265	-0.179	-0.415	-0.160	-0.800	-1.030	-1.103	0.241	0.402	0.840	0.510	0.220	0.579	0.800	1.325	0.199	-0.084	-0.728	-0.469	-0.666	-1.105	-0.474	-187.500
-0.071	0.414	0.480	0.257	0.658	0.743	0.308	-0.237	-0.393	-0.118	-0.810	-0.860	-0.853	0.330	0.227	0.596	0.298	-0.110	0.475	0.599	1.236	0.092	-0.046	-0.310	-0.052	-0.236	-0.619	-0.235	-183.594
-0.228	0.116	0.183	-0.014	0.407	0.452	0.300	-0.283	-0.343	-0.084	-0.740	-0.657	-0.609	0.380	0.000	0.335	0.075	-0.355	0.345	0.364	1.106	0.032	-0.033	0.075	0.355	0.177	-0.119	0.016	-179.688
-0.334	-0.139	-0.050	-0.216	0.183	0.210	0.242	-0.322	-0.278	-0.066	-0.612	-0.436	-0.373	0.397	-0.249	0.076	-0.135	-0.497	0.198	0.117	0.948	0.013	-0.041	0.412	0.724	0.547	0.367	0.258	-175.781
-0.409	-0.330	-0.216	-0.346	-0.011	0.025	0.142	-0.356	-0.212	-0.067	-0.452	-0.214	-0.147	0.393	-0.484	-0.157	-0.311	-0.518	0.045	-0.114	0.778	0.030	-0.058	0.688	1.022	0.847	0.801	0.471	-171.875
-0.469	-0.446	-0.321	-0.410	-0.173	-0.102	0.014	-0.391	-0.157	-0.087	-0.282	-0.007	0.063	0.383	-0.673	-0.342	-0.434	-0.416	-0.100	-0.303	0.618	0.071	-0.070	0.894	1.223	1.054	1.152	0.635	-167.969
-0.526	-0.488	-0.380	-0.424	-0.300	-0.173	-0.119	-0.425	-0.116	-0.119	-0.121	0.175	0.256	0.381	-0.792	-0.462	-0.497	-0.202	-0.227	-0.429	0.482	0.128	-0.062	1.026	1.311	1.155	1.394	0.736	-164.062
-0.584	-0.472	-0.414	-0.408	-0.395	-0.197	-0.234	-0.457	-0.089	-0.151	0.025	0.326	0.428	0.398	-0.830	-0.511	-0.507	0.095	-0.326	-0.484	0.380	0.192	-0.021	1.086	1.286	1.150	1.515	0.770	-160.156
-0.637	-0.418	-0.443	-0.385	-0.459	-0.184	-0.310	-0.482	-0.070	-0.170	0.153	0.448	0.577	0.437	-0.793	-0.495	-0.477	0.433	-0.395	-0.468	0.314	0.256	0.059	1.080	1.162	1.051	1.518	0.740	-156.250
-0.672	-0.347	-0.483	-0.369	-0.493	-0.146	-0.331	-0.497	-0.052	-0.167	0.264	0.543	0.698	0.496	-0.695	-0.425	-0.425	0.760	-0.430	-0.396	0.280	0.316	0.173	1.018	0.961	0.880	1.418	0.655	-152.344
-0.678	-0.275	-0.543	-0.370	-0.500	-0.094	-0.289	-0.501	-0.032	-0.140	0.356	0.613	0.789	0.567	-0.560	-0.320	-0.366	1.029	-0.435	-0.285	0.268	0.370	0.308	0.910	0.713	0.663	1.238	0.528	-148.438
-0.645	-0.209	-0.617	-0.386	-0.483	-0.037	-0.189	-0.497	-0.010	-0.090	0.424	0.661	0.846	0.638	-0.415	-0.196	-0.308	1.203	-0.412	-0.158	0.269	0.416	0.442	0.769	0.446	0.428	1.005	0.373	-144.531
-0.574	-0.150	-0.691	-0.406	-0.445	0.018	-0.045	-0.488	0.011	-0.026	0.462	0.686	0.867	0.694	-0.280	-0.071	-0.253	1.265	-0.368	-0.035	0.273	0.454	0.548	0.604	0.186	0.198	0.747	0.206	-140.625
-0.470	-0.092	-0.744	-0.417	-0.393	0.065	0.124	-0.479	0.023	0.041	0.464	0.687	0.853	0.723	-0.168	0.042	-0.194	1.221	-0.308	0.067	0.270	0.479	0.599	0.428	-0.047	-0.008	0.487	0.042	-136.719
-0.344	-0.030	-0.758	-0.406	-0.332	0.097	0.294	-0.475	0.026	0.102	0.432	0.663	0.805	0.717	-0.084	0.135	-0.125	1.090	-0.243	0.137	0.255	0.486	0.574	0.249	-0.241	-0.176	0.245	-0.102	-132.812
-0.210	0.040	-0.719	-0.362	-0.269	0.111	0.442	-0.473	0.019	0.155	0.373	0.617	0.730	0.670	-0.026	0.205	-0.039	0.905	-0.180	0.169	0.225	0.468	0.466	0.076	-0.388	-0.300	0.035	-0.213	-128.906
-0.078	0.116	-0.624	-0.285	-0.210	0.107	0.551	-0.471	0.006	0.197	0.302	0.551	0.636	0.583	0.014	0.250	0.063	0.697	-0.128	0.164	0.180	0.419	0.281	-0.082	-0.487	-0.376	-0.136	-0.279	-125.000
0.045	0.192	-0.480	-0.183	-0.159	0.085	0.611	-0.462	-0.005	0.231	0.237	0.473	0.531	0.462	0.041	0.271	0.175	0.493	-0.092	0.127	0.121	0.332	0.040	-0.219	-0.534	-0.404	-0.263	-0.293	-121.094
0.156	0.254	-0.307	-0.069	-0.119	0.048	0.619	-0.439	-0.009	0.261	0.191	0.388	0.427	0.315	0.060	0.271	0.286	0.313	-0.074	0.067	0.052	0.209	-0.225	-0.327	-0.528	-0.386	-0.341	-0.255	-117.188
0.255	0.293	-0.128	0.037	-0.094	0.000	0.580	-0.399	-0.003	0.289	0.171	0.304	0.331	0.155	0.074	0.251	0.381	0.170	-0.070	-0.006	-0.025	0.056	-0.478	-0.402	-0.471	-0.326	-0.372	-0.174	-113.281
0.341	0.302	0.029	0.119	-0.082	-0.052	0.502	-0.343	0.011	0.313	0.177	0.226	0.248	-0.006	0.082	0.216	0.448	0.068	-0.074	-0.081	-0.108	-0.111	-0.683	-0.437	-0.364	-0.233	-0.354	-0.062	-109.375
0.414	0.280	0.143	0.164	-0.086	-0.106	0.395	-0.278	0.025	0.329	0.197	0.160	0.184	-0.154	0.083	0.170	0.478	0.009	-0.077	-0.147	-0.193	-0.271	-0.813	-0.432	-0.221	-0.115	-0.292	0.064	-105.469
0.475	0.236	0.198	0.169	-0.102	-0.160	0.268	-0.214	0.030	0.327	0.212	0.105	0.138	-0.278	0.079	0.121	0.473	-0.012	-0.069	-0.197	-0.277	-0.398	-0.851	-0.385	-0.060	0.014	-0.191	0.188	-101.562
0.518	0.188	0.192	0.138	-0.130	-0.212	0.127	-0.165	0.012	0.296	0.202	0.059	0.111	-0.370	0.074	0.076	0.437	-0.003	-0.042	-0.224	-0.354	-0.469	-0.793	-0.302	0.095	0.143	-0.058	0.295	-97.656
0.539	0.153	0.136	0.083	-0.164	-0.262	-0.024	-0.143	-0.039	0.227	0.149	0.020	0.100	-0.423	0.074	0.043	0.381	0.024	0.007	-0.224	-0.418	-0.469	-0.649	-0.187	0.218	0.259	0.095	0.376	-93.750
0.533	0.148	0.048	0.017	-0.201	-0.313	-0.181	-0.158	-0.128	0.114	0.049	-0.015	0.105	-0.437	0.086	0.027	0.314	0.060	0.074	-0.198	-0.465	-0.394	-0.443	-0.051	0.290	0.355	0.257	0.428	-89.844
0.497	0.178	-0.047	-0.044	-0.236	-0.364	-0.343	-0.209	-0.252	-0.042	-0.096	-0.047	0.121	-0.413	0.115	0.027	0.246	0.093	0.149	-0.151	-0.490	-0.256	-0.201	0.094	0.303	0.427	0.415	0.454	-85.938
0.431	0.235	-0.126	-0.091	-0.265	-0.417	-0.504	-0.291	-0.400	-0.229	-0.266	-0.075	0.145	-0.360	0.163	0.039	0.183	0.117	0.224	-0.093	-0.496	-0.080	0.047	0.236	0.261	0.474	0.557	0.458	-82.031
0.341	0.301	-0.172	-0.120	-0.285	-0.471	-0.658	-0.390	-0.554	-0.429	-0.440	-0.097	0.172	-0.287	0.227	0.052	0.130	0.127	0.286	-0.037	-0.488	0.104	0.279	0.362	0.182	0.498	0.671	0.448	-78.125
0.236	0.350	-0.178	-0.132	-0.296	-0.526	-0.797	-0.488	-0.693	-0.621	-0.591	-0.108	0.198	-0.211	0.299	0.058	0.093	0.122	0.333	0.003	-0.476	0.265	0.479	0.462	0.087	0.503	0.749	0.428	-74.219
0.129	0.357	-0.148	-0.134	-0.298	-0.575	-0.912	-0.566	-0.795	-0.781	-0.698	-0.106	0.215	-0.144	0.373	0.046	0.072	0.104	0.362	0.014	-0.469	0.382	0.640	0.530	-0.001	0.489	0.784	0.401	-70.312
0.031	0.304	-0.092	-0.134	-0.291	-0.613	-0.992	-0.607	-0.842	-0.889	-0.743	-0.087	0.217	-0.100	0.439	0.010	0.067	0.072	0.376	-0.011	-0.478	0.439	0.756	0.563	-0.063	0.459	0.773	0.367	-66.406
-0.048	0.189	-0.024	-0.139	-0.276	-0.632	-1.025	-0.595	-0.818	-0.930	-0.715	-0.048	0.201	-0.088	0.490	-0.053	0.071	0.025	0.375	-0.074	-0.510	0.434	0.822	0.560	-0.089	0.413	0.714	0.323	-62.500
-0.101	0.023	0.042	-0.150	-0.252	-0.624	-1.005	-0.520	-0.713	-0.896	-0.608	0.012	0.163	-0.114	0.519	-0.141	0.075	-0.042	0.359	-0.169	-0.564	0.374	0.829	0.521	-0.078	0.350	0.612	0.267	-58.594
-0.124	-0.170	0.098	-0.167	-0.219	-0.585	-0.929	-0.378	-0.528	-0.789	-0.427	0.091	0.104	-0.176	0.516	-0.247	0.066	-0.131	0.326	-0.285	-0.636	0.269	0.772	0.450	-0.037	0.268	0.472	0.195	-54.688
-0.113	-0.362	0.139	-0.185	-0.175	-0.516	-0.797	-0.173	-0.274	-0.620	-0.184	0.180	0.026	-0.266	0.475	-0.358	0.038	-0.246	0.274	-0.403	-0.717	0.135	0.649	0.349	0.021	0.169	0.302	0.105	-50.781
-0.068	-0.525	0.169	-0.198	-0.123	-0.423	-0.620	0.083	0.027	-0.405	0.098	0.269	-0.065	-0.374	0.389	-0.462	-0.009	-0.384	0.203	-0.507	-0.792	-0.011	0.471	0.225	0.079	0.053	0.112	-0.000	-46.875
0.007	-0.638	0.191	-0.199	-0.066	-0.315	-0.410	0.371	0.344	-0.165	0.386	0.341	-0.160	-0.484	0.262	-0.543	-0.072	-0.537	0.115	-0.579	-0.846	-0.155	0.258	0.084	0.121	-0.074	-0.089	-0.118	-42.969
0.104	-0.694	0.209	-0.185	-0.007	-0.207	-0.184	0.666	0.643	0.080	0.647	0.382	-0.251	-0.582	0.103	-0.592	-0.141	-0.695	0.016	-0.604	-0.869	-0.289	0.039	-0.065	0.133	-0.204	-0.290	-0.239	-39.062
0.206	-0.696	0.221	-0.152	0.050	-0.112	0.043	0.944	0.893	0.310	0.846	0.379	-0.327	-0.654	-0.069	-0.601	-0.209	-0.843	-0.088	-0.574	-0.852	-0.406	-0.155	-0.212	0.107	-0.327	-0.479	-0.354	-35.156
0.292	-0.660	0.224	-0.101	0.099	-0.042	0.255	1.186	1.073	0.514	0.962	0.328	-0.380	-0.690	-0.230	-0.571	-0.272	-0.969	-0.190	-0.489	-0.793	-0.506	-0.301	-0.345	0.042	-0.435	-0.646	-0.453	-31.250
0.340	-0.605	0.210	-0.035	0.140	-0.001	0.442	1.377	1.175	0.681	0.986	0.233	-0.408	-0.685	-0.355	-0.507	-0.334	-1.065	-0.286	-0.354	-0.700	-0.587	-0.385	-0.454	-0.055	-0.518	-0.780	-0.526	-27.344
0.332	-0.550	0.172	0.042	0.168	0.008	0.592	1.515	1.203	0.807	0.922	0.103	-0.410	-0.641	-0.424	-0.418	-0.399	-1.127	-0.371	-0.182	-0.582	-0.649	-0.412	-0.533	-0.170	-0.571	-0.875	-0.571	-23.438
0.262	-0.506	0.110	0.124	0.183	-0.011	0.698	1.602	1.171	0.886	0.789	-0.046	-0.393	-0.566	-0.425	-0.316	-0.476	-1.155	-0.443	0.007	-0.455	-0.691	-0.402	-0.578	-0.281	-0.593	-0.923	-0.587	-19.531
0.142	-0.478	0.030	0.201	0.182	-0.054	0.751	1.644	1.094	0.913	0.613	-0.197	-0.368	-0.472	-0.360	-0.210	-0.565	-1.156	-0.500	0.195	-0.333	-0.714	-0.384	-0.590	-0.365	-0.582	-0.927	-0.579	-15.625
-0.003	-0.459	-0.054	0.268	0.161	-0.114	0.743	1.647	0.990	0.884	0.420	-0.335	-0.346	-0.374	-0.241	-0.109	-0.661	-1.136	-0.539	0.363	-0.229	-0.720	-0.392	-0.574	-0.401	-0.540	-0.889	-0.555	-11.719
-0.137	-0.442	-0.124	0.318	0.118	-0.184	0.672	1.614	0.871	0.795	0.234	-0.447	-0.338	-0.285	-0.092	-0.018	-0.752	-1.101	-0.560	0.497	-0.152	-0.713	-0.452	-0.534	-0.376	-0.470	-0.817	-0.523	-7.812
-0.223	-0.420	-0.161	0.347	0.054	-0.256	0.539	1.549	0.745	0.644	0.073	-0.526	-0.349	-0.216	0.059	0.062	-0.822	-1.061	-0.561	0.587	-0.107	-0.698	-0.574	-0.477	-0.288	-0.373	-0.721	-0.486	-3.906
-0.237	-0.394	-0.153	0.351	-0.030	-0.324	0.352	1.454	0.619	0.438	-0.056	-0.571	-0.379	-0.173	0.187	0.127	-0.857	-1.027	-0.545	0.630	-0.093	-0.679	-0.750	-0.408	-0.144	-0.255	-0.609	-0.447	0.000
-0.171	-0.371	-0.098	0.329	-0.128	-0.380	0.124	1.334	0.498	0.187	-0.149	-0.581	-0.423	-0.155	0.276	0.174	-0.849	-1.007	-0.515	0.629	-0.107	-0.662	-0.952	-0.329	0.036	-0.120	-0.492	-0.402	3.906
-0.036	-0.363	-0.005	0.280	-0.235	-0.420	-0.128	1.200	0.386	-0.092	-0.211	-0.558	-0.472	-0.161	0.324	0.201	-0.797	-1.012	-0.479	0.587	-0.144	-0.651	-1.143	-0.243	0.227	0.026	-0.378	-0.347	7.812
0.143	-0.382	0.113	0.211	-0.343	-0.440	-0.383	1.063	0.290	-0.375	-0.247	-0.505	-0.516	-0.187	0.340	0.204	-0.712	-1.048	-0.445	0.511	-0.199	-0.650	-1.282	-0.152	0.401	0.174	-0.274	-0.277	11.719
0.333	-0.430	0.241	0.128	-0.444	-0.438	-0.621	0.940	0.216	-0.639	-0.264	-0.423	-0.550	-0.230	0.342	0.183	-0.613	-1.114	-0.423	0.409	-0.269	-0.663	-1.338	-0.062	0.531	0.310	-0.192	-0.192	15.625
0.503	-0.498	0.367	0.048	-0.530	-0.413	-0.826	0.845	0.167	-0.863	-0.267	-0.315	-0.572	-0.288	0.349	0.142	-0.520	-1.202	-0.422	0.288	-0.353	-0.692	-1.299	0.015	0.600	0.418	-0.140	-0.098	19.531
0.630	-0.564	0.486	-0.013	-0.594	-0.365	-0.987	0.788	0.145	-1.030	-0.261	-0.190	-0.588	-0.363	0.377	0.087	-0.452	-1.296	-0.447	0.159	-0.448	-0.738	-1.172	0.068	0.600	0.485	-0.130	-0.005	23.438
0.705	-0.598	0.597	-0.036	-0.630	-0.292	-1.098	0.776	0.147	-1.133	-0.253	-0.058	-0.609	-0.456	0.431	0.028	-0.425	-1.377	-0.498	0.028	-0.554	-0.799	-0.984	0.081	0.534	0.499	-0.168	0.073	27.344
0.725	-0.577	0.703	-0.010	-0.635	-0.193	-1.158	0.812	0.167	-1.169	-0.246	0.066	-0.649	-0.571	0.505	-0.028	-0.446	-1.425	-0.571	-0.096	-0.668	-0.869	-0.771	0.046	0.422	0.461	-0.251	0.125	31.250
0.699	-0.494	0.806	0.063	-0.608	-0.070	-1.168	0.896	0.203	-1.143	-0.243	0.166	-0.722	-0.708	0.584	-0.078	-0.518	-1.426	-0.659	-0.211	-0.786	-0.943	-0.572	-0.038	0.295	0.386	-0.368	0.147	35.156
0.637	-0.364	0.902	0.171	-0.552	0.075	-1.132	1.026	0.257	-1.065	-0.244	0.224	-0.842	-0.869	0.645	-0.125	-0.639	-1.377	-0.754	-0.315	-0.905	-1.013	-0.421	-0.160	0.194	0.300	-0.495	0.147	39.062
0.551	-0.220	0.981	0.288	-0.473	0.235	-1.055	1.202	0.337	-0.945	-0.245	0.228	-1.015	-1.051	0.664	-0.180	-0.803	-1.288	-0.853	-0.413	-1.021	-1.075	-0.336	-0.298	0.160	0.244	-0.599	0.138	42.969
0.448	-0.107	1.032	0.384	-0.383	0.399	-0.943	1.422	0.461	-0.795	-0.237	0.170	-1.243	-1.250	0.623	-0.256	-1.000	-1.179	-0.952	-0.513	-1.133	-1.127	-0.321	-0.423	0.229	0.257	-0.646	0.142	46.875
0.335	-0.070	1.046	0.427	-0.295	0.552	-0.805	1.686	0.647	-0.624	-0.209	0.045	-1.521	-1.460	0.515	-0.369	-1.218	-1.079	-1.053	-0.623	-1.242	-1.171	-0.368	-0.505	0.426	0.376	-0.608	0.178	50.781
0.215	-0.136	1.017	0.394	-0.225	0.677	-0.652	1.987	0.914	-0.443	-0.152	-0.140	-1.836	-1.677	0.340	-0.529	-1.444	-1.014	-1.157	-0.752	-1.351	-1.211	-0.457	-0.516	0.757	0.627	-0.466	0.265	54.688
0.093	-0.310	0.945	0.275	-0.189	0.759	-0.501	2.317	1.270	-0.264	-0.058	-0.374	-2.173	-1.891	0.111	-0.742	-1.663	-1.005	-1.265	-0.907	-1.464	-1.253	-0.563	-0.442	1.210	1.014	-0.217	0.412	58.594
-0.027	-0.572	0.836	0.073	-0.197	0.785	-0.365	2.662	1.711	-0.097	0.073	-0.638	-2.508	-2.096	-0.156	-1.004	-1.864	-1.060	-1.375	-1.091	-1.587	-1.303	-0.663	-0.280	1.751	1.525	0.128	0.623	62.500
-0.142	-0.881	0.702	-0.199	-0.258	0.750	-0.259	3.007	2.221	0.049	0.236	-0.910	-2.819	-2.282	-0.443	-1.307	-2.041	-1.173	-1.485	-1.302	-1.720	-1.364	-0.740	-0.040	2.335	2.129	0.544	0.892	66.406
-0.251	-1.187	0.553	-0.515	-0.371	0.658	-0.193	3.337	2.772	0.167	0.418	-1.167	-3.081	-2.441	-0.735	-1.636	-2.194	-1.331	-1.594	-1.533	-1.865	-1.439	-0.782	0.256	2.911	2.786	1.001	1.209	70.312
-0.358	-1.447	0.398	-0.850	-0.529	0.518	-0.167	3.642	3.333	0.254	0.607	-1.385	-3.271	-2.563	-1.023	-1.976	-2.330	-1.518	-1.702	-1.777	-2.019	-1.528	-0.790	0.579	3.432	3.448	1.465	1.558	74.219
-0.475	-1.635	0.244	-1.180	-0.721	0.351	-0.175	3.916	3.870	0.313	0.790	-1.548	-3.370	-2.644	-1.298	-2.312	-2.460	-1.719	-1.816	-2.025	-2.177	-1.629	-0.769	0.898	3.860	4.070	1.906	1.922	78.125
-0.617	-1.751	0.093	-1.484	-0.928	0.176	-0.204	4.160	4.359	0.351	0.957	-1.643	-3.367	-2.677	-1.552	-2.632	-2.602	-1.923	-1.941	-2.265	-2.332	-1.735	-0.730	1.186	4.174	4.614	2.298	2.285	82.031
-0.799	-1.817	-0.057	-1.750	-1.129	0.017	-0.234	4.377	4.778	0.377	1.099	-1.669	-3.257	-2.660	-1.773	-2.925	-2.772	-2.125	-2.087	-2.485	-2.471	-1.833	-0.690	1.422	4.367	5.049	2.617	2.626	85.938
-1.030	-1.871	-0.205	-1.969	-1.300	-0.107	-0.245	4.574	5.114	0.400	1.206	-1.631	-3.044	-2.589	-1.953	-3.182	-2.985	-2.323	-2.254	-2.672	-2.582	-1.909	-0.663	1.592	4.450	5.357	2.846	2.927	89.844
-1.306	-1.957	-0.352	-2.137	-1.418	-0.179	-0.219	4.752	5.356	0.425	1.268	-1.545	-2.738	-2.464	-2.085	-3.393	-3.247	-2.512	-2.441	-2.807	-2.646	-1.947	-0.659	1.690	4.440	5.526	2.967	3.166	93.750
-1.613	-2.105	-0.492	-2.248	-1.463	-0.190	-0.141	4.910	5.494	0.449	1.275	-1.432	-2.359	-2.284	-2.164	-3.549	-3.553	-2.680	-2.634	-2.873	-2.646	-1.935	-0.680	1.716	4.357	5.551	2.965	3.323	97.656
-1.923	-2.328	-0.616	-2.296	-1.420	-0.134	-0.009	5.036	5.521	0.466	1.213	-1.318	-1.935	-2.052	-2.189	-3.635	-3.885	-2.811	-2.808	-2.852	-2.570	-1.865	-0.718	1.673	4.220	5.428	2.824	3.378	101.562
-2.201	-2.610	-0.712	-2.274	-1.283	-0.015	0.171	5.114	5.427	0.463	1.075	-1.227	-1.495	-1.773	-2.158	-3.638	-4.209	-2.875	-2.932	-2.731	-2.407	-1.738	-0.756	1.565	4.039	5.157	2.532	3.313	105.469
-2.407	-2.910	-0.764	-2.174	-1.053	0.156	0.381	5.117	5.202	0.426	0.855	-1.186	-1.075	-1.460	-2.069	-3.543	-4.478	-2.837	-2.968	-2.504	-2.157	-1.561	-0.770	1.393	3.816	4.739	2.086	3.118	109.375
-2.504	-3.165	-0.758	-1.989	-0.744	0.362	0.597	5.021	4.844	0.338	0.551	-1.214	-0.708	-1.129	-1.921	-3.337	-4.638	-2.666	-2.877	-2.168	-1.828	-1.344	-0.738	1.161	3.548	4.180	1.489	2.786	113.281
-2.462	-3.307	-0.687	-1.714	-0.376	0.581	0.791	4.803	4.356	0.192	0.170	-1.323	-0.425	-0.800	-1.713	-3.013	-4.635	-2.339	-2.630	-1.733	-1.435	-1.099	-0.641	0.873	3.229	3.495	0.762	2.323	117.188
-2.264	-3.275	-0.552	-1.356	0.023	0.790	0.937	4.452	3.754	-0.011	-0.275	-1.517	-0.249	-0.496	-1.449	-2.572	-4.428	-1.854	-2.214	-1.216	-1.001	-0.836	-0.474	0.536	2.857	2.710	-0.060	1.745	121.094
-1.912	-3.033	-0.365	-0.927	0.420	0.966	1.017	3.971	3.069	-0.256	-0.760	-1.784	-0.194	-0.241	-1.146	-2.030	-3.999	-1.238	-1.641	-0.648	-0.554	-0.568	-0.245	0.165	2.437	1.867	-0.923	1.086	125.000
-1.428	-2.582	-0.147	-0.456	0.780	1.092	1.028	3.385	2.348	-0.512	-1.251	-2.100	-0.259	-0.056	-0.826	-1.422	-3.364	-0.544	-0.949	-0.069	-0.127	-0.309	0.026	-0.222	1.989	1.026	-1.757	0.396	128.906
-0.856	-1.964	0.073	0.019	1.071	1.156	0.979	2.735	1.651	-0.739	-1.704	-2.426	-0.433	0.041	-0.523	-0.800	-2.574	0.151	-0.202	0.470	0.247	-0.078	0.304	-0.595	1.548	0.261	-2.482	-0.261	132.812
-0.257	-1.260	0.264	0.451	1.265	1.154	0.895	2.081	1.045	-0.886	-2.068	-2.711	-0.694	0.039	-0.271	-0.233	-1.722	0.760	0.513	0.912	0.533	0.099	0.549	-0.921	1.161	-0.349	-3.014	-0.807	136.719
0.296	-0.580	0.397	0.790	1.345	1.093	0.812	1.488	0.600	-0.900	-2.287	-2.894	-1.008	-0.064	-0.106	0.199	-0.926	1.195	1.100	1.198	0.697	0.193	0.718	-1.163	0.878	-0.723	-3.273	-1.163	140.625
0.726	-0.044	0.448	0.988	1.304	0.982	0.774	1.025	0.379	-0.735	-2.306	-2.918	-1.341	-0.266	-0.057	0.418	-0.313	1.386	1.470	1.276	0.711	0.174	0.776	-1.287	0.752	-0.799	-3.198	-1.262	144.531
0.965	0.237	0.402	1.006	1.145	0.837	0.822	0.748	0.429	-0.358	-2.081	-2.737	-1.657	-0.553	-0.146	0.358	-0.004	1.293	1.551	1.105	0.554	0.021	0.702	-1.263	0.819	-0.538	-2.752	-1.055	148.438
0.964	0.180	0.249	0.823	0.883	0.678	0.991	0.695	0.774	0.243	-1.584	-2.323	-1.922	-0.910	-0.384	-0.023	-0.086	0.915	1.308	0.668	0.215	-0.273	0.497	-1.073	1.101	0.064	-1.938	-0.529	152.344
0.700	-0.251	-0.008	0.439	0.539	0.522	1.299	0.876	1.408	1.055	-0.815	-1.679	-2.116	-1.315	-0.774	-0.736	-0.599	0.296	0.748	-0.031	-0.302	-0.694	0.187	-0.714	1.596	0.973	-0.792	0.293	156.250
0.182	-1.041	-0.357	-0.122	0.142	0.388	1.745	1.274	2.292	2.040	0.193	-0.837	-2.226	-1.745	-1.302	-1.752	-1.527	-0.485	-0.080	-0.959	-0.974	-1.209	-0.182	-0.198	2.277	2.124	0.613	1.352	160.156
-0.552	-2.125	-0.776	-0.818	-0.277	0.291	2.308	1.845	3.360	3.134	1.379	0.143	-2.250	-2.176	-1.946	-3.012	-2.799	-1.325	-1.094	-2.063	-1.763	-1.768	-0.547	0.443	3.098	3.424	2.176	2.563	164.062
-1.433	-3.398	-1.232	-1.589	-0.684	0.244	2.946	2.525	4.521	4.257	2.653	1.181	-2.199	-2.585	-2.669	-4.424	-4.299	-2.115	-2.185	-3.268	-2.619	-2.315	-0.841	1.164	3.999	4.769	3.781	3.821	167.969
-2.377	-4.730	-1.686	-2.366	-1.050	0.256	3.604	3.240	5.675	5.321	3.908	2.187	-2.094	-2.951	-3.426	-5.882	-5.886	-2.760	-3.241	-4.495	-3.482	-2.791	-1.002	1.910	4.909	6.055	5.308	5.022	171.875
-3.299	-5.993	-2.098	-3.083	-1.348	0.330	4.222	3.916	6.720	6.237	5.038	3.078	-1.960	-3.260	-4.167	-7.277	-7.408	-3.192	-4.160	-5.662	-4.292	-3.148	-0.986	2.623	5.761	7.190	6.651	6.073	175.781
-4.122	-7.077	-2.429	-3.682	-1.561	0.468	4.738	4.490	7.570	6.928	5.942	3.782	-1.829	-3.505	-4.837	-8.511	-8.729	-3.379	-4.861	-6.697	-4.997	-3.356	-0.767	3.249	6.494	8.108	7.728	6.904	179.688
-4.793	-7.904	-2.647	-4.124	-1.679	0.664	5.103	4.915	8.162	7.339	6.550	4.251	-1.733	-3.682	-5.386	-9.508	-9.743	-3.326	-5.299	-7.545	-5.555	-3.403	-0.343	3.748	7.066	8.768	8.485	7.473	183.594
-5.290	-8.440	-2.735	-4.392	-1.702	0.909	5.283	5.166	8.464	7.440	6.820	4.462	-1.696	-3.796	-5.774	-10.226	-10.389	-3.072	-5.462	-8.172	-5.943	-3.296	0.264	4.096	7.453	9.162	8.907	7.770	187.500
-5.617	-8.693	-2.687	-4.490	-1.640	1.187	5.263	5.239	8.477	7.227	6.749	4.419	-1.738	-3.857	-5.972	-10.656	-10.652	-2.676	-5.374	-8.567	-6.156	-3.060	1.018	4.291	7.656	9.308	9.014	7.815	191.406
-5.802	-8.708	-2.512	-4.445	-1.511	1.477	5.051	5.153	8.230	6.728	6.366	4.149	-1.868	-3.875	-5.974	-10.820	-10.565	-2.212	-5.082	-8.743	-6.204	-2.733	1.870	4.348	7.700	9.250	8.854	7.647	195.312
-5.884	-8.555	-2.233	-4.299	-1.339	1.756	4.674	4.942	7.781	5.993	5.733	3.698	-2.084	-3.863	-5.790	-10.767	-10.196	-1.750	-4.654	-8.730	-6.116	-2.356	2.762	4.297	7.627	9.047	8.498	7.325	199.219
-5.905	-8.315	-1.884	-4.100	-1.153	2.000	4.175	4.651	7.207	5.096	4.932	3.126	-2.372	-3.831	-5.450	-10.560	-9.638	-1.357	-4.163	-8.575	-5.927	-1.973	3.635	4.176	7.495	8.763	8.026	6.912	203.125
-5.903	-8.070	-1.507	-3.899	-0.981	2.185	3.607	4.330	6.592	4.121	4.059	2.500	-2.711	-3.787	-4.998	-10.269	-8.990	-1.081	-3.675	-8.328	-5.675	-1.622	4.434	4.025	7.359	8.463	7.517	6.474	207.031
-5.902	-7.884	-1.150	-3.738	-0.847	2.292	3.030	4.025	6.020	3.160	3.208	1.884	-3.071	-3.733	-4.486	-9.957	-8.347	-0.956	-3.245	-8.038	-5.397	-1.333	5.108	3.878	7.269	8.201	7.041	6.067	210.938
-5.913	-7.802	-0.857	-3.649	-0.772	2.308	2.500	3.777	5.559	2.298	2.462	1.335	-3.419	-3.666	-3.973	-9.675	-7.781	-0.993	-2.910	-7.746	-5.118	-1.123	5.617	3.765	7.257	8.018	6.648	5.733	214.844
-5.934	-7.837	-0.666	-3.649	-0.766	2.227	2.070	3.613	5.258	1.605	1.886	0.891	-3.722	-3.581	-3.513	-9.456	-7.343	-1.182	-2.684	-7.480	-4.856	-1.000	5.934	3.702	7.337	7.936	6.371	5.499	218.750
-5.957	-7.977	-0.601	-3.737	-0.830	2.052	1.777	3.548	5.140	1.135	1.513	0.574	-3.949	-3.467	-3.157	-9.310	-7.056	-1.498	-2.566	-7.253	-4.615	-0.958	6.048	3.697	7.501	7.959	6.220	5.374	222.656
-5.969	-8.188	-0.675	-3.901	-0.955	1.792	1.648	3.584	5.202	0.913	1.350	0.384	-4.072	-3.314	-2.941	-9.235	-6.918	-1.901	-2.541	-7.067	-4.391	-0.981	5.964	3.752	7.727	8.077	6.189	5.348	226.562
-5.960	-8.424	-0.887	-4.115	-1.127	1.462	1.694	3.709	5.420	0.939	1.374	0.304	-4.073	-3.110	-2.888	-9.212	-6.911	-2.345	-2.588	-6.915	-4.173	-1.049	5.707	3.863	7.986	8.266	6.261	5.402	230.469
-5.927	-8.642	-1.224	-4.351	-1.326	1.083	1.909	3.905	5.754	1.193	1.544	0.305	-3.939	-2.848	-3.003	-9.216	-7.002	-2.784	-2.683	-6.783	-3.951	-1.137	5.313	4.023	8.244	8.495	6.412	5.506	234.375
-5.871	-8.805	-1.665	-4.583	-1.533	0.676	2.274	4.147	6.160	1.636	1.808	0.356	-3.666	-2.526	-3.275	-9.223	-7.153	-3.184	-2.802	-6.658	-3.710	-1.225	4.830	4.224	8.471	8.732	6.619	5.630	238.281
-5.804	-8.892	-2.183	-4.785	-1.728	0.262	2.759	4.413	6.593	2.221	2.118	0.425	-3.259	-2.146	-3.679	-9.211	-7.327	-3.524	-2.927	-6.526	-3.443	-1.296	4.308	4.462	8.645	8.948	6.860	5.745	242.188
-5.740	-8.899	-2.746	-4.943	-1.895	-0.139	3.329	4.678	7.018	2.899	2.431	0.486	-2.729	-1.715	-4.175	-9.167	-7.489	-3.797	-3.043	-6.381	-3.144	-1.338	3.794	4.727	8.749	9.120	7.116	5.827	246.094
-5.694	-8.834	-3.322	-5.048	-2.023	-0.511	3.945	4.925	7.407	3.621	2.719	0.522	-2.097	-1.243	-4.717	-9.089	-7.616	-4.012	-3.138	-6.217	-2.812	-1.349	3.326	5.013	8.775	9.232	7.373	5.862	250.000
-5.675	-8.713	-3.877	-5.097	-2.103	-0.841	4.571	5.139	7.741	4.345	2.963	0.522	-1.387	-0.746	-5.260	-8.977	-7.690	-4.184	-3.203	-6.032	-2.450	-1.328	2.926	5.310	8.723	9.275	7.617	5.838	253.906
-5.686	-8.555	-4.383	-5.090	-2.130	-1.124	5.174	5.309	8.010	5.035	3.150	0.478	-0.630	-0.238	-5.760	-8.837	-7.702	-4.326	-3.232	-5.823	-2.062	-1.282	2.605	5.606	8.601	9.247	7.838	5.751	257.812
-5.725	-8.377	-4.814	-5.027	-2.098	-1.353	5.729	5.431	8.205	5.661	3.271	0.384	0.143	0.267	-6.183	-8.672	-7.652	-4.448	-3.220	-5.583	-1.654	-1.218	2.357	5.887	8.420	9.145	8.023	5.601	261.719
-5.780	-8.187	-5.153	-4.906	-2.005	-1.526	6.221	5.501	8.319	6.198	3.319	0.238	0.899	0.758	-6.504	-8.480	-7.545	-4.554	-3.168	-5.306	-1.232	-1.147	2.165	6.138	8.194	8.970	8.159	5.390	265.625
-5.837	-7.985	-5.393	-4.720	-1.848	-1.638	6.641	5.521	8.352	6.631	3.293	0.038	1.609	1.226	-6.712	-8.256	-7.392	-4.644	-3.076	-4.981	-0.801	-1.078	2.006	6.343	7.934	8.725	8.232	5.124	269.531
-5.878	-7.762	-5.536	-4.463	-1.626	-1.684	6.991	5.494	8.306	6.953	3.196	-0.210	2.250	1.666	-6.813	-7.991	-7.206	-4.719	-2.950	-4.601	-0.363	-1.020	1.854	6.488	7.648	8.412	8.232	4.811	273.438
-5.882	-7.502	-5.593	-4.130	-1.341	-1.658	7.278	5.429	8.186	7.169	3.040	-0.498	2.807	2.075	-6.823	-7.674	-7.002	-4.787	-2.795	-4.160	0.078	-0.977	1.687	6.564	7.340	8.037	8.152	4.459	277.344
-5.828	-7.189	-5.581	-3.718	-1.000	-1.558	7.518	5.334	8.005	7.293	2.843	-0.810	3.274	2.456	-6.771	-7.298	-6.792	-4.854	-2.617	-3.657	0.519	-0.945	1.490	6.567	7.007	7.609	7.987	4.078	281.250
-5.699	-6.812	-5.522	-3.237	-0.610	-1.385	7.726	5.220	7.777	7.343	2.627	-1.131	3.652	2.807	-6.691	-6.859	-6.582	-4.927	-2.419	-3.101	0.955	-0.913	1.256	6.501	6.642	7.136	7.740	3.676	285.156
-5.481	-6.369	-5.437	-2.702	-0.185	-1.146	7.918	5.098	7.518	7.342	2.406	-1.444	3.947	3.130	-6.611	-6.362	-6.373	-5.010	-2.202	-2.504	1.382	-0.865	0.994	6.375	6.239	6.631	7.419	3.262	289.062
-5.177	-5.870	-5.343	-2.140	0.258	-0.857	8.104	4.978	7.241	7.309	2.188	-1.739	4.167	3.423	-6.552	-5.821	-6.162	-5.094	-1.970	-1.888	1.793	-0.784	0.720	6.203	5.795	6.107	7.037	2.844	292.969
-4.799	-5.340	-5.254	-1.583	0.703	-0.538	8.289	4.871	6.957	7.258	1.969	-2.014	4.323	3.684	-6.520	-5.256	-5.945	-5.163	-1.722	-1.273	2.181	-0.655	0.461	6.001	5.314	5.577	6.609	2.427	296.875
-4.372	-4.813	-5.177	-1.063	1.132	-0.213	8.473	4.780	6.676	7.194	1.739	-2.271	4.420	3.906	-6.512	-4.691	-5.717	-5.199	-1.461	-0.681	2.538	-0.472	0.248	5.786	4.807	5.057	6.154	2.016	300.781
-3.926	-4.324	-5.115	-0.610	1.532	0.094	8.648	4.708	6.404	7.116	1.481	-2.524	4.463	4.088	-6.513	-4.148	-5.470	-5.185	-1.187	-0.130	2.860	-0.231	0.113	5.572	4.291	4.558	5.689	1.611	304.688
-3.491	-3.906	-5.066	-0.243	1.893	0.365	8.802	4.652	6.142	7.020	1.181	-2.791	4.453	4.228	-6.506	-3.643	-5.201	-5.110	-0.900	0.370	3.146	0.064	0.085	5.370	3.789	4.088	5.229	1.208	308.594
-3.092	-3.575	-5.027	0.033	2.212	0.593	8.919	4.609	5.889	6.894	0.825	-3.094	4.389	4.327	-6.473	-3.183	-4.904	-4.978	-0.594	0.819	3.399	0.406	0.180	5.186	3.322	3.653	4.783	0.798	312.500
-2.741	-3.330	-4.992	0.224	2.492	0.776	8.987	4.572	5.645	6.730	0.408	-3.454	4.269	4.390	-6.400	-2.766	-4.574	-4.801	-0.262	1.222	3.624	0.784	0.397	5.022	2.910	3.252	4.354	0.374	316.406
-2.442	-3.152	-4.953	0.350	2.741	0.927	8.994	4.538	5.407	6.524	-0.065	-3.882	4.095	4.420	-6.276	-2.381	-4.213	-4.603	0.099	1.590	3.832	1.187	0.714	4.873	2.567	2.883	3.942	-0.071	320.312
-2.187	-3.010	-4.902	0.440	2.967	1.059	8.939	4.502	5.179	6.279	-0.577	-4.377	3.869	4.423	-6.103	-2.012	-3.827	-4.407	0.486	1.935	4.029	1.600	1.090	4.732	2.302	2.542	3.546	-0.539	324.219
-1.963	-2.866	-4.835	0.521	3.179	1.189	8.831	4.467	4.963	6.010	-1.097	-4.918	3.603	4.403	-5.889	-1.647	-3.435	-4.239	0.889	2.269	4.221	2.004	1.473	4.593	2.114	2.222	3.164	-1.020	328.125
-1.754	-2.692	-4.747	0.615	3.380	1.329	8.686	4.433	4.769	5.741	-1.584	-5.467	3.312	4.363	-5.651	-1.279	-3.063	-4.114	1.288	2.596	4.411	2.380	1.808	4.450	1.994	1.919	2.800	-1.495	332.031
-1.546	-2.469	-4.637	0.735	3.570	1.481	8.525	4.402	4.605	5.500	-1.992	-5.973	3.016	4.308	-5.409	-0.909	-2.744	-4.043	1.655	2.917	4.596	2.710	2.049	4.298	1.930	1.631	2.463	-1.937	335.938
-1.331	-2.197	-4.509	0.884	3.744	1.643	8.372	4.372	4.476	5.313	-2.281	-6.382	2.737	4.237	-5.183	-0.547	-2.505	-4.023	1.964	3.226	4.770	2.978	2.172	4.138	1.901	1.357	2.165	-2.319	339.844
-1.106	-1.889	-4.365	1.056	3.894	1.804	8.238	4.339	4.382	5.196	-2.428	-6.652	2.489	4.153	-4.986	-0.207	-2.367	-4.039	2.195	3.515	4.925	3.171	2.172	3.970	1.891	1.098	1.914	-2.615	343.750
-0.873	-1.566	-4.210	1.242	4.012	1.955	8.123	4.294	4.312	5.144	-2.437	-6.762	2.281	4.053	-4.823	0.096	-2.328	-4.064	2.341	3.775	5.054	3.289	2.071	3.795	1.880	0.859	1.717	-2.813	347.656
-0.640	-1.251	-4.045	1.432	4.094	2.086	8.012	4.229	4.247	5.130	-2.340	-6.725	2.103	3.936	-4.688	0.355	-2.369	-4.067	2.411	4.000	5.150	3.335	1.912	3.612	1.856	0.647	1.568	-2.914	351.562
-0.416	-0.962	-3.865	1.622	4.141	2.195	7.876	4.137	4.159	5.107	-2.201	-6.590	1.936	3.798	-4.572	0.567	-2.453	-4.012	2.430	4.189	5.211	3.324	1.746	3.421	1.814	0.473	1.456	-2.937	355.469
-0.212	-0.708	-3.663	1.812	4.156	2.286	7.678	4.015	4.023	5.016	-2.103	-6.434	1.749	3.636	-4.462	0.741	-2.531	-3.870	2.435	4.349	5.241	3.278	1.628	3.224	1.761	0.348	1.360	-2.911	359.375
-0.039	-0.489	-3.428	2.007	4.153	2.369	7.385	3.867	3.819	4.798	-2.130	-6.354	1.508	3.452	-4.355	0.889	-2.555	-3.625	2.467	4.494	5.251	3.222	1.601	3.024	1.715	0.284	1.258	-2.878	363.281
0.095	-0.296	-3.152	2.212	4.143	2.455	6.979	3.703	3.544	4.411	-2.354	-6.444	1.185	3.251	-4.252	1.027	-2.486	-3.277	2.564	4.639	5.254	3.177	1.690	2.828	1.699	0.291	1.126	-2.878	367.188
0.183	-0.114	-2.830	2.430	4.138	2.552	6.459	3.538	3.209	3.841	-2.810	-6.773	0.768	3.041	-4.166	1.170	-2.302	-2.844	2.747	4.799	5.266	3.157	1.898	2.646	1.740	0.370	0.950	-2.948	371.094
0.220	0.068	-2.465	2.657	4.144	2.660	5.853	3.390	2.849	3.117	-3.483	-7.363	0.264	2.834	-4.109	1.321	-2.007	-2.359	3.020	4.978	5.298	3.163	2.203	2.487	1.850	0.514	0.728	-3.106	375.000
0.203	0.254	-2.075	2.878	4.159	2.771	5.214	3.277	2.512	2.310	-4.300	-8.168	-0.293	2.643	-4.093	1.470	-1.629	-1.871	3.360	5.165	5.353	3.183	2.566	2.359	2.025	0.707	0.470	-3.348	378.906
0.130	0.436	-1.685	3.065	4.171	2.869	4.614	3.214	2.256	1.530	-5.132	-9.078	-0.848	2.476	-4.125	1.591	-1.222	-1.436	3.720	5.333	5.417	3.194	2.935	2.264	2.242	0.920	0.200	-3.643	382.812
-0.003	0.594	-1.332	3.189	4.164	2.936	4.135	3.213	2.137	0.906	-5.822	-9.931	-1.327	2.341	-4.206	1.645	-0.854	-1.109	4.037	5.440	5.471	3.167	3.253	2.199	2.455	1.122	-0.047	-3.941	386.719
-0.199	0.698	-1.053	3.222	4.121	2.959	3.852	3.279	2.194	0.560	-6.213	-10.545	-1.655	2.243	-4.329	1.589	-0.600	-0.935	4.242	5.438	5.485	3.073	3.474	2.158	2.612	1.276	-0.238	-4.182	390.625
-0.463	0.722	-0.879	3.147	4.034	2.935	3.815	3.410	2.438	0.580	-6.186	-10.764	-1.770	2.185	-4.484	1.391	-0.518	-0.940	4.280	5.294	5.436	2.896	3.562	2.129	2.665	1.345	-0.351	-4.316	394.531
-0.792	0.651	-0.825	2.971	3.909	2.876	4.043	3.589	2.848	0.993	-5.696	-10.492	-1.637	2.173	-4.661	1.036	-0.644	-1.117	4.122	4.993	5.315	2.635	3.509	2.097	2.581	1.300	-0.384	-4.314	398.438
-1.177	0.486	-0.885	2.724	3.767	2.805	4.510	3.792	3.367	1.757	-4.787	-9.729	-1.257	2.212	-4.848	0.543	-0.973	-1.428	3.778	4.559	5.131	2.313	3.329	2.049	2.349	1.119	-0.359	-4.183	402.344
-1.594	0.245	-1.031	2.453	3.643	2.750	5.154	3.989	3.913	2.759	-3.588	-8.573	-0.674	2.312	-5.036	-0.040	-1.461	-1.808	3.299	4.045	4.918	1.970	3.064	1.975	1.987	0.793	-0.321	-3.962	406.250
-2.011	-0.036	-1.220	2.216	3.578	2.738	5.880	4.146	4.392	3.837	-2.294	-7.203	0.037	2.481	-5.215	-0.639	-2.031	-2.175	2.768	3.536	4.725	1.663	2.773	1.871	1.529	0.328	-0.330	-3.720	410.156
-2.392	-0.315	-1.402	2.072	3.612	2.787	6.581	4.238	4.718	4.810	-1.123	-5.851	0.779	2.728	-5.376	-1.168	-2.584	-2.448	2.288	3.127	4.611	1.452	2.519	1.734	1.025	-0.257	-0.448	-3.541	414.062
-2.701	-0.550	-1.528	2.063	3.772	2.906	7.153	4.247	4.824	5.507	-0.278	-4.750	1.448	3.052	-5.504	-1.541	-3.023	-2.559	1.957	2.907	4.632	1.389	2.364	1.569	0.523	-0.933	-0.729	-3.507	417.969
-2.914	-0.700	-1.556	2.215	4.067	3.090	7.514	4.170	4.679	5.803	0.091	-4.094	1.957	3.444	-5.585	-1.695	-3.265	-2.472	1.851	2.940	4.825	1.509	2.349	1.379	0.067	-1.663	-1.207	-3.683	421.875
-3.022	-0.736	-1.463	2.530	4.487	3.325	7.612	4.013	4.286	5.633	-0.085	-4.001	2.242	3.887	-5.599	-1.593	-3.258	-2.182	2.010	3.249	5.202	1.819	2.493	1.170	-0.310	-2.408	-1.889	-4.104	425.781
-3.030	-0.637	-1.241	2.987	5.002	3.593	7.436	3.796	3.683	5.007	-0.793	-4.496	2.279	4.353	-5.529	-1.240	-2.992	-1.722	2.427	3.815	5.744	2.298	2.788	0.945	-0.590	-3.134	-2.752	-4.771	429.688
-2.960	-0.403	-0.903	3.547	5.569	3.870	7.017	3.542	2.930	4.000	-1.937	-5.506	2.086	4.813	-5.364	-0.672	-2.491	-1.152	3.056	4.577	6.407	2.897	3.198	0.709	-0.765	-3.812	-3.749	-5.646	433.594
-2.839	-0.047	-0.479	4.163	6.138	4.136	6.418	3.274	2.104	2.742	-3.362	-6.882	1.716	5.238	-5.105	0.043	-1.815	-0.544	3.823	5.447	7.129	3.553	3.674	0.467	-0.845	-4.422	-4.809	-6.661	437.500
-2.694	0.399	-0.016	4.780	6.662	4.374	5.722	3.012	1.284	1.391	-4.878	-8.422	1.250	5.605	-4.767	0.819	-1.043	0.028	4.635	6.323	7.838	4.196	4.157	0.226	-0.852	-4.949	-5.852	-7.726	441.406
-2.550	0.886	0.434	5.348	7.103	4.570	5.018	2.770	0.541	0.104	-6.296	-9.914	0.779	5.900	-4.378	1.567	-0.263	0.505	5.406	7.110	8.470	4.762	4.592	-0.004	-0.816	-5.388	-6.794	-8.741	445.312
-2.425	1.356	0.812	5.827	7.432	4.717	4.382	2.557	-0.069	-0.983	-7.455	-11.164	0.389	6.117	-3.979	2.209	0.441	0.849	6.061	7.733	8.976	5.203	4.934	-0.211	-0.766	-5.732	-7.562	-9.612	449.219
-2.331	1.749	1.072	6.187	7.640	4.809	3.867	2.377	-0.510	-1.777	-8.242	-12.029	0.142	6.260	-3.610	2.681	0.997	1.044	6.550	8.145	9.325	5.493	5.158	-0.382	-0.728	-5.976	-8.100	-10.260	453.125
-2.272	2.015	1.184	6.412	7.729	4.848	3.495	2.233	-0.771	-2.243	-8.607	-12.434	0.074	6.338	-3.311	2.945	1.352	1.099	6.844	8.328	9.510	5.623	5.259	-0.508	-0.713	-6.113	-8.377	-10.633	457.031
-2.247	2.119	1.142	6.502	7.712	4.838	3.258	2.128	-0.862	-2.395	-8.563	-12.373	0.182	6.361	-3.115	2.989	1.475	1.033	6.936	8.294	9.543	5.603	5.250	-0.579	-0.716	-6.135	-8.389	-10.711	460.938
-2.251	2.052	0.966	6.467	7.613	4.786	3.125	2.064	-0.808	-2.292	-8.175	-11.900	0.438	6.342	-3.038	2.820	1.363	0.878	6.836	8.075	9.447	5.457	5.159	-0.595	-0.724	-6.038	-8.162	-10.503	464.844
-2.276	1.831	0.698	6.328	7.459	4.706	3.050	2.043	-0.649	-2.020	-7.540	-11.117	0.790	6.288	-3.084	2.469	1.036	0.668	6.568	7.715	9.253	5.215	5.022	-0.563	-0.717	-5.825	-7.747	-10.049	468.750
-2.316	1.493	0.392	6.110	7.274	4.609	2.985	2.069	-0.422	-1.671	-6.770	-10.145	1.175	6.206	-3.237	1.976	0.535	0.433	6.164	7.262	8.991	4.906	4.872	-0.493	-0.679	-5.506	-7.207	-9.409	472.656
-2.366	1.089	0.103	5.841	7.081	4.511	2.894	2.140	-0.165	-1.328	-5.968	-9.105	1.534	6.096	-3.467	1.391	-0.085	0.198	5.662	6.758	8.689	4.564	4.738	-0.405	-0.602	-5.101	-6.613	-8.650	476.562
-2.425	0.668	-0.127	5.543	6.893	4.421	2.754	2.253	0.098	-1.049	-5.217	-8.098	1.817	5.962	-3.734	0.763	-0.760	-0.022	5.103	6.243	8.368	4.216	4.637	-0.314	-0.492	-4.638	-6.027	-7.842	480.469
-2.493	0.271	-0.277	5.233	6.717	4.344	2.563	2.397	0.348	-0.864	-4.565	-7.193	1.994	5.806	-3.994	0.136	-1.428	-0.220	4.529	5.743	8.043	3.887	4.576	-0.237	-0.362	-4.150	-5.497	-7.043	484.375
-2.574	-0.080	-0.351	4.920	6.550	4.280	2.337	2.555	0.579	-0.772	-4.034	-6.426	2.057	5.633	-4.212	-0.453	-2.038	-0.396	3.978	5.278	7.727	3.599	4.550	-0.179	-0.231	-3.667	-5.049	-6.296	488.281
-2.669	-0.383	-0.375	4.606	6.387	4.223	2.106	2.709	0.788	-0.748	-3.616	-5.802	2.018	5.451	-4.364	-0.981	-2.549	-0.553	3.481	4.860	7.429	3.369	4.544	-0.140	-0.114	-3.217	-4.687	-5.628	492.188
-2.779	-0.649	-0.387	4.292	6.218	4.162	1.903	2.837	0.978	-0.753	-3.288	-5.302	1.904	5.270	-4.446	-1.433	-2.942	-0.690	3.062	4.495	7.156	3.208	4.539	-0.111	-0.020	-2.820	-4.397	-5.047	496.094
-2.906	-0.892	-0.425	3.977	6.039	4.085	1.762	2.920	1.150	-0.746	-3.024	-4.897	1.750	5.100	-4.468	-1.807	-3.215	-0.798	2.731	4.183	6.913	3.119	4.516	-0.081	0.055	-2.487	-4.154	-4.554	500.000
-3.049	-1.128	-0.517	3.666	5.844	3.983	1.707	2.945	1.305	-0.694	-2.795	-4.559	1.588	4.950	-4.451	-2.107	-3.384	-0.864	2.489	3.924	6.705	3.098	4.463	-0.038	0.117	-2.221	-3.934	-4.143	503.906
-3.208	-1.359	-0.673	3.364	5.634	3.849	1.745	2.907	1.443	-0.577	-2.585	-4.264	1.443	4.821	-4.421	-2.343	-3.474	-0.873	2.326	3.713	6.530	3.132	4.381	0.026	0.181	-2.019	-3.719	-3.807	507.812
-3.378	-1.584	-0.880	3.082	5.413	3.683	1.871	2.812	1.561	-0.396	-2.383	-3.999	1.324	4.711	-4.395	-2.528	-3.511	-0.813	2.228	3.546	6.386	3.201	4.279	0.107	0.257	-1.874	-3.504	-3.540	511.719
-3.549	-1.790	-1.109	2.830	5.187	3.490	2.063	2.671	1.657	-0.167	-2.190	-3.764	1.226	4.611	-4.381	-2.670	-3.520	-0.681	2.178	3.415	6.265	3.282	4.174	0.195	0.350	-1.776	-3.298	-3.337	515.625
-3.708	-1.963	-1.323	2.616	4.962	3.279	2.288	2.504	1.730	0.081	-2.015	-3.567	1.134	4.510	-4.372	-2.779	-3.512	-0.487	2.162	3.316	6.158	3.358	4.083	0.271	0.461	-1.715	-3.120	-3.197	519.531
-3.839	-2.091	-1.483	2.446	4.746	3.065	2.512	2.332	1.781	0.313	-1.868	-3.424	1.027	4.393	-4.351	-2.856	-3.491	-0.252	2.169	3.243	6.058	3.415	4.016	0.311	0.583	-1.682	-2.996	-3.120	523.438
-3.930	-2.165	-1.563	2.320	4.542	2.864	2.701	2.178	1.811	0.496	-1.763	-3.349	0.886	4.251	-4.297	-2.903	-3.452	-0.001	2.191	3.191	5.956	3.450	3.973	0.295	0.705	-1.670	-2.948	-3.104	527.344
-3.973	-2.187	-1.546	2.238	4.358	2.692	2.834	2.060	1.824	0.607	-1.710	-3.352	0.702	4.080	-4.190	-2.918	-3.393	0.236	2.223	3.158	5.851	3.465	3.940	0.210	0.817	-1.674	-2.990	-3.147	531.250
-3.964	-2.166	-1.436	2.193	4.198	2.559	2.899	1.989	1.826	0.637	-1.709	-3.435	0.477	3.883	-4.024	-2.902	-3.314	0.435	2.259	3.140	5.741	3.464	3.897	0.055	0.910	-1.689	-3.125	-3.240	535.156
-3.908	-2.114	-1.247	2.180	4.066	2.472	2.900	1.969	1.826	0.592	-1.755	-3.585	0.226	3.670	-3.808	-2.856	-3.226	0.576	2.292	3.133	5.630	3.453	3.822	-0.159	0.983	-1.709	-3.337	-3.371	539.062
-3.809	-2.047	-1.003	2.190	3.963	2.431	2.850	1.995	1.827	0.492	-1.831	-3.780	-0.028	3.454	-3.561	-2.789	-3.144	0.651	2.313	3.131	5.519	3.431	3.699	-0.410	1.038	-1.727	-3.598	-3.522	542.969
-3.677	-1.978	-0.732	2.214	3.889	2.430	2.768	2.053	1.836	0.364	-1.915	-3.988	-0.255	3.250	-3.314	-2.710	-3.087	0.657	2.316	3.126	5.407	3.396	3.523	-0.670	1.081	-1.735	-3.872	-3.669	546.875
-3.518	-1.918	-0.464	2.242	3.836	2.456	2.671	2.123	1.853	0.232	-1.984	-4.171	-0.433	3.064	-3.091	-2.634	-3.068	0.606	2.297	3.107	5.289	3.341	3.306	-0.911	1.124	-1.725	-4.121	-3.790	550.781
-3.337	-1.876	-0.222	2.262	3.791	2.493	2.571	2.186	1.873	0.117	-2.019	-4.299	-0.547	2.900	-2.915	-2.574	-3.092	0.516	2.258	3.065	5.155	3.263	3.073	-1.109	1.177	-1.690	-4.310	-3.864	554.688
-3.138	-1.851	-0.023	2.265	3.742	2.525	2.469	2.224	1.890	0.025	-2.010	-4.347	-0.596	2.751	-2.794	-2.540	-3.151	0.416	2.204	2.989	4.995	3.160	2.855	-1.251	1.247	-1.627	-4.419	-3.878	558.594
-2.927	-1.840	0.124	2.243	3.675	2.537	2.354	2.226	1.894	-0.051	-1.961	-4.304	-0.591	2.605	-2.724	-2.538	-3.229	0.336	2.147	2.875	4.800	3.038	2.687	-1.336	1.338	-1.536	-4.442	-3.827	562.500
-2.709	-1.836	0.220	2.194	3.581	2.522	2.208	2.188	1.872	-0.131	-1.886	-4.175	-0.555	2.449	-2.691	-2.565	-3.302	0.303	2.099	2.722	4.565	2.906	2.597	-1.372	1.446	-1.421	-4.387	-3.715	566.406
-2.497	-1.826	0.273	2.122	3.460	2.477	2.010	2.112	1.813	-0.238	-1.806	-3.978	-0.517	2.274	-2.672	-2.614	-3.346	0.338	2.072	2.537	4.296	2.779	2.602	-1.376	1.560	-1.292	-4.275	-3.555	570.312
-2.299	-1.800	0.298	2.038	3.316	2.410	1.742	2.008	1.712	-0.398	-1.745	-3.742	-0.502	2.073	-2.640	-2.668	-3.342	0.443	2.076	2.332	4.006	2.674	2.707	-1.366	1.665	-1.163	-4.137	-3.366	574.219
-2.125	-1.745	0.315	1.956	3.163	2.332	1.401	1.890	1.565	-0.625	-1.723	-3.502	-0.532	1.851	-2.575	-2.710	-3.276	0.612	2.114	2.127	3.716	2.601	2.900	-1.364	1.742	-1.049	-4.006	-3.171	578.125
-1.979	-1.654	0.344	1.893	3.014	2.258	0.995	1.770	1.381	-0.920	-1.750	-3.288	-0.617	1.618	-2.466	-2.719	-3.145	0.828	2.186	1.940	3.451	2.569	3.153	-1.384	1.776	-0.967	-3.911	-2.995	582.031
-1.856	-1.519	0.402	1.866	2.883	2.202	0.550	1.663	1.173	-1.268	-1.824	-3.126	-0.759	1.388	-2.315	-2.680	-2.953	1.076	2.283	1.793	3.229	2.574	3.428	-1.439	1.756	-0.933	-3.877	-2.855	585.938
-1.747	-1.335	0.496	1.886	2.780	2.173	0.100	1.574	0.960	-1.642	-1.931	-3.029	-0.948	1.174	-2.134	-2.581	-2.708	1.345	2.394	1.700	3.066	2.605	3.680	-1.533	1.681	-0.957	-3.917	-2.767	589.844
-1.640	-1.100	0.623	1.958	2.707	2.172	-0.311	1.506	0.762	-2.003	-2.049	-2.996	-1.170	0.989	-1.942	-2.419	-2.426	1.632	2.502	1.670	2.964	2.645	3.868	-1.664	1.559	-1.045	-4.033	-2.736	593.750
-1.519	-0.816	0.770	2.081	2.663	2.194	-0.642	1.455	0.598	-2.312	-2.151	-3.015	-1.403	0.836	-1.759	-2.201	-2.122	1.939	2.590	1.702	2.916	2.671	3.962	-1.826	1.405	-1.195	-4.215	-2.763	597.656
-1.373	-0.495	0.917	2.240	2.641	2.230	-0.861	1.414	0.479	-2.533	-2.217	-3.065	-1.628	0.718	-1.599	-1.940	-1.813	2.263	2.645	1.786	2.907	2.664	3.949	-2.004	1.237	-1.397	-4.444	-2.840	601.562
-1.202	-0.156	1.046	2.417	2.636	2.266	-0.949	1.374	0.410	-2.643	-2.232	-3.125	-1.825	0.630	-1.468	-1.657	-1.515	2.592	2.660	1.906	2.918	2.613	3.839	-2.182	1.076	-1.634	-4.697	-2.955	605.469
-1.011	0.176	1.137	2.587	2.641	2.296	-0.900	1.328	0.389	-2.633	-2.192	-3.172	-1.977	0.567	-1.369	-1.379	-1.241	2.906	2.640	2.037	2.929	2.515	3.660	-2.340	0.940	-1.883	-4.944	-3.093	609.375
-0.821	0.471	1.181	2.726	2.652	2.315	-0.730	1.273	0.409	-2.511	-2.103	-3.193	-2.073	0.521	-1.297	-1.133	-1.006	3.173	2.593	2.153	2.923	2.377	3.456	-2.460	0.843	-2.121	-5.159	-3.237	613.281
-0.656	0.696	1.177	2.811	2.664	2.325	-0.464	1.211	0.457	-2.301	-1.979	-3.180	-2.109	0.484	-1.249	-0.947	-0.824	3.363	2.537	2.227	2.888	2.215	3.273	-2.526	0.800	-2.323	-5.314	-3.373	617.188
-0.543	0.829	1.130	2.827	2.673	2.328	-0.142	1.147	0.524	-2.036	-1.840	-3.132	-2.086	0.452	-1.221	-0.844	-0.707	3.452	2.485	2.237	2.817	2.051	3.151	-2.525	0.821	-2.465	-5.387	-3.483	621.094
-0.504	0.852	1.054	2.767	2.672	2.324	0.194	1.090	0.596	-1.756	-1.708	-3.055	-2.011	0.416	-1.208	-0.840	-0.667	3.430	2.452	2.168	2.706	1.906	3.120	-2.452	0.914	-2.526	-5.365	-3.553	625.000
-0.544	0.764	0.964	2.631	2.653	2.313	0.500	1.045	0.661	-1.499	-1.599	-2.957	-1.896	0.371	-1.207	-0.940	-0.707	3.305	2.442	2.015	2.556	1.798	3.190	-2.307	1.083	-2.493	-5.238	-3.568	628.906
-0.656	0.577	0.875	2.429	2.609	2.287	0.736	1.013	0.705	-1.299	-1.528	-2.844	-1.758	0.309	-1.212	-1.138	-0.823	3.104	2.456	1.782	2.368	1.735	3.355	-2.099	1.324	-2.358	-5.010	-3.520	632.812
-0.813	0.314	0.798	2.177	2.531	2.240	0.872	0.987	0.716	-1.182	-1.503	-2.725	-1.612	0.225	-1.216	-1.417	-0.993	2.863	2.488	1.485	2.148	1.717	3.595	-1.845	1.626	-2.127	-4.695	-3.402	636.719
-0.981	0.007	0.742	1.899	2.419	2.163	0.891	0.959	0.681	-1.164	-1.523	-2.605	-1.474	0.116	-1.210	-1.744	-1.188	2.626	2.532	1.150	1.902	1.733	3.877	-1.567	1.969	-1.816	-4.317	-3.220	640.625
-1.121	-0.310	0.712	1.616	2.277	2.055	0.791	0.912	0.588	-1.245	-1.588	-2.493	-1.356	-0.018	-1.182	-2.083	-1.373	2.433	2.579	0.808	1.640	1.764	4.164	-1.292	2.325	-1.450	-3.909	-2.986	644.531
-1.200	-0.606	0.716	1.353	2.119	1.923	0.583	0.833	0.433	-1.418	-1.690	-2.393	-1.268	-0.172	-1.121	-2.392	-1.514	2.318	2.625	0.493	1.376	1.788	4.417	-1.046	2.663	-1.064	-3.511	-2.721	648.438
-1.200	-0.855	0.756	1.128	1.960	1.781	0.292	0.713	0.218	-1.665	-1.817	-2.312	-1.214	-0.338	-1.021	-2.635	-1.592	2.302	2.662	0.235	1.123	1.785	4.604	-0.855	2.954	-0.694	-3.162	-2.449	652.344
-1.114	-1.042	0.837	0.956	1.819	1.646	-0.048	0.551	-0.046	-1.959	-1.956	-2.251	-1.195	-0.507	-0.878	-2.785	-1.601	2.389	2.685	0.054	0.892	1.738	4.702	-0.735	3.173	-0.372	-2.894	-2.197	656.250
-0.949	-1.159	0.959	0.845	1.709	1.538	-0.404	0.357	-0.335	-2.273	-2.089	-2.210	-1.211	-0.670	-0.697	-2.830	-1.551	2.569	2.690	-0.038	0.692	1.643	4.702	-0.697	3.305	-0.122	-2.731	-1.984	660.156
-0.724	-1.206	1.116	0.795	1.640	1.475	-0.745	0.151	-0.620	-2.580	-2.199	-2.187	-1.261	-0.819	-0.491	-2.774	-1.465	2.814	2.670	-0.047	0.528	1.502	4.610	-0.741	3.345	0.043	-2.680	-1.825	664.062
-0.458	-1.184	1.302	0.803	1.614	1.466	-1.048	-0.039	-0.867	-2.857	-2.272	-2.177	-1.340	-0.950	-0.281	-2.635	-1.370	3.087	2.625	0.014	0.402	1.331	4.443	-0.858	3.303	0.121	-2.737	-1.724	667.969
-0.172	-1.101	1.504	0.858	1.625	1.513	-1.302	-0.186	-1.048	-3.089	-2.295	-2.174	-1.448	-1.062	-0.087	-2.441	-1.290	3.346	2.554	0.124	0.310	1.148	4.231	-1.034	3.196	0.120	-2.885	-1.680	671.875
0.118	-0.965	1.711	0.951	1.661	1.608	-1.506	-0.269	-1.146	-3.271	-2.267	-2.171	-1.581	-1.157	0.070	-2.220	-1.240	3.556	2.460	0.258	0.249	0.979	4.005	-1.247	3.051	0.056	-3.099	-1.682	675.781
0.397	-0.788	1.911	1.068	1.709	1.738	-1.668	-0.280	-1.159	-3.410	-2.193	-2.167	-1.738	-1.236	0.181	-2.001	-1.223	3.695	2.354	0.395	0.217	0.845	3.796	-1.476	2.896	-0.054	-3.350	-1.719	679.688
0.656	-0.581	2.094	1.200	1.756	1.885	-1.802	-0.225	-1.103	-3.517	-2.092	-2.160	-1.913	-1.299	0.247	-1.804	-1.228	3.755	2.247	0.522	0.213	0.764	3.630	-1.699	2.758	-0.191	-3.611	-1.777	683.594
0.885	-0.360	2.255	1.335	1.793	2.028	-1.921	-0.127	-1.007	-3.607	-1.986	-2.153	-2.098	-1.344	0.275	-1.639	-1.237	3.747	2.152	0.633	0.238	0.746	3.524	-1.896	2.655	-0.338	-3.859	-1.846	687.500
1.074	-0.140	2.392	1.466	1.817	2.151	-2.036	-0.018	-0.910	-3.695	-1.904	-2.155	-2.284	-1.365	0.283	-1.505	-1.225	3.690	2.084	0.732	0.298	0.791	3.485	-2.051	2.598	-0.486	-4.075	-1.918	691.406
1.215	0.067	2.509	1.586	1.828	2.238	-2.152	0.067	-0.846	-3.788	-1.872	-2.173	-2.455	-1.355	0.289	-1.393	-1.173	3.608	2.054	0.830	0.399	0.891	3.509	-2.153	2.582	-0.627	-4.246	-1.991	695.312
1.303	0.250	2.607	1.688	1.835	2.282	-2.264	0.096	-0.843	-3.884	-1.907	-2.216	-2.594	-1.306	0.306	-1.288	-1.062	3.523	2.071	0.939	0.543	1.028	3.582	-2.194	2.597	-0.762	-4.366	-2.066	699.219
1.339	0.402	2.690	1.771	1.846	2.285	-2.359	0.051	-0.913	-3.974	-2.016	-2.290	-2.685	-1.214	0.343	-1.173	-0.886	3.447	2.139	1.073	0.731	1.182	3.683	-2.174	2.621	-0.891	-4.435	-2.149	703.125
1.328	0.525	2.758	1.831	1.870	2.252	-2.420	-0.072	-1.050	-4.038	-2.188	-2.395	-2.711	-1.081	0.399	-1.037	-0.646	3.388	2.257	1.235	0.952	1.330	3.788	-2.099	2.631	-1.020	-4.455	-2.243	707.031
1.277	0.624	2.807	1.867	1.912	2.192	-2.431	-0.262	-1.231	-4.058	-2.400	-2.526	-2.664	-0.915	0.467	-0.874	-0.360	3.344	2.415	1.423	1.190	1.451	3.873	-1.976	2.604	-1.150	-4.432	-2.350	710.938
1.194	0.705	2.828	1.879	1.971	2.117	-2.375	-0.493	-1.421	-4.016	-2.616	-2.670	-2.541	-0.730	0.532	-0.689	-0.053	3.313	2.599	1.622	1.422	1.528	3.918	-1.819	2.527	-1.278	-4.372	-2.465	714.844
1.084	0.768	2.808	1.867	2.039	2.035	-2.246	-0.732	-1.583	-3.901	-2.801	-2.808	-2.345	-0.546	0.576	-0.497	0.238	3.290	2.790	1.812	1.623	1.552	3.913	-1.639	2.397	-1.398	-4.277	-2.577	718.750
0.953	0.811	2.734	1.829	2.104	1.950	-2.050	-0.946	-1.684	-3.715	-2.923	-2.920	-2.089	-0.380	0.586	-0.320	0.475	3.271	2.967	1.970	1.769	1.521	3.858	-1.449	2.226	-1.496	-4.150	-2.673	722.656
0.802	0.820	2.594	1.767	2.153	1.867	-1.799	-1.109	-1.708	-3.471	-2.962	-2.988	-1.792	-0.248	0.552	-0.179	0.623	3.252	3.108	2.075	1.843	1.440	3.761	-1.259	2.039	-1.558	-3.991	-2.733	726.562
0.638	0.784	2.387	1.681	2.172	1.788	-1.520	-1.203	-1.649	-3.194	-2.915	-2.996	-1.478	-0.161	0.474	-0.098	0.658	3.225	3.196	2.113	1.838	1.321	3.639	-1.076	1.866	-1.567	-3.798	-2.743	730.469
0.473	0.693	2.123	1.572	2.152	1.715	-1.241	-1.224	-1.523	-2.913	-2.793	-2.939	-1.172	-0.122	0.358	-0.089	0.569	3.184	3.220	2.075	1.753	1.182	3.513	-0.907	1.738	-1.512	-3.577	-2.691	734.375
0.321	0.548	1.824	1.444	2.089	1.652	-0.993	-1.178	-1.350	-2.660	-2.620	-2.818	-0.901	-0.130	0.215	-0.158	0.366	3.120	3.177	1.965	1.599	1.044	3.404	-0.758	1.678	-1.389	-3.333	-2.571	738.281
0.201	0.357	1.522	1.302	1.985	1.602	-0.802	-1.080	-1.158	-2.460	-2.421	-2.645	-0.686	-0.180	0.059	-0.299	0.074	3.028	3.069	1.792	1.392	0.927	3.327	-0.636	1.696	-1.202	-3.079	-2.388	742.188
0.131	0.142	1.254	1.152	1.849	1.566	-0.685	-0.951	-0.974	-2.329	-2.225	-2.435	-0.542	-0.262	-0.099	-0.493	-0.270	2.908	2.908	1.575	1.152	0.847	3.291	-0.546	1.786	-0.966	-2.834	-2.155	746.094
0.126	-0.075	1.053	1.004	1.698	1.547	-0.646	-0.810	-0.817	-2.269	-2.053	-2.206	-0.473	-0.365	-0.247	-0.716	-0.628	2.769	2.711	1.334	0.902	0.812	3.293	-0.492	1.933	-0.704	-2.617	-1.893	750.000
0.194	-0.273	0.939	0.866	1.548	1.543	-0.676	-0.674	-0.700	-2.272	-1.919	-1.979	-0.478	-0.475	-0.377	-0.940	-0.962	2.628	2.497	1.093	0.662	0.819	3.323	-0.474	2.112	-0.440	-2.443	-1.626	753.906
0.334	-0.434	0.919	0.747	1.419	1.551	-0.756	-0.555	-0.631	-2.323	-1.832	-1.771	-0.545	-0.583	-0.482	-1.136	-1.247	2.506	2.288	0.874	0.450	0.857	3.363	-0.489	2.299	-0.196	-2.325	-1.379	757.812
0.534	-0.550	0.982	0.656	1.325	1.563	-0.866	-0.461	-0.612	-2.407	-1.796	-1.600	-0.658	-0.677	-0.556	-1.281	-1.465	2.426	2.106	0.695	0.281	0.908	3.395	-0.530	2.477	0.011	-2.267	-1.173	761.719
0.776	-0.616	1.102	0.600	1.274	1.570	-0.984	-0.401	-0.643	-2.511	-1.811	-1.484	-0.799	-0.750	-0.589	-1.357	-1.606	2.407	1.969	0.571	0.165	0.953	3.406	-0.584	2.631	0.170	-2.264	-1.024	765.625
1.032	-0.634	1.246	0.582	1.265	1.562	-1.098	-0.378	-0.722	-2.628	-1.880	-1.438	-0.955	-0.794	-0.570	-1.353	-1.664	2.457	1.894	0.510	0.106	0.977	3.394	-0.639	2.757	0.279	-2.307	-0.941	769.531
1.273	-0.609	1.379	0.602	1.291	1.530	-1.204	-0.398	-0.846	-2.760	-2.001	-1.476	-1.111	-0.806	-0.486	-1.269	-1.631	2.576	1.894	0.515	0.108	0.972	3.372	-0.684	2.855	0.341	-2.382	-0.924	773.438
1.472	-0.551	1.470	0.655	1.338	1.464	-1.308	-0.467	-1.011	-2.914	-2.173	-1.605	-1.263	-0.785	-0.325	-1.111	-1.500	2.753	1.974	0.582	0.168	0.941	3.362	-0.709	2.934	0.364	-2.475	-0.970	777.344
1.608	-0.470	1.499	0.731	1.389	1.359	-1.419	-0.589	-1.210	-3.095	-2.393	-1.828	-1.408	-0.733	-0.079	-0.892	-1.267	2.972	2.134	0.700	0.281	0.892	3.391	-0.709	3.005	0.360	-2.573	-1.070	781.250
1.672	-0.378	1.458	0.819	1.430	1.214	-1.547	-0.764	-1.435	-3.311	-2.654	-2.137	-1.548	-0.653	0.251	-0.629	-0.933	3.218	2.365	0.856	0.438	0.834	3.481	-0.685	3.081	0.339	-2.666	-1.212	785.156
1.669	-0.285	1.351	0.909	1.453	1.033	-1.699	-0.986	-1.679	-3.560	-2.948	-2.518	-1.686	-0.552	0.655	-0.337	-0.511	3.478	2.653	1.037	0.628	0.777	3.640	-0.639	3.172	0.312	-2.748	-1.383	789.062
1.616	-0.196	1.195	0.995	1.454	0.825	-1.876	-1.244	-1.935	-3.838	-3.264	-2.947	-1.824	-0.437	1.112	-0.033	-0.026	3.741	2.976	1.227	0.838	0.727	3.863	-0.579	3.284	0.286	-2.820	-1.569	792.969
1.536	-0.115	1.011	1.076	1.440	0.602	-2.071	-1.519	-2.194	-4.135	-3.591	-3.397	-1.966	-0.318	1.597	0.270	0.489	4.001	3.314	1.418	1.054	0.684	4.124	-0.513	3.412	0.269	-2.882	-1.756	796.875
