FP1	F3	F7	FC3	C3	C5	P3	P7	PO7	PO3	O1	Oz	Pz	CPz	FP2	Fz	F4	F8	FC4	FCz	Cz	C4	C6	P4	P8	PO8	PO4	O2	time
-1.105	0.534	0.058	0.141	1.200	0.418	0.330	-0.576	-0.255	0.053	-0.533	-0.512	0.651	0.590	0.130	-0.004	-0.897	1.412	0.293	0.787	1.487	0.238	1.039	0.296	0.163	-0.346	-0.236	-0.361	-199.219
-0.623	0.309	0.097	0.042	1.124	0.463	0.300	-0.453	-0.226	0.153	-0.341	-0.312	0.568	0.496	0.101	-0.072	-0.567	1.144	0.325	0.654	1.351	0.446	0.739	0.121	-0.104	-0.372	-0.393	-0.198	-195.312
-0.192	0.122	0.128	-0.047	1.042	0.493	0.271	-0.341	-0.193	0.247	-0.154	-0.132	0.500	0.416	0.082	-0.128	-0.272	0.868	0.352	0.531	1.219	0.640	0.447	-0.030	-0.329	-0.390	-0.520	-0.051	-191.406
0.149	0.004	0.147	-0.117	0.950	0.496	0.242	-0.252	-0.154	0.328	0.018	0.006	0.455	0.360	0.077	-0.159	-0.036	0.590	0.373	0.427	1.094	0.811	0.176	-0.137	-0.475	-0.397	-0.596	0.061	-187.500
0.376	-0.032	0.153	-0.165	0.843	0.463	0.210	-0.194	-0.115	0.386	0.164	0.090	0.434	0.334	0.085	-0.161	0.128	0.321	0.386	0.349	0.977	0.951	-0.062	-0.188	-0.520	-0.386	-0.607	0.128	-183.594
0.486	0.008	0.141	-0.193	0.718	0.388	0.170	-0.174	-0.086	0.410	0.265	0.116	0.434	0.339	0.103	-0.134	0.217	0.073	0.392	0.299	0.872	1.056	-0.252	-0.178	-0.454	-0.352	-0.547	0.150	-179.688
0.496	0.104	0.112	-0.210	0.573	0.270	0.116	-0.193	-0.079	0.392	0.304	0.086	0.445	0.368	0.126	-0.084	0.244	-0.135	0.398	0.275	0.783	1.129	-0.382	-0.113	-0.284	-0.288	-0.423	0.138	-175.781
0.434	0.223	0.066	-0.227	0.410	0.110	0.042	-0.250	-0.105	0.327	0.269	0.010	0.455	0.411	0.150	-0.019	0.231	-0.284	0.409	0.273	0.709	1.173	-0.438	-0.003	-0.034	-0.193	-0.249	0.106	-171.875
0.334	0.328	0.006	-0.255	0.231	-0.083	-0.053	-0.340	-0.173	0.214	0.158	-0.097	0.451	0.453	0.170	0.050	0.206	-0.354	0.435	0.287	0.651	1.196	-0.410	0.134	0.259	-0.071	-0.046	0.068	-167.969
0.230	0.390	-0.063	-0.300	0.046	-0.293	-0.168	-0.456	-0.282	0.065	-0.018	-0.219	0.424	0.482	0.186	0.117	0.193	-0.334	0.482	0.308	0.604	1.203	-0.296	0.280	0.553	0.068	0.163	0.036	-164.062
0.142	0.393	-0.132	-0.362	-0.133	-0.501	-0.292	-0.586	-0.420	-0.105	-0.232	-0.334	0.371	0.485	0.195	0.174	0.208	-0.229	0.551	0.330	0.563	1.197	-0.101	0.414	0.806	0.208	0.356	0.015	-160.156
0.082	0.337	-0.194	-0.434	-0.290	-0.682	-0.411	-0.716	-0.566	-0.271	-0.446	-0.422	0.296	0.461	0.195	0.217	0.255	-0.060	0.633	0.346	0.523	1.179	0.159	0.522	0.984	0.331	0.516	0.009	-156.250
0.047	0.238	-0.242	-0.505	-0.410	-0.813	-0.505	-0.829	-0.690	-0.403	-0.618	-0.468	0.209	0.411	0.180	0.245	0.320	0.134	0.713	0.350	0.481	1.146	0.456	0.593	1.064	0.423	0.631	0.016	-152.344
0.026	0.120	-0.273	-0.564	-0.483	-0.878	-0.554	-0.911	-0.763	-0.475	-0.711	-0.459	0.129	0.348	0.147	0.255	0.384	0.306	0.770	0.337	0.434	1.095	0.757	0.625	1.045	0.472	0.697	0.035	-148.438
0.004	0.012	-0.290	-0.600	-0.504	-0.870	-0.544	-0.948	-0.762	-0.470	-0.704	-0.392	0.071	0.285	0.093	0.245	0.421	0.410	0.784	0.305	0.386	1.023	1.027	0.622	0.935	0.477	0.717	0.063	-144.531
-0.037	-0.065	-0.296	-0.611	-0.477	-0.794	-0.469	-0.936	-0.678	-0.383	-0.596	-0.273	0.049	0.236	0.024	0.214	0.415	0.418	0.743	0.253	0.339	0.933	1.235	0.591	0.757	0.444	0.699	0.099	-140.625
-0.107	-0.101	-0.296	-0.597	-0.414	-0.667	-0.332	-0.874	-0.520	-0.225	-0.412	-0.115	0.070	0.210	-0.047	0.161	0.358	0.325	0.646	0.182	0.296	0.828	1.357	0.543	0.539	0.383	0.652	0.138	-136.719
-0.211	-0.098	-0.293	-0.565	-0.332	-0.511	-0.152	-0.772	-0.310	-0.020	-0.187	0.061	0.130	0.209	-0.104	0.087	0.257	0.154	0.500	0.095	0.259	0.716	1.382	0.486	0.308	0.307	0.585	0.177	-132.812
-0.341	-0.067	-0.284	-0.524	-0.250	-0.353	0.047	-0.641	-0.079	0.200	0.033	0.233	0.218	0.226	-0.134	-0.005	0.130	-0.053	0.327	-0.003	0.225	0.604	1.306	0.426	0.087	0.231	0.507	0.212	-128.906
-0.479	-0.025	-0.263	-0.480	-0.182	-0.214	0.236	-0.492	0.140	0.402	0.209	0.378	0.316	0.247	-0.129	-0.104	0.002	-0.247	0.150	-0.105	0.190	0.498	1.136	0.368	-0.105	0.163	0.423	0.238	-125.000
-0.597	0.012	-0.221	-0.439	-0.137	-0.113	0.388	-0.339	0.321	0.556	0.315	0.479	0.402	0.259	-0.090	-0.201	-0.102	-0.386	-0.009	-0.202	0.147	0.400	0.888	0.310	-0.260	0.110	0.335	0.254	-121.094
-0.670	0.034	-0.149	-0.404	-0.117	-0.057	0.483	-0.188	0.447	0.647	0.343	0.525	0.458	0.247	-0.029	-0.281	-0.165	-0.444	-0.131	-0.285	0.091	0.310	0.582	0.250	-0.372	0.069	0.246	0.256	-117.188
-0.676	0.041	-0.046	-0.372	-0.117	-0.044	0.513	-0.047	0.515	0.667	0.303	0.513	0.474	0.205	0.036	-0.331	-0.179	-0.417	-0.207	-0.347	0.018	0.229	0.247	0.187	-0.442	0.038	0.156	0.246	-113.281
-0.609	0.035	0.084	-0.344	-0.129	-0.066	0.481	0.081	0.531	0.623	0.216	0.449	0.444	0.135	0.089	-0.342	-0.149	-0.320	-0.239	-0.381	-0.069	0.155	-0.086	0.119	-0.474	0.012	0.065	0.225	-109.375
-0.480	0.021	0.227	-0.315	-0.142	-0.109	0.399	0.193	0.503	0.530	0.108	0.345	0.374	0.046	0.119	-0.312	-0.093	-0.180	-0.240	-0.385	-0.165	0.088	-0.384	0.048	-0.475	-0.012	-0.023	0.198	-105.469
-0.316	0.001	0.362	-0.288	-0.147	-0.159	0.285	0.284	0.445	0.406	0.004	0.217	0.276	-0.047	0.124	-0.248	-0.033	-0.032	-0.224	-0.360	-0.259	0.030	-0.616	-0.022	-0.450	-0.032	-0.102	0.173	-101.562
-0.150	-0.025	0.466	-0.259	-0.141	-0.203	0.159	0.348	0.365	0.268	-0.080	0.085	0.167	-0.126	0.112	-0.160	0.008	0.092	-0.210	-0.310	-0.340	-0.018	-0.758	-0.083	-0.407	-0.043	-0.163	0.158	-97.656
-0.015	-0.059	0.523	-0.230	-0.123	-0.231	0.036	0.378	0.269	0.133	-0.140	-0.037	0.063	-0.177	0.095	-0.064	0.015	0.166	-0.208	-0.242	-0.396	-0.055	-0.795	-0.126	-0.350	-0.040	-0.198	0.159	-93.750
0.067	-0.102	0.524	-0.197	-0.097	-0.236	-0.072	0.370	0.162	0.008	-0.176	-0.136	-0.024	-0.190	0.083	0.027	-0.014	0.173	-0.221	-0.162	-0.423	-0.082	-0.727	-0.145	-0.287	-0.017	-0.200	0.176	-89.844
0.092	-0.152	0.473	-0.158	-0.069	-0.219	-0.158	0.324	0.051	-0.100	-0.193	-0.207	-0.087	-0.167	0.081	0.100	-0.069	0.113	-0.242	-0.080	-0.421	-0.105	-0.566	-0.137	-0.223	0.026	-0.168	0.204	-85.938
0.070	-0.199	0.384	-0.111	-0.046	-0.180	-0.220	0.247	-0.054	-0.187	-0.195	-0.250	-0.125	-0.115	0.085	0.149	-0.132	-0.001	-0.261	-0.004	-0.399	-0.132	-0.337	-0.105	-0.163	0.082	-0.107	0.229	-82.031
0.026	-0.234	0.278	-0.055	-0.034	-0.124	-0.257	0.155	-0.138	-0.250	-0.180	-0.267	-0.143	-0.051	0.082	0.173	-0.185	-0.145	-0.268	0.056	-0.370	-0.173	-0.074	-0.058	-0.112	0.143	-0.023	0.235	-78.125
-0.017	-0.244	0.175	0.009	-0.035	-0.057	-0.266	0.069	-0.186	-0.283	-0.143	-0.264	-0.148	0.006	0.057	0.171	-0.215	-0.290	-0.260	0.092	-0.350	-0.240	0.183	-0.006	-0.072	0.198	0.072	0.211	-74.219
-0.042	-0.224	0.093	0.079	-0.047	0.018	-0.248	0.011	-0.182	-0.282	-0.077	-0.244	-0.149	0.041	0.000	0.146	-0.221	-0.406	-0.242	0.098	-0.352	-0.340	0.396	0.040	-0.045	0.237	0.167	0.151	-70.312
-0.042	-0.175	0.045	0.151	-0.066	0.096	-0.201	0.001	-0.120	-0.245	0.018	-0.211	-0.151	0.038	-0.089	0.100	-0.214	-0.477	-0.226	0.070	-0.385	-0.475	0.535	0.071	-0.028	0.258	0.252	0.061	-66.406
-0.022	-0.106	0.031	0.219	-0.084	0.176	-0.129	0.051	-0.004	-0.175	0.138	-0.167	-0.161	-0.005	-0.199	0.034	-0.212	-0.497	-0.229	0.007	-0.450	-0.642	0.579	0.082	-0.019	0.261	0.320	-0.046	-62.500
0.006	-0.038	0.047	0.280	-0.096	0.255	-0.037	0.162	0.152	-0.080	0.272	-0.112	-0.181	-0.087	-0.313	-0.049	-0.233	-0.479	-0.267	-0.087	-0.541	-0.826	0.520	0.073	-0.012	0.250	0.368	-0.147	-58.594
0.033	0.009	0.080	0.330	-0.096	0.329	0.066	0.323	0.326	0.025	0.403	-0.045	-0.212	-0.197	-0.408	-0.143	-0.289	-0.445	-0.347	-0.202	-0.647	-1.010	0.365	0.049	-0.003	0.234	0.393	-0.222	-54.688
0.054	0.016	0.112	0.366	-0.084	0.395	0.169	0.512	0.490	0.125	0.518	0.036	-0.254	-0.318	-0.468	-0.239	-0.378	-0.422	-0.463	-0.327	-0.753	-1.173	0.137	0.015	0.011	0.216	0.395	-0.255	-50.781
0.071	-0.024	0.127	0.390	-0.065	0.443	0.258	0.700	0.621	0.202	0.604	0.130	-0.303	-0.434	-0.482	-0.324	-0.484	-0.426	-0.597	-0.444	-0.841	-1.295	-0.134	-0.025	0.027	0.197	0.372	-0.242	-46.875
0.091	-0.103	0.113	0.407	-0.046	0.466	0.320	0.857	0.700	0.240	0.654	0.231	-0.359	-0.529	-0.451	-0.382	-0.576	-0.460	-0.723	-0.535	-0.898	-1.364	-0.409	-0.068	0.040	0.171	0.323	-0.191	-42.969
0.121	-0.202	0.065	0.424	-0.036	0.459	0.344	0.957	0.716	0.228	0.662	0.325	-0.420	-0.593	-0.382	-0.396	-0.622	-0.509	-0.809	-0.585	-0.914	-1.377	-0.655	-0.118	0.045	0.130	0.245	-0.123	-39.062
0.167	-0.290	-0.010	0.451	-0.042	0.422	0.322	0.984	0.664	0.161	0.624	0.398	-0.485	-0.625	-0.287	-0.354	-0.592	-0.544	-0.832	-0.584	-0.887	-1.340	-0.843	-0.179	0.036	0.065	0.135	-0.063	-35.156
0.227	-0.338	-0.099	0.497	-0.068	0.363	0.254	0.938	0.551	0.041	0.541	0.432	-0.554	-0.630	-0.177	-0.253	-0.468	-0.536	-0.779	-0.531	-0.822	-1.267	-0.961	-0.256	0.010	-0.029	-0.005	-0.034	-31.250
0.296	-0.325	-0.181	0.569	-0.111	0.294	0.145	0.829	0.390	-0.121	0.419	0.416	-0.627	-0.620	-0.061	-0.101	-0.257	-0.461	-0.653	-0.434	-0.731	-1.179	-1.011	-0.353	-0.030	-0.152	-0.171	-0.056	-27.344
0.359	-0.243	-0.240	0.668	-0.163	0.233	0.008	0.681	0.204	-0.304	0.267	0.344	-0.704	-0.609	0.055	0.084	0.015	-0.314	-0.475	-0.308	-0.631	-1.096	-1.004	-0.469	-0.080	-0.295	-0.353	-0.135	-23.438
0.400	-0.100	-0.263	0.789	-0.213	0.194	-0.140	0.527	0.014	-0.487	0.103	0.221	-0.781	-0.611	0.171	0.275	0.307	-0.102	-0.275	-0.175	-0.538	-1.033	-0.960	-0.598	-0.132	-0.447	-0.539	-0.268	-19.531
0.402	0.081	-0.247	0.922	-0.250	0.189	-0.281	0.395	-0.155	-0.645	-0.057	0.062	-0.856	-0.633	0.292	0.446	0.571	0.146	-0.089	-0.057	-0.465	-0.996	-0.896	-0.728	-0.182	-0.589	-0.713	-0.439	-15.625
0.354	0.270	-0.200	1.054	-0.263	0.220	-0.398	0.312	-0.287	-0.761	-0.196	-0.113	-0.923	-0.676	0.421	0.574	0.766	0.393	0.051	0.032	-0.418	-0.985	-0.829	-0.847	-0.226	-0.708	-0.863	-0.628	-11.719
0.256	0.435	-0.140	1.170	-0.249	0.282	-0.479	0.290	-0.374	-0.823	-0.305	-0.279	-0.974	-0.734	0.557	0.643	0.864	0.602	0.123	0.082	-0.396	-0.991	-0.767	-0.941	-0.265	-0.789	-0.976	-0.806	-7.812
0.115	0.544	-0.089	1.258	-0.211	0.362	-0.516	0.334	-0.416	-0.827	-0.380	-0.416	-1.002	-0.795	0.691	0.649	0.858	0.745	0.117	0.094	-0.391	-1.001	-0.716	-0.998	-0.299	-0.823	-1.043	-0.950	-3.906
-0.049	0.578	-0.070	1.307	-0.160	0.446	-0.508	0.434	-0.417	-0.780	-0.421	-0.504	-0.996	-0.843	0.803	0.596	0.756	0.805	0.039	0.076	-0.392	-1.007	-0.676	-1.012	-0.327	-0.808	-1.058	-1.036	0.000
-0.212	0.524	-0.103	1.314	-0.108	0.517	-0.460	0.575	-0.385	-0.691	-0.432	-0.534	-0.949	-0.864	0.868	0.495	0.581	0.785	-0.097	0.037	-0.392	-1.002	-0.645	-0.978	-0.347	-0.743	-1.021	-1.051	3.906
-0.351	0.386	-0.196	1.278	-0.070	0.564	-0.378	0.738	-0.328	-0.576	-0.416	-0.501	-0.860	-0.850	0.857	0.357	0.359	0.699	-0.271	-0.012	-0.386	-0.987	-0.622	-0.897	-0.349	-0.636	-0.931	-0.986	7.812
-0.446	0.179	-0.346	1.206	-0.058	0.580	-0.277	0.904	-0.251	-0.449	-0.375	-0.409	-0.729	-0.798	0.749	0.191	0.114	0.567	-0.464	-0.067	-0.375	-0.968	-0.608	-0.773	-0.325	-0.492	-0.795	-0.845	11.719
-0.494	-0.074	-0.539	1.108	-0.081	0.565	-0.169	1.057	-0.155	-0.324	-0.312	-0.267	-0.566	-0.714	0.539	0.005	-0.131	0.414	-0.658	-0.126	-0.367	-0.954	-0.608	-0.615	-0.266	-0.324	-0.621	-0.638	15.625
-0.503	-0.342	-0.753	0.996	-0.139	0.523	-0.068	1.190	-0.041	-0.211	-0.223	-0.090	-0.385	-0.609	0.240	-0.195	-0.364	0.263	-0.843	-0.190	-0.370	-0.955	-0.632	-0.432	-0.168	-0.145	-0.422	-0.384	19.531
-0.497	-0.594	-0.964	0.883	-0.229	0.463	0.014	1.296	0.094	-0.115	-0.106	0.107	-0.204	-0.502	-0.114	-0.403	-0.576	0.135	-1.012	-0.264	-0.393	-0.981	-0.692	-0.242	-0.034	0.031	-0.215	-0.109	23.438
-0.508	-0.805	-1.146	0.777	-0.343	0.395	0.069	1.379	0.251	-0.035	0.044	0.305	-0.042	-0.409	-0.473	-0.611	-0.762	0.047	-1.162	-0.349	-0.443	-1.038	-0.800	-0.059	0.127	0.192	-0.017	0.159	27.344
-0.568	-0.957	-1.282	0.685	-0.471	0.327	0.096	1.441	0.431	0.032	0.227	0.488	0.082	-0.349	-0.783	-0.812	-0.918	0.010	-1.292	-0.445	-0.524	-1.132	-0.961	0.102	0.300	0.326	0.156	0.391	31.250
-0.695	-1.046	-1.357	0.609	-0.603	0.266	0.095	1.487	0.626	0.092	0.438	0.642	0.153	-0.335	-0.997	-0.994	-1.040	0.028	-1.401	-0.550	-0.633	-1.259	-1.169	0.230	0.467	0.431	0.294	0.567	35.156
-0.890	-1.076	-1.367	0.551	-0.729	0.213	0.069	1.520	0.827	0.144	0.664	0.751	0.159	-0.376	-1.086	-1.145	-1.121	0.100	-1.485	-0.658	-0.766	-1.413	-1.401	0.318	0.614	0.512	0.398	0.675	39.062
-1.127	-1.061	-1.313	0.508	-0.844	0.169	0.022	1.542	1.016	0.184	0.880	0.801	0.090	-0.476	-1.047	-1.258	-1.156	0.218	-1.542	-0.764	-0.917	-1.582	-1.627	0.367	0.734	0.586	0.473	0.714	42.969
-1.365	-1.018	-1.203	0.477	-0.946	0.134	-0.044	1.556	1.179	0.203	1.058	0.780	-0.060	-0.635	-0.905	-1.326	-1.138	0.365	-1.569	-0.861	-1.081	-1.752	-1.811	0.387	0.834	0.675	0.535	0.695	46.875
-1.557	-0.965	-1.049	0.457	-1.034	0.103	-0.130	1.567	1.302	0.184	1.165	0.673	-0.295	-0.850	-0.703	-1.351	-1.068	0.526	-1.567	-0.947	-1.253	-1.909	-1.919	0.389	0.931	0.809	0.601	0.639	50.781
-1.661	-0.915	-0.868	0.442	-1.114	0.077	-0.239	1.583	1.384	0.113	1.176	0.473	-0.617	-1.115	-0.494	-1.343	-0.952	0.682	-1.544	-1.024	-1.431	-2.039	-1.931	0.392	1.053	1.016	0.693	0.575	54.688
-1.660	-0.880	-0.681	0.426	-1.190	0.051	-0.376	1.620	1.432	-0.020	1.081	0.179	-1.021	-1.421	-0.331	-1.317	-0.806	0.817	-1.512	-1.097	-1.615	-2.138	-1.845	0.415	1.227	1.318	0.832	0.534	58.594
-1.561	-0.865	-0.510	0.399	-1.269	0.027	-0.543	1.697	1.472	-0.215	0.893	-0.197	-1.493	-1.756	-0.254	-1.299	-0.659	0.913	-1.491	-1.178	-1.804	-2.203	-1.676	0.474	1.478	1.728	1.033	0.547	62.500
-1.399	-0.872	-0.379	0.348	-1.357	0.004	-0.737	1.833	1.536	-0.457	0.645	-0.627	-2.008	-2.103	-0.291	-1.316	-0.543	0.953	-1.505	-1.278	-1.999	-2.242	-1.454	0.584	1.815	2.244	1.309	0.641	66.406
-1.227	-0.904	-0.308	0.260	-1.459	-0.017	-0.946	2.047	1.663	-0.718	0.387	-1.072	-2.527	-2.443	-0.452	-1.395	-0.496	0.919	-1.577	-1.413	-2.196	-2.269	-1.220	0.750	2.236	2.851	1.663	0.834	70.312
-1.106	-0.968	-0.309	0.119	-1.575	-0.032	-1.148	2.352	1.891	-0.954	0.178	-1.482	-3.001	-2.749	-0.734	-1.558	-0.554	0.794	-1.726	-1.594	-2.391	-2.302	-1.011	0.973	2.719	3.518	2.089	1.131	74.219
-1.094	-1.073	-0.389	-0.082	-1.702	-0.037	-1.314	2.749	2.242	-1.121	0.070	-1.807	-3.379	-2.994	-1.121	-1.821	-0.739	0.571	-1.962	-1.827	-2.577	-2.360	-0.861	1.241	3.229	4.205	2.568	1.521	78.125
-1.230	-1.231	-0.541	-0.344	-1.831	-0.025	-1.408	3.230	2.721	-1.174	0.103	-2.003	-3.607	-3.152	-1.587	-2.182	-1.063	0.255	-2.283	-2.110	-2.742	-2.456	-0.790	1.536	3.722	4.859	3.068	1.976	82.031
-1.531	-1.453	-0.754	-0.657	-1.948	0.009	-1.399	3.769	3.309	-1.086	0.291	-2.045	-3.644	-3.199	-2.098	-2.627	-1.514	-0.138	-2.671	-2.430	-2.875	-2.596	-0.802	1.831	4.149	5.426	3.548	2.456	85.938
-1.985	-1.748	-1.010	-1.002	-2.035	0.073	-1.265	4.330	3.962	-0.847	0.619	-1.925	-3.469	-3.122	-2.613	-3.125	-2.066	-0.575	-3.097	-2.762	-2.961	-2.773	-0.887	2.097	4.470	5.856	3.961	2.914	89.844
-2.553	-2.113	-1.287	-1.349	-2.073	0.169	-0.997	4.864	4.617	-0.477	1.040	-1.663	-3.082	-2.915	-3.092	-3.634	-2.676	-1.020	-3.520	-3.073	-2.984	-2.967	-1.023	2.306	4.656	6.108	4.261	3.303	93.750
-3.176	-2.533	-1.564	-1.661	-2.045	0.300	-0.609	5.321	5.196	-0.020	1.488	-1.301	-2.511	-2.590	-3.493	-4.101	-3.293	-1.432	-3.899	-3.323	-2.929	-3.149	-1.182	2.436	4.698	6.158	4.407	3.582	97.656
-3.782	-2.977	-1.818	-1.901	-1.940	0.463	-0.135	5.651	5.624	0.461	1.882	-0.896	-1.809	-2.169	-3.780	-4.476	-3.866	-1.772	-4.195	-3.474	-2.786	-3.287	-1.332	2.470	4.606	6.003	4.370	3.722	101.562
-4.299	-3.404	-2.028	-2.036	-1.757	0.646	0.375	5.815	5.836	0.894	2.149	-0.510	-1.047	-1.688	-3.925	-4.712	-4.343	-2.011	-4.375	-3.493	-2.551	-3.351	-1.442	2.401	4.404	5.656	4.138	3.710	105.469
-4.663	-3.761	-2.174	-2.042	-1.507	0.836	0.858	5.788	5.791	1.210	2.227	-0.202	-0.307	-1.193	-3.914	-4.775	-4.680	-2.124	-4.417	-3.359	-2.230	-3.321	-1.487	2.230	4.124	5.148	3.712	3.547	109.375
-4.823	-3.997	-2.240	-1.908	-1.212	1.012	1.249	5.564	5.478	1.357	2.088	-0.018	0.331	-0.732	-3.748	-4.649	-4.840	-2.099	-4.313	-3.068	-1.839	-3.196	-1.447	1.963	3.799	4.522	3.114	3.248	113.281
-4.754	-4.063	-2.212	-1.639	-0.901	1.150	1.498	5.156	4.923	1.307	1.738	0.023	0.796	-0.353	-3.444	-4.336	-4.801	-1.931	-4.066	-2.634	-1.402	-2.991	-1.311	1.613	3.460	3.827	2.379	2.842	117.188
-4.451	-3.929	-2.089	-1.256	-0.611	1.231	1.568	4.599	4.181	1.067	1.220	-0.075	1.039	-0.097	-3.032	-3.861	-4.552	-1.629	-3.694	-2.092	-0.955	-2.745	-1.084	1.195	3.129	3.115	1.561	2.366	121.094
-3.937	-3.588	-1.877	-0.796	-0.375	1.238	1.454	3.939	3.335	0.675	0.610	-0.280	1.039	0.005	-2.554	-3.269	-4.109	-1.210	-3.232	-1.493	-0.537	-2.506	-0.786	0.730	2.821	2.440	0.724	1.867	125.000
-3.258	-3.063	-1.596	-0.305	-0.224	1.165	1.177	3.238	2.483	0.200	0.004	-0.537	0.803	-0.060	-2.060	-2.622	-3.507	-0.712	-2.730	-0.899	-0.192	-2.330	-0.453	0.243	2.548	1.854	-0.056	1.399	128.906
-2.477	-2.410	-1.280	0.162	-0.179	1.014	0.786	2.558	1.729	-0.270	-0.492	-0.778	0.368	-0.291	-1.601	-1.993	-2.815	-0.184	-2.248	-0.380	0.038	-2.268	-0.136	-0.233	2.322	1.411	-0.699	1.021	132.812
-1.674	-1.714	-0.971	0.550	-0.250	0.792	0.352	1.965	1.165	-0.637	-0.782	-0.929	-0.211	-0.672	-1.227	-1.459	-2.120	0.308	-1.854	-0.003	0.121	-2.355	0.109	-0.657	2.156	1.159	-1.123	0.790	136.719
-0.931	-1.076	-0.715	0.806	-0.438	0.514	-0.045	1.513	0.867	-0.811	-0.791	-0.926	-0.860	-1.171	-0.981	-1.094	-1.530	0.695	-1.612	0.177	0.033	-2.605	0.233	-0.984	2.068	1.142	-1.255	0.757	140.625
-0.328	-0.606	-0.559	0.891	-0.730	0.195	-0.326	1.244	0.884	-0.721	-0.476	-0.722	-1.504	-1.749	-0.895	-0.958	-1.151	0.909	-1.573	0.121	-0.231	-3.010	0.199	-1.167	2.080	1.388	-1.037	0.956	144.531
0.066	-0.398	-0.541	0.780	-1.107	-0.148	-0.425	1.182	1.228	-0.324	0.167	-0.297	-2.074	-2.362	-0.988	-1.090	-1.074	0.899	-1.768	-0.187	-0.662	-3.537	-0.002	-1.167	2.214	1.911	-0.440	1.403	148.438
0.205	-0.519	-0.683	0.468	-1.540	-0.496	-0.302	1.329	1.882	0.383	1.103	0.342	-2.516	-2.967	-1.263	-1.507	-1.360	0.641	-2.200	-0.739	-1.235	-4.142	-0.353	-0.959	2.487	2.700	0.533	2.087	152.344
0.066	-0.997	-0.990	-0.028	-1.999	-0.826	0.057	1.670	2.798	1.369	2.267	1.157	-2.797	-3.527	-1.707	-2.196	-2.021	0.144	-2.848	-1.504	-1.912	-4.769	-0.809	-0.538	2.910	3.716	1.839	2.969	156.250
-0.343	-1.811	-1.447	-0.673	-2.450	-1.114	0.632	2.172	3.906	2.568	3.568	2.090	-2.908	-4.014	-2.298	-3.122	-3.025	-0.549	-3.666	-2.433	-2.650	-5.363	-1.308	0.074	3.479	4.899	3.400	3.991	160.156
-0.985	-2.897	-2.018	-1.417	-2.863	-1.331	1.376	2.792	5.120	3.890	4.906	3.069	-2.865	-4.413	-2.999	-4.227	-4.292	-1.359	-4.589	-3.465	-3.405	-5.875	-1.776	0.836	4.177	6.166	5.106	5.076	164.062
-1.797	-4.153	-2.651	-2.201	-3.212	-1.450	2.221	3.479	6.352	5.228	6.180	4.018	-2.702	-4.721	-3.766	-5.440	-5.708	-2.189	-5.547	-4.539	-4.137	-6.266	-2.145	1.686	4.972	7.429	6.828	6.143	167.969
-2.700	-5.458	-3.281	-2.965	-3.478	-1.450	3.085	4.185	7.513	6.471	7.299	4.862	-2.469	-4.948	-4.551	-6.682	-7.138	-2.938	-6.467	-5.592	-4.815	-6.513	-2.359	2.551	5.820	8.597	8.435	7.112	171.875
-3.610	-6.683	-3.844	-3.654	-3.654	-1.322	3.883	4.863	8.525	7.518	8.187	5.540	-2.223	-5.112	-5.297	-7.875	-8.447	-3.515	-7.285	-6.573	-5.416	-6.608	-2.385	3.356	6.669	9.593	9.806	7.919	175.781
-4.446	-7.718	-4.280	-4.223	-3.737	-1.067	4.542	5.474	9.327	8.287	8.790	6.005	-2.016	-5.234	-5.954	-8.951	-9.515	-3.861	-7.946	-7.439	-5.926	-6.559	-2.216	4.037	7.466	10.361	10.846	8.518	179.688
-5.146	-8.485	-4.545	-4.647	-3.733	-0.701	5.005	5.989	9.879	8.723	9.083	6.229	-1.890	-5.332	-6.477	-9.859	-10.257	-3.954	-8.413	-8.165	-6.335	-6.390	-1.871	4.546	8.166	10.871	11.500	8.886	183.594
-5.678	-8.950	-4.615	-4.913	-3.654	-0.249	5.241	6.390	10.164	8.809	9.071	6.211	-1.871	-5.419	-6.834	-10.568	-10.631	-3.814	-8.668	-8.737	-6.638	-6.134	-1.386	4.859	8.737	11.121	11.755	9.023	187.500
-6.034	-9.126	-4.491	-5.027	-3.513	0.255	5.249	6.671	10.195	8.562	8.786	5.973	-1.962	-5.497	-7.013	-11.072	-10.651	-3.496	-8.712	-9.152	-6.831	-5.825	-0.814	4.980	9.161	11.138	11.642	8.951	191.406
-6.240	-9.065	-4.197	-5.009	-3.324	0.775	5.053	6.835	10.003	8.028	8.284	5.557	-2.147	-5.557	-7.018	-11.387	-10.372	-3.081	-8.567	-9.419	-6.912	-5.500	-0.208	4.936	9.440	10.969	11.230	8.707	195.312
-6.337	-8.848	-3.776	-4.889	-3.098	1.274	4.702	6.893	9.639	7.284	7.631	5.021	-2.394	-5.583	-6.877	-11.543	-9.888	-2.655	-8.270	-9.552	-6.883	-5.184	0.379	4.776	9.588	10.675	10.615	8.342	199.219
-6.378	-8.564	-3.287	-4.700	-2.849	1.722	4.256	6.864	9.163	6.417	6.898	4.428	-2.659	-5.555	-6.628	-11.582	-9.309	-2.304	-7.874	-9.571	-6.750	-4.895	0.906	4.561	9.630	10.323	9.905	7.911	203.125
-6.412	-8.295	-2.793	-4.479	-2.588	2.093	3.785	6.771	8.639	5.523	6.154	3.840	-2.896	-5.453	-6.315	-11.543	-8.741	-2.090	-7.433	-9.496	-6.524	-4.643	1.342	4.352	9.599	9.973	9.207	7.467	207.031
-6.479	-8.103	-2.361	-4.261	-2.325	2.367	3.355	6.643	8.127	4.692	5.456	3.310	-3.058	-5.260	-5.986	-11.461	-8.271	-2.053	-7.004	-9.347	-6.221	-4.426	1.675	4.204	9.525	9.675	8.614	7.056	210.938
-6.604	-8.027	-2.050	-4.076	-2.073	2.536	3.022	6.508	7.681	4.003	4.848	2.873	-3.111	-4.969	-5.687	-11.363	-7.954	-2.199	-6.635	-9.144	-5.858	-4.238	1.903	4.157	9.434	9.460	8.191	6.709	214.844
-6.791	-8.076	-1.907	-3.950	-1.844	2.596	2.832	6.396	7.342	3.516	4.362	2.547	-3.030	-4.578	-5.455	-11.262	-7.812	-2.510	-6.361	-8.902	-5.455	-4.072	2.038	4.236	9.349	9.339	7.976	6.444	218.750
-7.028	-8.239	-1.962	-3.896	-1.650	2.552	2.810	6.327	7.139	3.266	4.013	2.331	-2.804	-4.095	-5.323	-11.161	-7.835	-2.946	-6.201	-8.635	-5.027	-3.919	2.095	4.443	9.283	9.308	7.976	6.262	222.656
-7.290	-8.485	-2.227	-3.919	-1.500	2.415	2.964	6.316	7.083	3.264	3.805	2.211	-2.436	-3.535	-5.314	-11.058	-7.987	-3.457	-6.155	-8.353	-4.584	-3.769	2.093	4.763	9.245	9.347	8.168	6.153	226.562
-7.547	-8.773	-2.693	-4.011	-1.398	2.202	3.287	6.367	7.168	3.495	3.727	2.163	-1.944	-2.915	-5.439	-10.942	-8.218	-3.993	-6.207	-8.057	-4.134	-3.619	2.042	5.171	9.237	9.433	8.510	6.096	230.469
-7.766	-9.055	-3.333	-4.152	-1.344	1.936	3.755	6.471	7.375	3.924	3.762	2.159	-1.352	-2.255	-5.697	-10.802	-8.476	-4.515	-6.327	-7.747	-3.675	-3.466	1.949	5.632	9.254	9.536	8.948	6.068	234.375
-7.918	-9.290	-4.105	-4.316	-1.331	1.637	4.337	6.609	7.676	4.503	3.882	2.172	-0.689	-1.577	-6.073	-10.629	-8.713	-4.996	-6.478	-7.417	-3.205	-3.313	1.813	6.109	9.289	9.633	9.423	6.046	238.281
-7.989	-9.450	-4.956	-4.477	-1.347	1.327	4.997	6.757	8.034	5.178	4.059	2.181	0.013	-0.896	-6.543	-10.418	-8.894	-5.426	-6.625	-7.058	-2.719	-3.162	1.630	6.571	9.328	9.705	9.884	6.010	242.188
-7.976	-9.523	-5.832	-4.612	-1.376	1.025	5.699	6.889	8.412	5.896	4.263	2.170	0.729	-0.227	-7.072	-10.168	-9.004	-5.807	-6.737	-6.663	-2.213	-3.015	1.396	6.996	9.361	9.743	10.291	5.949	246.094
-7.888	-9.512	-6.675	-4.704	-1.403	0.744	6.410	6.982	8.775	6.611	4.465	2.133	1.437	0.421	-7.623	-9.887	-9.042	-6.145	-6.793	-6.227	-1.685	-2.871	1.113	7.369	9.376	9.743	10.620	5.856	250.000
-7.750	-9.434	-7.438	-4.744	-1.408	0.495	7.101	7.016	9.087	7.286	4.639	2.063	2.121	1.041	-8.156	-9.584	-9.024	-6.447	-6.783	-5.752	-1.138	-2.729	0.795	7.687	9.363	9.703	10.859	5.729	253.906
-7.589	-9.304	-8.078	-4.725	-1.375	0.283	7.748	6.978	9.319	7.895	4.758	1.958	2.768	1.628	-8.637	-9.271	-8.968	-6.717	-6.707	-5.241	-0.580	-2.583	0.463	7.949	9.313	9.625	11.009	5.570	257.812
-7.428	-9.133	-8.566	-4.640	-1.290	0.112	8.331	6.861	9.447	8.418	4.801	1.812	3.371	2.179	-9.036	-8.953	-8.890	-6.950	-6.567	-4.703	-0.022	-2.426	0.152	8.159	9.217	9.506	11.076	5.379	261.719
-7.284	-8.922	-8.888	-4.484	-1.143	-0.016	8.835	6.665	9.454	8.842	4.750	1.618	3.920	2.691	-9.333	-8.634	-8.797	-7.137	-6.370	-4.146	0.526	-2.252	-0.103	8.315	9.060	9.336	11.064	5.152	265.625
-7.161	-8.663	-9.042	-4.251	-0.930	-0.101	9.249	6.398	9.333	9.159	4.595	1.368	4.405	3.158	-9.515	-8.308	-8.681	-7.268	-6.120	-3.575	1.053	-2.057	-0.269	8.415	8.829	9.104	10.974	4.885	269.531
-7.052	-8.347	-9.041	-3.937	-0.653	-0.144	9.569	6.073	9.088	9.363	4.333	1.057	4.816	3.578	-9.580	-7.965	-8.526	-7.332	-5.818	-2.994	1.557	-1.840	-0.325	8.450	8.514	8.795	10.806	4.570	273.438
-6.942	-7.969	-8.909	-3.546	-0.320	-0.145	9.794	5.707	8.735	9.455	3.973	0.682	5.143	3.949	-9.536	-7.590	-8.311	-7.327	-5.468	-2.400	2.041	-1.601	-0.269	8.413	8.110	8.399	10.554	4.201	277.344
-6.815	-7.535	-8.683	-3.089	0.054	-0.109	9.929	5.318	8.299	9.439	3.536	0.251	5.382	4.271	-9.398	-7.171	-8.017	-7.256	-5.071	-1.790	2.513	-1.343	-0.112	8.300	7.625	7.915	10.216	3.778	281.250
-6.656	-7.060	-8.403	-2.587	0.450	-0.042	9.982	4.925	7.812	9.327	3.048	-0.220	5.533	4.546	-9.192	-6.701	-7.639	-7.128	-4.633	-1.158	2.985	-1.070	0.117	8.113	7.073	7.352	9.797	3.309	285.156
-6.458	-6.568	-8.112	-2.069	0.848	0.046	9.964	4.544	7.311	9.134	2.544	-0.711	5.603	4.778	-8.946	-6.177	-7.182	-6.960	-4.164	-0.504	3.470	-0.783	0.388	7.864	6.482	6.733	9.308	2.811	289.062
-6.219	-6.087	-7.848	-1.565	1.229	0.145	9.887	4.187	6.831	8.878	2.058	-1.195	5.602	4.974	-8.691	-5.606	-6.667	-6.768	-3.678	0.171	3.971	-0.486	0.673	7.572	5.880	6.089	8.772	2.306	292.969
-5.945	-5.636	-7.638	-1.106	1.575	0.244	9.762	3.866	6.403	8.582	1.619	-1.653	5.544	5.139	-8.451	-4.997	-6.124	-6.571	-3.192	0.858	4.489	-0.182	0.951	7.260	5.297	5.453	8.213	1.815	296.875
-5.647	-5.232	-7.497	-0.710	1.876	0.331	9.598	3.588	6.046	8.264	1.249	-2.071	5.442	5.276	-8.246	-4.368	-5.590	-6.379	-2.722	1.544	5.014	0.124	1.212	6.954	4.760	4.857	7.660	1.356	300.781
-5.338	-4.876	-7.424	-0.387	2.128	0.403	9.406	3.359	5.769	7.939	0.951	-2.447	5.307	5.389	-8.084	-3.737	-5.099	-6.198	-2.286	2.214	5.530	0.426	1.452	6.673	4.291	4.328	7.136	0.938	304.688
-5.030	-4.562	-7.404	-0.134	2.333	0.459	9.192	3.185	5.563	7.617	0.714	-2.790	5.145	5.478	-7.960	-3.121	-4.681	-6.024	-1.896	2.852	6.020	0.718	1.671	6.432	3.909	3.881	6.657	0.561	308.594
-4.736	-4.278	-7.414	0.063	2.501	0.504	8.967	3.070	5.413	7.301	0.510	-3.121	4.958	5.541	-7.863	-2.537	-4.354	-5.853	-1.562	3.440	6.462	0.994	1.866	6.235	3.622	3.522	6.232	0.218	312.500
-4.459	-4.007	-7.425	0.223	2.646	0.553	8.740	3.016	5.292	6.992	0.310	-3.459	4.748	5.574	-7.775	-1.995	-4.121	-5.676	-1.285	3.968	6.839	1.244	2.035	6.079	3.431	3.245	5.859	-0.105	316.406
-4.201	-3.729	-7.409	0.368	2.781	0.620	8.521	3.023	5.178	6.689	0.084	-3.822	4.514	5.573	-7.682	-1.503	-3.974	-5.492	-1.063	4.423	7.137	1.462	2.169	5.952	3.325	3.036	5.528	-0.420	320.312
-3.952	-3.429	-7.342	0.517	2.919	0.723	8.318	3.087	5.056	6.396	-0.183	-4.212	4.257	5.532	-7.574	-1.065	-3.890	-5.302	-0.888	4.799	7.347	1.637	2.263	5.838	3.283	2.872	5.224	-0.736	324.219
-3.703	-3.097	-7.211	0.682	3.065	0.873	8.141	3.201	4.922	6.121	-0.485	-4.617	3.980	5.445	-7.451	-0.679	-3.841	-5.112	-0.752	5.092	7.462	1.756	2.310	5.719	3.274	2.729	4.935	-1.057	328.125
-3.440	-2.731	-7.013	0.867	3.220	1.076	7.998	3.356	4.785	5.883	-0.797	-5.007	3.694	5.309	-7.320	-0.345	-3.795	-4.929	-0.645	5.299	7.485	1.808	2.308	5.578	3.261	2.582	4.648	-1.381	332.031
-3.153	-2.338	-6.759	1.064	3.378	1.323	7.895	3.537	4.662	5.700	-1.083	-5.341	3.412	5.124	-7.193	-0.059	-3.726	-4.757	-0.561	5.422	7.421	1.780	2.263	5.403	3.209	2.411	4.360	-1.696	335.938
-2.838	-1.932	-6.473	1.261	3.527	1.596	7.832	3.726	4.569	5.591	-1.299	-5.574	3.152	4.895	-7.081	0.181	-3.619	-4.594	-0.497	5.466	7.281	1.668	2.186	5.187	3.090	2.204	4.073	-1.984	339.844
-2.500	-1.532	-6.182	1.442	3.655	1.867	7.806	3.905	4.514	5.566	-1.414	-5.670	2.930	4.631	-6.991	0.376	-3.469	-4.428	-0.452	5.439	7.080	1.473	2.095	4.934	2.893	1.962	3.800	-2.225	343.750
-2.155	-1.163	-5.919	1.590	3.746	2.104	7.805	4.054	4.492	5.619	-1.414	-5.613	2.757	4.346	-6.919	0.527	-3.285	-4.238	-0.428	5.354	6.838	1.211	2.014	4.654	2.626	1.698	3.554	-2.399	347.656
-1.826	-0.845	-5.707	1.695	3.791	2.277	7.809	4.157	4.488	5.724	-1.312	-5.415	2.634	4.056	-6.854	0.634	-3.079	-3.998	-0.426	5.228	6.577	0.912	1.969	4.363	2.313	1.434	3.350	-2.495	351.562
-1.542	-0.595	-5.562	1.755	3.787	2.370	7.789	4.205	4.477	5.837	-1.145	-5.119	2.546	3.775	-6.779	0.702	-2.868	-3.685	-0.438	5.082	6.322	0.615	1.982	4.077	1.994	1.199	3.192	-2.510	355.469
-1.325	-0.418	-5.480	1.779	3.738	2.382	7.711	4.197	4.434	5.900	-0.972	-4.802	2.460	3.515	-6.679	0.742	-2.660	-3.284	-0.453	4.943	6.097	0.367	2.070	3.813	1.719	1.022	3.076	-2.460	359.375
-1.187	-0.308	-5.444	1.786	3.659	2.327	7.540	4.141	4.336	5.848	-0.864	-4.562	2.337	3.282	-6.542	0.771	-2.453	-2.804	-0.451	4.840	5.924	0.211	2.237	3.580	1.534	0.928	2.987	-2.376	363.281
-1.128	-0.246	-5.419	1.801	3.569	2.237	7.252	4.053	4.174	5.624	-0.895	-4.501	2.131	3.079	-6.366	0.809	-2.236	-2.274	-0.408	4.799	5.820	0.184	2.476	3.382	1.478	0.928	2.899	-2.299	367.188
-1.136	-0.203	-5.369	1.848	3.492	2.147	6.835	3.952	3.949	5.197	-1.121	-4.701	1.808	2.903	-6.157	0.879	-1.996	-1.746	-0.305	4.840	5.794	0.299	2.769	3.219	1.570	1.022	2.786	-2.274	371.094
-1.190	-0.153	-5.259	1.944	3.447	2.092	6.302	3.862	3.679	4.569	-1.565	-5.203	1.355	2.750	-5.929	0.993	-1.723	-1.284	-0.131	4.968	5.843	0.549	3.092	3.085	1.806	1.196	2.628	-2.334	375.000
-1.273	-0.077	-5.069	2.094	3.443	2.094	5.696	3.800	3.397	3.791	-2.199	-5.979	0.792	2.617	-5.700	1.150	-1.426	-0.950	0.104	5.171	5.952	0.900	3.407	2.975	2.157	1.423	2.419	-2.494	378.906
-1.369	0.027	-4.804	2.282	3.479	2.158	5.082	3.777	3.145	2.960	-2.942	-6.931	0.172	2.505	-5.492	1.330	-1.132	-0.791	0.371	5.416	6.092	1.296	3.673	2.884	2.568	1.668	2.170	-2.740	382.812
-1.477	0.142	-4.491	2.479	3.538	2.269	4.544	3.795	2.968	2.204	-3.669	-7.901	-0.422	2.418	-5.328	1.496	-0.883	-0.824	0.625	5.655	6.230	1.672	3.848	2.812	2.968	1.891	1.908	-3.034	386.719
-1.598	0.241	-4.176	2.645	3.600	2.396	4.169	3.844	2.902	1.659	-4.233	-8.697	-0.896	2.363	-5.227	1.602	-0.727	-1.034	0.813	5.836	6.333	1.966	3.894	2.757	3.280	2.053	1.666	-3.318	390.625
-1.741	0.293	-3.910	2.742	3.638	2.502	4.023	3.903	2.968	1.434	-4.501	-9.142	-1.162	2.353	-5.199	1.606	-0.703	-1.378	0.889	5.914	6.375	2.133	3.790	2.720	3.433	2.117	1.475	-3.531	394.531
-1.911	0.272	-3.736	2.743	3.636	2.552	4.143	3.946	3.157	1.591	-4.388	-9.112	-1.157	2.401	-5.244	1.482	-0.822	-1.784	0.826	5.864	6.351	2.161	3.541	2.695	3.376	2.052	1.347	-3.631	398.438
-2.109	0.168	-3.676	2.640	3.589	2.525	4.519	3.945	3.434	2.116	-3.883	-8.574	-0.865	2.517	-5.346	1.230	-1.067	-2.174	0.626	5.690	6.274	2.068	3.181	2.673	3.086	1.839	1.271	-3.604	402.344
-2.331	-0.009	-3.723	2.451	3.510	2.421	5.099	3.877	3.741	2.927	-3.056	-7.594	-0.315	2.707	-5.476	0.879	-1.389	-2.471	0.321	5.426	6.176	1.902	2.770	2.639	2.575	1.469	1.209	-3.474	406.250
-2.569	-0.237	-3.845	2.215	3.427	2.263	5.796	3.734	4.008	3.881	-2.047	-6.331	0.421	2.974	-5.600	0.480	-1.722	-2.611	-0.031	5.131	6.104	1.728	2.380	2.577	1.885	0.946	1.104	-3.300	410.156
-2.810	-0.478	-3.991	1.986	3.380	2.090	6.503	3.520	4.165	4.808	-1.037	-5.002	1.238	3.312	-5.681	0.104	-1.998	-2.561	-0.358	4.880	6.110	1.614	2.085	2.471	1.086	0.286	0.891	-3.165	414.062
-3.043	-0.694	-4.103	1.826	3.410	1.953	7.116	3.255	4.157	5.536	-0.220	-3.839	2.025	3.708	-5.691	-0.182	-2.159	-2.313	-0.589	4.747	6.241	1.617	1.939	2.307	0.262	-0.481	0.513	-3.156	417.969
-3.256	-0.849	-4.129	1.790	3.554	1.898	7.545	2.968	3.953	5.925	0.245	-3.049	2.673	4.146	-5.614	-0.318	-2.170	-1.889	-0.664	4.791	6.525	1.773	1.973	2.080	-0.497	-1.316	-0.067	-3.347	421.875
-3.435	-0.914	-4.032	1.915	3.828	1.958	7.734	2.693	3.551	5.893	0.250	-2.774	3.103	4.602	-5.448	-0.264	-2.021	-1.335	-0.546	5.046	6.972	2.089	2.189	1.794	-1.118	-2.175	-0.854	-3.781	425.781
-3.569	-0.874	-3.797	2.217	4.229	2.147	7.659	2.459	2.974	5.420	-0.235	-3.070	3.264	5.048	-5.206	-0.012	-1.723	-0.712	-0.227	5.512	7.564	2.549	2.565	1.460	-1.546	-3.011	-1.824	-4.467	429.688
-3.646	-0.726	-3.432	2.685	4.735	2.457	7.339	2.286	2.272	4.557	-1.164	-3.905	3.152	5.455	-4.909	0.421	-1.304	-0.087	0.273	6.154	8.259	3.115	3.062	1.097	-1.762	-3.782	-2.921	-5.371	433.594
-3.664	-0.479	-2.964	3.280	5.303	2.861	6.821	2.188	1.508	3.411	-2.425	-5.165	2.797	5.800	-4.585	0.989	-0.806	0.476	0.905	6.909	8.997	3.732	3.630	0.724	-1.775	-4.453	-4.068	-6.427	437.500
-3.627	-0.159	-2.435	3.948	5.883	3.319	6.178	2.163	0.755	2.123	-3.857	-6.680	2.264	6.063	-4.262	1.625	-0.276	0.922	1.605	7.693	9.710	4.341	4.217	0.365	-1.626	-5.003	-5.179	-7.545	441.406
-3.548	0.202	-1.894	4.620	6.423	3.787	5.491	2.206	0.078	0.848	-5.280	-8.249	1.643	6.235	-3.967	2.250	0.232	1.221	2.298	8.417	10.330	4.886	4.772	0.040	-1.371	-5.420	-6.171	-8.623	445.312
-3.449	0.560	-1.393	5.230	6.877	4.220	4.837	2.304	-0.467	-0.275	-6.525	-9.676	1.025	6.317	-3.725	2.784	0.665	1.362	2.908	8.999	10.801	5.320	5.253	-0.234	-1.072	-5.700	-6.968	-9.560	449.219
-3.354	0.872	-0.977	5.721	7.213	4.583	4.276	2.441	-0.847	-1.141	-7.459	-10.794	0.498	6.320	-3.559	3.157	0.976	1.363	3.372	9.377	11.087	5.614	5.631	-0.447	-0.782	-5.847	-7.516	-10.269	453.125
-3.280	1.099	-0.677	6.054	7.415	4.856	3.844	2.600	-1.049	-1.697	-8.000	-11.494	0.125	6.260	-3.484	3.322	1.129	1.256	3.644	9.519	11.174	5.758	5.889	-0.592	-0.538	-5.864	-7.788	-10.687	457.031
-3.238	1.211	-0.507	6.213	7.485	5.029	3.549	2.762	-1.087	-1.941	-8.135	-11.734	-0.060	6.159	-3.508	3.259	1.103	1.084	3.706	9.424	11.074	5.760	6.031	-0.671	-0.353	-5.760	-7.785	-10.788	460.938
-3.225	1.198	-0.462	6.207	7.438	5.109	3.371	2.910	-0.988	-1.919	-7.907	-11.536	-0.056	6.039	-3.630	2.979	0.903	0.891	3.568	9.123	10.817	5.647	6.073	-0.694	-0.222	-5.549	-7.539	-10.581	464.844
-3.231	1.067	-0.517	6.061	7.303	5.111	3.275	3.029	-0.794	-1.711	-7.402	-10.981	0.106	5.918	-3.832	2.524	0.557	0.712	3.263	8.669	10.448	5.453	6.039	-0.675	-0.127	-5.250	-7.108	-10.113	468.750
-3.243	0.840	-0.639	5.817	7.111	5.058	3.217	3.108	-0.548	-1.405	-6.730	-10.182	0.377	5.808	-4.087	1.951	0.109	0.568	2.845	8.127	10.018	5.217	5.956	-0.636	-0.048	-4.893	-6.567	-9.458	472.656
-3.255	0.546	-0.790	5.517	6.895	4.974	3.158	3.137	-0.289	-1.086	-5.999	-9.264	0.698	5.718	-4.361	1.325	-0.382	0.467	2.373	7.560	9.576	4.976	5.844	-0.593	0.032	-4.511	-5.997	-8.700	476.562
-3.266	0.215	-0.940	5.198	6.680	4.879	3.074	3.115	-0.044	-0.812	-5.296	-8.338	1.013	5.648	-4.618	0.707	-0.860	0.397	1.903	7.020	9.159	4.761	5.721	-0.562	0.122	-4.138	-5.466	-7.924	480.469
-3.285	-0.129	-1.068	4.888	6.485	4.788	2.960	3.047	0.170	-0.612	-4.677	-7.489	1.281	5.596	-4.831	0.141	-1.281	0.341	1.480	6.542	8.796	4.591	5.595	-0.547	0.223	-3.802	-5.025	-7.194	484.375
-3.327	-0.470	-1.170	4.598	6.317	4.706	2.831	2.943	0.348	-0.483	-4.166	-6.764	1.478	5.556	-4.983	-0.348	-1.620	0.274	1.131	6.140	8.498	4.478	5.473	-0.546	0.328	-3.520	-4.694	-6.553	488.281
-3.406	-0.801	-1.254	4.327	6.172	4.629	2.717	2.816	0.491	-0.399	-3.757	-6.174	1.603	5.522	-5.071	-0.756	-1.876	0.180	0.863	5.811	8.266	4.423	5.359	-0.543	0.428	-3.297	-4.466	-6.015	492.188
-3.537	-1.121	-1.335	4.065	6.041	4.549	2.651	2.685	0.608	-0.318	-3.430	-5.702	1.668	5.490	-5.105	-1.093	-2.068	0.051	0.667	5.539	8.087	4.422	5.260	-0.521	0.511	-3.125	-4.314	-5.571	496.094
-3.724	-1.431	-1.431	3.799	5.910	4.455	2.666	2.568	0.707	-0.200	-3.155	-5.313	1.698	5.452	-5.104	-1.380	-2.225	-0.106	0.522	5.300	7.942	4.461	5.182	-0.461	0.568	-2.988	-4.195	-5.196	500.000
-3.964	-1.735	-1.555	3.516	5.767	4.336	2.777	2.477	0.797	-0.017	-2.904	-4.968	1.715	5.404	-5.091	-1.637	-2.382	-0.274	0.403	5.071	7.809	4.521	5.137	-0.349	0.594	-2.865	-4.068	-4.862	503.906
-4.241	-2.032	-1.714	3.211	5.600	4.187	2.979	2.421	0.883	0.240	-2.659	-4.634	1.737	5.336	-5.086	-1.884	-2.564	-0.428	0.289	4.830	7.663	4.584	5.133	-0.181	0.593	-2.734	-3.899	-4.540	507.812
-4.528	-2.321	-1.903	2.885	5.404	4.008	3.245	2.400	0.966	0.556	-2.414	-4.294	1.770	5.236	-5.104	-2.132	-2.782	-0.543	0.165	4.565	7.482	4.628	5.178	0.038	0.575	-2.576	-3.670	-4.211	511.719
-4.794	-2.593	-2.107	2.550	5.174	3.802	3.529	2.405	1.042	0.895	-2.174	-3.945	1.803	5.093	-5.144	-2.381	-3.029	-0.598	0.031	4.272	7.250	4.638	5.275	0.288	0.563	-2.380	-3.380	-3.867	515.625
-5.006	-2.837	-2.301	2.220	4.912	3.573	3.771	2.421	1.103	1.203	-1.953	-3.604	1.816	4.894	-5.196	-2.625	-3.280	-0.581	-0.105	3.955	6.957	4.603	5.422	0.543	0.579	-2.141	-3.045	-3.512	519.531
-5.137	-3.037	-2.459	1.914	4.622	3.330	3.911	2.430	1.134	1.425	-1.770	-3.295	1.778	4.628	-5.236	-2.849	-3.498	-0.484	-0.226	3.627	6.603	4.521	5.606	0.773	0.648	-1.865	-2.693	-3.161	523.438
-5.169	-3.176	-2.553	1.647	4.309	3.081	3.903	2.415	1.125	1.512	-1.645	-3.044	1.659	4.292	-5.240	-3.036	-3.643	-0.308	-0.313	3.302	6.200	4.395	5.808	0.945	0.783	-1.565	-2.359	-2.832	527.344
-5.098	-3.243	-2.565	1.431	3.980	2.832	3.722	2.367	1.067	1.437	-1.589	-2.874	1.440	3.890	-5.185	-3.174	-3.685	-0.059	-0.351	2.999	5.767	4.235	6.000	1.036	0.987	-1.260	-2.076	-2.546	531.250
-4.934	-3.236	-2.490	1.269	3.648	2.593	3.376	2.286	0.961	1.198	-1.604	-2.792	1.115	3.438	-5.061	-3.255	-3.611	0.252	-0.336	2.732	5.328	4.052	6.154	1.031	1.247	-0.971	-1.871	-2.319	535.156
-4.697	-3.164	-2.334	1.159	3.325	2.373	2.904	2.182	0.819	0.828	-1.676	-2.793	0.703	2.959	-4.868	-3.278	-3.432	0.608	-0.272	2.512	4.909	3.856	6.241	0.927	1.538	-0.719	-1.762	-2.162	539.062
-4.419	-3.047	-2.119	1.092	3.026	2.180	2.371	2.073	0.665	0.383	-1.778	-2.856	0.239	2.483	-4.617	-3.253	-3.179	0.986	-0.179	2.342	4.533	3.658	6.241	0.734	1.829	-0.522	-1.754	-2.079	542.969
-4.132	-2.914	-1.876	1.057	2.764	2.022	1.852	1.983	0.528	-0.063	-1.877	-2.956	-0.227	2.044	-4.329	-3.195	-2.897	1.358	-0.077	2.222	4.214	3.463	6.145	0.471	2.090	-0.396	-1.842	-2.068	546.875
-3.869	-2.790	-1.639	1.044	2.548	1.903	1.423	1.930	0.434	-0.440	-1.942	-3.063	-0.639	1.673	-4.025	-3.118	-2.633	1.691	0.012	2.146	3.962	3.280	5.966	0.164	2.296	-0.348	-2.009	-2.124	550.781
-3.651	-2.697	-1.441	1.043	2.382	1.824	1.136	1.922	0.402	-0.690	-1.951	-3.154	-0.948	1.392	-3.721	-3.035	-2.421	1.956	0.075	2.106	3.776	3.117	5.735	-0.156	2.433	-0.380	-2.232	-2.238	554.688
-3.487	-2.643	-1.308	1.049	2.261	1.775	1.016	1.953	0.435	-0.787	-1.899	-3.215	-1.120	1.213	-3.431	-2.951	-2.278	2.129	0.112	2.096	3.653	2.980	5.498	-0.460	2.498	-0.485	-2.486	-2.398	558.594
-3.371	-2.623	-1.250	1.062	2.175	1.743	1.048	2.003	0.517	-0.739	-1.801	-3.246	-1.145	1.135	-3.160	-2.862	-2.195	2.201	0.131	2.110	3.582	2.878	5.310	-0.721	2.500	-0.648	-2.743	-2.590	562.500
-3.283	-2.616	-1.266	1.083	2.111	1.710	1.187	2.045	0.617	-0.585	-1.687	-3.251	-1.035	1.141	-2.909	-2.761	-2.147	2.178	0.151	2.146	3.552	2.816	5.221	-0.923	2.454	-0.846	-2.980	-2.798	566.406
-3.195	-2.597	-1.341	1.119	2.056	1.658	1.363	2.048	0.695	-0.390	-1.596	-3.246	-0.828	1.208	-2.676	-2.633	-2.097	2.081	0.188	2.205	3.553	2.797	5.266	-1.060	2.381	-1.055	-3.182	-3.003	570.312
-3.081	-2.534	-1.448	1.177	1.999	1.577	1.499	1.991	0.713	-0.227	-1.568	-3.244	-0.573	1.305	-2.455	-2.468	-2.014	1.945	0.254	2.287	3.573	2.817	5.457	-1.138	2.300	-1.251	-3.344	-3.187	574.219
-2.920	-2.404	-1.552	1.264	1.937	1.464	1.528	1.865	0.642	-0.162	-1.630	-3.256	-0.327	1.400	-2.240	-2.260	-1.874	1.813	0.350	2.390	3.603	2.869	5.775	-1.174	2.226	-1.415	-3.470	-3.338	578.125
-2.706	-2.195	-1.620	1.387	1.873	1.333	1.406	1.674	0.472	-0.243	-1.795	-3.286	-0.139	1.468	-2.029	-2.008	-1.674	1.724	0.464	2.511	3.635	2.944	6.181	-1.193	2.165	-1.536	-3.573	-3.446	582.031
-2.445	-1.910	-1.622	1.549	1.814	1.204	1.122	1.440	0.212	-0.484	-2.054	-3.333	-0.046	1.492	-1.822	-1.723	-1.427	1.707	0.579	2.645	3.663	3.032	6.616	-1.217	2.114	-1.614	-3.669	-3.511	585.938
-2.153	-1.565	-1.542	1.744	1.770	1.106	0.698	1.191	-0.112	-0.870	-2.381	-3.390	-0.062	1.466	-1.624	-1.418	-1.159	1.779	0.672	2.782	3.679	3.122	7.017	-1.267	2.066	-1.655	-3.772	-3.540	589.844
-1.851	-1.189	-1.377	1.965	1.750	1.064	0.181	0.958	-0.464	-1.357	-2.736	-3.444	-0.181	1.393	-1.445	-1.113	-0.901	1.936	0.723	2.912	3.678	3.207	7.327	-1.351	2.010	-1.672	-3.889	-3.542	593.750
-1.561	-0.818	-1.142	2.192	1.760	1.096	-0.363	0.766	-0.802	-1.880	-3.077	-3.485	-0.379	1.283	-1.293	-0.828	-0.683	2.159	0.719	3.024	3.655	3.280	7.505	-1.468	1.941	-1.677	-4.019	-3.529	597.656
-1.298	-0.489	-0.866	2.403	1.798	1.202	-0.867	0.633	-1.091	-2.372	-3.361	-3.499	-0.622	1.151	-1.172	-0.580	-0.526	2.418	0.652	3.106	3.601	3.332	7.532	-1.604	1.860	-1.680	-4.150	-3.509	601.562
-1.074	-0.235	-0.584	2.573	1.857	1.370	-1.271	0.564	-1.305	-2.771	-3.554	-3.478	-0.869	1.008	-1.081	-0.386	-0.438	2.678	0.526	3.146	3.509	3.359	7.413	-1.738	1.774	-1.685	-4.263	-3.483	605.469
-0.892	-0.078	-0.333	2.678	1.922	1.575	-1.535	0.555	-1.430	-3.030	-3.638	-3.415	-1.088	0.862	-1.014	-0.255	-0.419	2.908	0.350	3.134	3.371	3.355	7.171	-1.850	1.699	-1.692	-4.336	-3.449	609.375
-0.751	-0.030	-0.140	2.703	1.976	1.782	-1.642	0.594	-1.464	-3.129	-3.608	-3.310	-1.253	0.717	-0.956	-0.191	-0.456	3.087	0.138	3.061	3.183	3.314	6.841	-1.923	1.651	-1.698	-4.353	-3.402	613.281
-0.644	-0.087	-0.021	2.640	2.005	1.960	-1.599	0.665	-1.417	-3.070	-3.475	-3.166	-1.354	0.570	-0.897	-0.193	-0.531	3.205	-0.091	2.923	2.941	3.237	6.464	-1.948	1.647	-1.700	-4.304	-3.334	617.188
-0.563	-0.231	0.022	2.495	1.995	2.081	-1.432	0.750	-1.306	-2.880	-3.261	-2.992	-1.390	0.420	-0.825	-0.251	-0.622	3.271	-0.320	2.722	2.650	3.127	6.082	-1.926	1.696	-1.696	-4.195	-3.243	621.094
-0.500	-0.430	0.000	2.284	1.941	2.130	-1.183	0.832	-1.157	-2.599	-2.998	-2.799	-1.375	0.260	-0.734	-0.351	-0.709	3.305	-0.533	2.464	2.318	2.994	5.730	-1.869	1.799	-1.684	-4.037	-3.129	625.000
-0.447	-0.646	-0.065	2.031	1.842	2.106	-0.898	0.894	-0.998	-2.278	-2.719	-2.602	-1.326	0.092	-0.625	-0.475	-0.772	3.336	-0.714	2.166	1.962	2.849	5.437	-1.794	1.946	-1.666	-3.852	-2.999	628.906
-0.396	-0.837	-0.149	1.764	1.706	2.016	-0.623	0.924	-0.854	-1.965	-2.457	-2.417	-1.260	-0.084	-0.504	-0.602	-0.796	3.392	-0.849	1.847	1.604	2.709	5.219	-1.718	2.118	-1.646	-3.667	-2.860	632.812
-0.343	-0.970	-0.225	1.512	1.547	1.881	-0.396	0.912	-0.749	-1.702	-2.240	-2.259	-1.195	-0.260	-0.378	-0.711	-0.771	3.492	-0.929	1.534	1.271	2.589	5.081	-1.660	2.286	-1.626	-3.505	-2.728	636.719
-0.280	-1.022	-0.273	1.301	1.386	1.726	-0.241	0.852	-0.697	-1.518	-2.086	-2.141	-1.141	-0.426	-0.256	-0.782	-0.692	3.638	-0.944	1.254	0.989	2.500	5.014	-1.632	2.420	-1.613	-3.388	-2.616	640.625
-0.199	-0.981	-0.273	1.152	1.242	1.576	-0.170	0.745	-0.704	-1.429	-2.004	-2.070	-1.101	-0.570	-0.146	-0.802	-0.561	3.814	-0.892	1.036	0.783	2.452	4.996	-1.642	2.492	-1.611	-3.330	-2.536	644.531
-0.093	-0.852	-0.216	1.077	1.136	1.458	-0.182	0.597	-0.768	-1.435	-1.993	-2.048	-1.075	-0.681	-0.051	-0.763	-0.387	3.991	-0.778	0.899	0.666	2.446	5.000	-1.691	2.484	-1.626	-3.340	-2.497	648.438
0.043	-0.644	-0.098	1.082	1.084	1.391	-0.267	0.420	-0.875	-1.526	-2.042	-2.070	-1.059	-0.755	0.028	-0.665	-0.189	4.132	-0.615	0.854	0.642	2.481	4.993	-1.776	2.388	-1.661	-3.417	-2.501	652.344
0.206	-0.377	0.078	1.165	1.092	1.386	-0.409	0.233	-1.007	-1.681	-2.134	-2.124	-1.047	-0.788	0.095	-0.519	0.012	4.203	-0.427	0.898	0.701	2.545	4.951	-1.890	2.211	-1.714	-3.555	-2.546	656.250
0.386	-0.072	0.301	1.317	1.161	1.444	-0.594	0.056	-1.144	-1.881	-2.253	-2.198	-1.037	-0.786	0.157	-0.341	0.189	4.188	-0.238	1.020	0.823	2.629	4.858	-2.024	1.973	-1.786	-3.745	-2.622	660.156
0.566	0.248	0.558	1.523	1.281	1.557	-0.804	-0.092	-1.269	-2.103	-2.384	-2.280	-1.028	-0.756	0.224	-0.149	0.322	4.092	-0.074	1.197	0.985	2.719	4.716	-2.169	1.702	-1.873	-3.973	-2.719	664.062
0.729	0.560	0.829	1.765	1.438	1.708	-1.029	-0.198	-1.373	-2.332	-2.522	-2.365	-1.023	-0.707	0.307	0.040	0.398	3.943	0.049	1.406	1.160	2.808	4.542	-2.317	1.430	-1.972	-4.226	-2.827	667.969
0.858	0.843	1.096	2.024	1.617	1.876	-1.256	-0.258	-1.456	-2.555	-2.668	-2.454	-1.026	-0.647	0.416	0.213	0.423	3.778	0.127	1.625	1.327	2.892	4.363	-2.464	1.184	-2.082	-4.488	-2.940	671.875
0.946	1.081	1.339	2.283	1.801	2.038	-1.476	-0.277	-1.524	-2.765	-2.828	-2.554	-1.038	-0.581	0.554	0.366	0.413	3.636	0.170	1.838	1.473	2.968	4.210	-2.604	0.986	-2.201	-4.748	-3.057	675.781
0.995	1.265	1.545	2.528	1.979	2.177	-1.680	-0.265	-1.587	-2.957	-3.009	-2.676	-1.061	-0.512	0.721	0.503	0.399	3.545	0.196	2.035	1.591	3.040	4.110	-2.734	0.846	-2.330	-4.991	-3.179	679.688
1.014	1.396	1.705	2.747	2.140	2.280	-1.857	-0.241	-1.658	-3.125	-3.214	-2.832	-1.091	-0.441	0.906	0.632	0.413	3.513	0.231	2.215	1.684	3.111	4.077	-2.850	0.764	-2.468	-5.206	-3.310	683.594
1.018	1.483	1.816	2.933	2.279	2.341	-1.997	-0.218	-1.745	-3.265	-3.442	-3.029	-1.122	-0.364	1.094	0.763	0.480	3.527	0.299	2.380	1.757	3.183	4.109	-2.941	0.735	-2.613	-5.380	-3.454	687.500
1.024	1.539	1.882	3.081	2.393	2.364	-2.091	-0.210	-1.855	-3.370	-3.683	-3.265	-1.145	-0.281	1.265	0.902	0.612	3.563	0.417	2.531	1.815	3.255	4.189	-2.998	0.746	-2.754	-5.501	-3.605	691.406
1.047	1.579	1.909	3.183	2.477	2.352	-2.135	-0.226	-1.988	-3.439	-3.926	-3.530	-1.151	-0.193	1.399	1.050	0.800	3.589	0.593	2.670	1.861	3.325	4.293	-3.006	0.785	-2.877	-5.556	-3.754	695.312
1.099	1.613	1.905	3.236	2.526	2.314	-2.131	-0.268	-2.143	-3.471	-4.153	-3.799	-1.135	-0.105	1.480	1.201	1.021	3.582	0.818	2.793	1.893	3.388	4.397	-2.952	0.844	-2.964	-5.536	-3.881	699.219
1.183	1.641	1.878	3.233	2.533	2.253	-2.089	-0.335	-2.313	-3.470	-4.349	-4.046	-1.096	-0.025	1.496	1.341	1.239	3.532	1.074	2.892	1.906	3.436	4.485	-2.828	0.918	-2.994	-5.432	-3.964	703.125
1.296	1.658	1.834	3.168	2.489	2.170	-2.023	-0.422	-2.491	-3.448	-4.499	-4.237	-1.041	0.034	1.450	1.453	1.419	3.446	1.329	2.958	1.887	3.464	4.553	-2.633	1.012	-2.952	-5.244	-3.980	707.031
1.427	1.655	1.778	3.041	2.389	2.065	-1.953	-0.524	-2.670	-3.416	-4.597	-4.348	-0.982	0.057	1.353	1.522	1.532	3.348	1.551	2.979	1.828	3.467	4.605	-2.377	1.131	-2.830	-4.981	-3.913	710.938
1.560	1.622	1.711	2.857	2.228	1.935	-1.900	-0.634	-2.843	-3.388	-4.640	-4.363	-0.935	0.032	1.230	1.539	1.565	3.269	1.709	2.947	1.720	3.444	4.651	-2.079	1.282	-2.634	-4.659	-3.760	714.844
1.677	1.555	1.635	2.628	2.011	1.779	-1.875	-0.746	-2.999	-3.373	-4.630	-4.279	-0.917	-0.050	1.108	1.503	1.524	3.243	1.783	2.862	1.562	3.399	4.698	-1.769	1.464	-2.381	-4.310	-3.530	718.750
1.761	1.454	1.549	2.375	1.751	1.598	-1.885	-0.853	-3.127	-3.374	-4.572	-4.110	-0.938	-0.189	1.012	1.423	1.428	3.295	1.769	2.730	1.362	3.338	4.750	-1.480	1.669	-2.101	-3.968	-3.249	722.656
1.804	1.333	1.454	2.123	1.466	1.399	-1.925	-0.951	-3.214	-3.388	-4.476	-3.883	-1.004	-0.377	0.961	1.318	1.313	3.436	1.677	2.567	1.139	3.270	4.803	-1.245	1.878	-1.831	-3.674	-2.951	726.562
1.807	1.211	1.351	1.901	1.185	1.194	-1.984	-1.036	-3.251	-3.407	-4.351	-3.635	-1.109	-0.593	0.964	1.213	1.213	3.657	1.533	2.394	0.918	3.205	4.853	-1.089	2.063	-1.608	-3.464	-2.680	730.469
1.780	1.114	1.249	1.735	0.933	0.996	-2.045	-1.113	-3.234	-3.422	-4.212	-3.404	-1.240	-0.812	1.019	1.136	1.167	3.932	1.372	2.239	0.727	3.153	4.893	-1.026	2.196	-1.466	-3.368	-2.475	734.375
1.743	1.066	1.158	1.644	0.737	0.820	-2.094	-1.189	-3.168	-3.427	-4.076	-3.228	-1.379	-1.004	1.120	1.110	1.198	4.220	1.231	2.127	0.593	3.122	4.923	-1.058	2.254	-1.424	-3.400	-2.367	738.281
1.715	1.088	1.090	1.638	0.613	0.679	-2.123	-1.275	-3.072	-3.422	-3.963	-3.131	-1.505	-1.144	1.258	1.152	1.321	4.473	1.138	2.075	0.537	3.115	4.943	-1.174	2.226	-1.486	-3.560	-2.372	742.188
1.713	1.186	1.058	1.713	0.565	0.580	-2.129	-1.382	-2.967	-3.414	-3.890	-3.126	-1.599	-1.212	1.422	1.266	1.532	4.649	1.112	2.094	0.568	3.132	4.960	-1.351	2.112	-1.639	-3.832	-2.486	746.094
1.747	1.354	1.068	1.853	0.587	0.521	-2.116	-1.514	-2.879	-3.411	-3.870	-3.210	-1.648	-1.204	1.604	1.445	1.810	4.717	1.155	2.183	0.684	3.170	4.980	-1.560	1.925	-1.859	-4.185	-2.692	750.000
1.816	1.574	1.123	2.032	0.660	0.495	-2.093	-1.669	-2.827	-3.422	-3.906	-3.365	-1.647	-1.123	1.793	1.671	2.123	4.666	1.253	2.330	0.870	3.220	5.005	-1.771	1.688	-2.111	-4.580	-2.961	753.906
1.910	1.819	1.218	2.222	0.761	0.488	-2.069	-1.835	-2.821	-3.451	-3.992	-3.565	-1.598	-0.988	1.977	1.922	2.431	4.502	1.384	2.515	1.101	3.273	5.038	-1.957	1.429	-2.360	-4.972	-3.256	757.812
2.012	2.061	1.341	2.394	0.862	0.483	-2.051	-1.994	-2.858	-3.498	-4.110	-3.777	-1.512	-0.824	2.142	2.171	2.694	4.253	1.516	2.715	1.348	3.316	5.077	-2.097	1.176	-2.575	-5.318	-3.542	761.719
2.103	2.272	1.473	2.525	0.939	0.466	-2.043	-2.127	-2.925	-3.554	-4.235	-3.970	-1.406	-0.658	2.275	2.396	2.879	3.957	1.621	2.905	1.581	3.334	5.117	-2.178	0.957	-2.731	-5.581	-3.784	765.625
2.166	2.433	1.592	2.601	0.977	0.425	-2.046	-2.219	-3.003	-3.607	-4.342	-4.115	-1.295	-0.519	2.359	2.577	2.964	3.659	1.674	3.064	1.773	3.316	5.160	-2.196	0.801	-2.811	-5.733	-3.953	769.531
2.195	2.534	1.674	2.618	0.965	0.358	-2.056	-2.266	-3.074	-3.642	-4.410	-4.192	-1.194	-0.425	2.378	2.702	2.943	3.403	1.662	3.176	1.905	3.250	5.209	-2.151	0.730	-2.804	-5.752	-4.027	773.438
2.194	2.577	1.698	2.580	0.905	0.266	-2.069	-2.274	-3.128	-3.649	-4.429	-4.194	-1.115	-0.391	2.318	2.766	2.824	3.227	1.584	3.235	1.969	3.129	5.274	-2.051	0.761	-2.708	-5.631	-3.996	777.344
2.175	2.571	1.649	2.498	0.802	0.155	-2.082	-2.258	-3.162	-3.622	-4.400	-4.122	-1.064	-0.418	2.164	2.773	2.628	3.155	1.449	3.243	1.964	2.953	5.371	-1.903	0.904	-2.527	-5.371	-3.858	781.250
2.154	2.531	1.524	2.384	0.667	0.035	-2.093	-2.234	-3.181	-3.562	-4.333	-3.988	-1.040	-0.501	1.915	2.733	2.384	3.199	1.273	3.210	1.902	2.724	5.514	-1.719	1.154	-2.271	-4.987	-3.623	785.156
2.145	2.471	1.329	2.252	0.511	-0.088	-2.099	-2.216	-3.190	-3.472	-4.240	-3.810	-1.040	-0.626	1.578	2.660	2.118	3.347	1.074	3.147	1.797	2.454	5.708	-1.510	1.495	-1.958	-4.504	-3.311	789.062
2.155	2.405	1.082	2.113	0.346	-0.207	-2.101	-2.214	-3.195	-3.362	-4.134	-3.608	-1.055	-0.779	1.176	2.571	1.851	3.574	0.867	3.070	1.668	2.153	5.947	-1.286	1.899	-1.607	-3.957	-2.951	792.969
2.180	2.342	0.809	1.977	0.182	-0.323	-2.100	-2.225	-3.199	-3.241	-4.026	-3.400	-1.078	-0.941	0.741	2.478	1.596	3.840	0.662	2.991	1.533	1.840	6.213	-1.061	2.330	-1.245	-3.386	-2.572	796.875
