FP1	F3	F7	FC3	C3	C5	P3	P7	PO7	PO3	O1	Oz	Pz	CPz	FP2	Fz	F4	F8	FC4	FCz	Cz	C4	C6	P4	P8	PO8	PO4	O2	time
0.277	-0.135	-0.744	-0.472	-0.791	-1.702	-0.150	-0.998	0.004	-0.416	-1.049	0.092	-0.537	0.574	1.157	0.364	0.642	1.278	1.388	0.726	0.860	1.464	1.689	0.409	0.206	-0.310	0.041	-0.943	-199.219
0.379	0.002	-0.626	-0.267	-0.644	-1.519	-0.386	-0.998	-0.138	-0.547	-1.061	-0.164	-0.642	0.413	1.151	0.410	0.498	1.197	1.107	0.631	0.772	1.164	1.483	0.290	0.301	-0.288	-0.071	-1.006	-195.312
0.457	0.093	-0.534	-0.100	-0.500	-1.328	-0.578	-0.978	-0.264	-0.651	-1.062	-0.407	-0.699	0.298	1.124	0.428	0.347	1.102	0.852	0.541	0.710	0.902	1.297	0.205	0.386	-0.270	-0.156	-1.073	-191.406
0.486	0.105	-0.485	-0.000	-0.371	-1.127	-0.694	-0.923	-0.357	-0.710	-1.038	-0.620	-0.675	0.261	1.056	0.398	0.184	0.984	0.641	0.458	0.690	0.707	1.145	0.180	0.456	-0.249	-0.189	-1.142	-187.500
0.454	0.026	-0.487	0.018	-0.267	-0.923	-0.717	-0.831	-0.403	-0.714	-0.981	-0.784	-0.553	0.315	0.939	0.313	0.012	0.837	0.486	0.384	0.717	0.594	1.033	0.228	0.508	-0.224	-0.155	-1.209	-183.594
0.362	-0.132	-0.532	-0.043	-0.198	-0.726	-0.649	-0.708	-0.398	-0.663	-0.889	-0.886	-0.338	0.452	0.773	0.179	-0.165	0.666	0.389	0.317	0.779	0.562	0.956	0.346	0.537	-0.192	-0.053	-1.268	-179.688
0.220	-0.336	-0.601	-0.162	-0.170	-0.549	-0.509	-0.572	-0.347	-0.570	-0.766	-0.915	-0.054	0.645	0.572	0.015	-0.332	0.479	0.341	0.254	0.856	0.593	0.903	0.516	0.544	-0.153	0.103	-1.314	-175.781
0.050	-0.540	-0.667	-0.307	-0.186	-0.409	-0.330	-0.443	-0.262	-0.456	-0.621	-0.870	0.259	0.851	0.358	-0.152	-0.474	0.293	0.332	0.195	0.921	0.660	0.861	0.706	0.529	-0.108	0.290	-1.339	-171.875
-0.120	-0.699	-0.708	-0.445	-0.244	-0.318	-0.152	-0.339	-0.161	-0.346	-0.466	-0.755	0.552	1.025	0.156	-0.294	-0.571	0.129	0.348	0.140	0.949	0.731	0.813	0.883	0.496	-0.059	0.480	-1.340	-167.969
-0.267	-0.778	-0.705	-0.547	-0.337	-0.279	-0.006	-0.274	-0.064	-0.263	-0.312	-0.585	0.782	1.130	-0.010	-0.390	-0.610	0.005	0.375	0.090	0.922	0.780	0.748	1.011	0.451	-0.006	0.647	-1.310	-164.062
-0.372	-0.762	-0.654	-0.594	-0.449	-0.287	0.083	-0.250	0.014	-0.224	-0.170	-0.376	0.915	1.139	-0.123	-0.429	-0.581	-0.066	0.405	0.049	0.834	0.788	0.660	1.068	0.402	0.054	0.769	-1.248	-160.156
-0.428	-0.662	-0.563	-0.583	-0.560	-0.325	0.112	-0.258	0.065	-0.231	-0.046	-0.148	0.936	1.050	-0.179	-0.414	-0.489	-0.082	0.428	0.018	0.695	0.747	0.551	1.043	0.357	0.121	0.835	-1.151	-156.250
-0.438	-0.504	-0.450	-0.521	-0.646	-0.372	0.092	-0.283	0.089	-0.280	0.059	0.084	0.847	0.878	-0.182	-0.360	-0.347	-0.049	0.440	0.000	0.523	0.663	0.427	0.939	0.318	0.196	0.843	-1.022	-152.344
-0.414	-0.327	-0.336	-0.425	-0.681	-0.403	0.045	-0.307	0.093	-0.355	0.144	0.305	0.670	0.656	-0.146	-0.289	-0.178	0.017	0.437	-0.007	0.346	0.548	0.301	0.774	0.288	0.274	0.798	-0.865	-148.438
-0.370	-0.170	-0.243	-0.314	-0.647	-0.398	-0.001	-0.312	0.088	-0.436	0.213	0.506	0.441	0.422	-0.091	-0.225	-0.012	0.095	0.416	-0.006	0.192	0.422	0.187	0.572	0.262	0.345	0.713	-0.691	-144.531
-0.323	-0.065	-0.185	-0.207	-0.532	-0.346	-0.018	-0.286	0.084	-0.504	0.267	0.680	0.200	0.219	-0.039	-0.187	0.125	0.161	0.376	-0.003	0.081	0.304	0.096	0.364	0.237	0.398	0.603	-0.513	-140.625
-0.287	-0.029	-0.169	-0.118	-0.340	-0.245	0.008	-0.222	0.091	-0.541	0.310	0.822	-0.014	0.077	-0.009	-0.189	0.208	0.195	0.314	-0.006	0.027	0.208	0.036	0.178	0.209	0.423	0.487	-0.343	-136.719
-0.268	-0.063	-0.194	-0.053	-0.087	-0.107	0.081	-0.121	0.116	-0.540	0.345	0.927	-0.172	0.015	-0.017	-0.231	0.222	0.180	0.230	-0.019	0.028	0.141	0.007	0.038	0.178	0.418	0.384	-0.192	-132.812
-0.271	-0.150	-0.247	-0.015	0.199	0.049	0.192	0.011	0.159	-0.500	0.372	0.989	-0.255	0.032	-0.070	-0.306	0.166	0.108	0.121	-0.047	0.076	0.101	0.003	-0.042	0.147	0.388	0.307	-0.063	-128.906
-0.290	-0.262	-0.310	0.003	0.482	0.203	0.321	0.163	0.215	-0.429	0.392	1.000	-0.262	0.112	-0.167	-0.395	0.051	-0.019	-0.010	-0.086	0.150	0.079	0.012	-0.064	0.124	0.343	0.263	0.041	-125.000
-0.316	-0.363	-0.363	0.011	0.729	0.337	0.443	0.319	0.273	-0.341	0.399	0.953	-0.202	0.228	-0.295	-0.474	-0.098	-0.185	-0.157	-0.127	0.232	0.058	0.019	-0.037	0.113	0.297	0.247	0.119	-121.094
-0.335	-0.417	-0.385	0.025	0.913	0.441	0.535	0.463	0.317	-0.252	0.390	0.839	-0.093	0.348	-0.434	-0.516	-0.247	-0.369	-0.308	-0.158	0.303	0.025	0.010	0.016	0.116	0.258	0.246	0.170	-117.188
-0.332	-0.397	-0.363	0.058	1.023	0.510	0.583	0.580	0.333	-0.173	0.356	0.659	0.041	0.443	-0.555	-0.496	-0.359	-0.539	-0.445	-0.163	0.350	-0.034	-0.024	0.069	0.127	0.230	0.240	0.191	-113.281
-0.295	-0.293	-0.291	0.119	1.057	0.548	0.582	0.658	0.308	-0.108	0.295	0.417	0.182	0.495	-0.632	-0.403	-0.404	-0.666	-0.551	-0.131	0.369	-0.122	-0.087	0.096	0.134	0.205	0.205	0.175	-109.375
-0.217	-0.112	-0.178	0.210	1.027	0.560	0.538	0.689	0.242	-0.054	0.209	0.130	0.314	0.494	-0.643	-0.236	-0.363	-0.727	-0.609	-0.055	0.361	-0.236	-0.175	0.079	0.121	0.173	0.124	0.118	-105.469
-0.101	0.124	-0.037	0.323	0.949	0.554	0.467	0.673	0.142	-0.002	0.104	-0.180	0.429	0.447	-0.580	-0.011	-0.233	-0.709	-0.607	0.057	0.330	-0.362	-0.275	0.010	0.075	0.121	-0.009	0.021	-101.562
0.041	0.377	0.110	0.441	0.840	0.534	0.385	0.616	0.024	0.059	-0.008	-0.488	0.524	0.367	-0.450	0.244	-0.031	-0.616	-0.543	0.193	0.285	-0.481	-0.373	-0.104	-0.012	0.040	-0.187	-0.105	-97.656
0.190	0.608	0.244	0.544	0.714	0.506	0.306	0.528	-0.093	0.139	-0.112	-0.764	0.601	0.271	-0.274	0.489	0.211	-0.467	-0.428	0.327	0.232	-0.571	-0.452	-0.244	-0.133	-0.067	-0.388	-0.240	-93.750
0.323	0.780	0.347	0.610	0.578	0.473	0.242	0.425	-0.189	0.239	-0.193	-0.982	0.660	0.176	-0.086	0.687	0.453	-0.292	-0.280	0.434	0.174	-0.614	-0.497	-0.385	-0.273	-0.188	-0.578	-0.351	-89.844
0.420	0.865	0.413	0.621	0.437	0.439	0.193	0.321	-0.255	0.354	-0.239	-1.119	0.703	0.093	0.079	0.803	0.653	-0.125	-0.126	0.491	0.112	-0.599	-0.500	-0.496	-0.405	-0.302	-0.722	-0.406	-85.938
0.463	0.854	0.441	0.574	0.294	0.410	0.157	0.230	-0.285	0.469	-0.244	-1.160	0.724	0.026	0.191	0.820	0.778	0.001	0.009	0.484	0.047	-0.526	-0.460	-0.557	-0.503	-0.387	-0.790	-0.373	-82.031
0.447	0.755	0.437	0.475	0.155	0.392	0.126	0.159	-0.286	0.568	-0.206	-1.098	0.718	-0.027	0.229	0.739	0.808	0.065	0.105	0.415	-0.020	-0.406	-0.386	-0.556	-0.547	-0.422	-0.766	-0.237	-78.125
0.377	0.593	0.416	0.345	0.028	0.393	0.090	0.113	-0.269	0.632	-0.132	-0.938	0.676	-0.076	0.191	0.579	0.742	0.058	0.148	0.300	-0.089	-0.258	-0.295	-0.496	-0.530	-0.399	-0.654	0.004	-74.219
0.268	0.404	0.394	0.211	-0.075	0.415	0.041	0.091	-0.246	0.650	-0.036	-0.699	0.589	-0.131	0.089	0.376	0.598	-0.016	0.139	0.167	-0.157	-0.110	-0.210	-0.396	-0.462	-0.322	-0.474	0.328	-70.312
0.142	0.230	0.387	0.104	-0.141	0.462	-0.023	0.089	-0.228	0.616	0.068	-0.409	0.453	-0.203	-0.053	0.175	0.405	-0.138	0.084	0.046	-0.219	0.011	-0.154	-0.285	-0.364	-0.209	-0.264	0.698	-66.406
0.025	0.107	0.410	0.049	-0.162	0.531	-0.100	0.106	-0.218	0.538	0.164	-0.102	0.269	-0.299	-0.204	0.017	0.197	-0.286	-0.003	-0.035	-0.276	0.078	-0.147	-0.193	-0.266	-0.087	-0.065	1.065	-62.500
-0.062	0.059	0.470	0.060	-0.132	0.616	-0.180	0.140	-0.211	0.430	0.242	0.186	0.047	-0.422	-0.339	-0.072	0.004	-0.433	-0.112	-0.062	-0.327	0.075	-0.202	-0.151	-0.196	0.013	0.081	1.379	-58.594
-0.107	0.093	0.569	0.135	-0.057	0.707	-0.250	0.194	-0.195	0.315	0.298	0.425	-0.197	-0.569	-0.438	-0.080	-0.153	-0.556	-0.230	-0.038	-0.380	-0.010	-0.320	-0.176	-0.177	0.066	0.146	1.601	-54.688
-0.106	0.195	0.699	0.258	0.050	0.790	-0.295	0.270	-0.154	0.219	0.335	0.596	-0.445	-0.730	-0.493	-0.019	-0.265	-0.642	-0.352	0.017	-0.439	-0.172	-0.493	-0.270	-0.214	0.057	0.119	1.709	-50.781
-0.067	0.339	0.842	0.402	0.168	0.851	-0.304	0.366	-0.075	0.163	0.360	0.692	-0.672	-0.893	-0.506	0.083	-0.335	-0.680	-0.473	0.074	-0.515	-0.396	-0.698	-0.420	-0.300	-0.012	0.006	1.699	-46.875
-0.006	0.484	0.974	0.532	0.271	0.874	-0.271	0.474	0.045	0.160	0.384	0.721	-0.857	-1.043	-0.486	0.188	-0.371	-0.671	-0.588	0.102	-0.610	-0.652	-0.907	-0.597	-0.414	-0.124	-0.165	1.592	-42.969
0.060	0.593	1.069	0.613	0.333	0.848	-0.202	0.577	0.198	0.210	0.411	0.696	-0.983	-1.164	-0.444	0.260	-0.383	-0.618	-0.686	0.076	-0.725	-0.904	-1.086	-0.766	-0.526	-0.248	-0.356	1.419	-39.062
0.112	0.629	1.097	0.615	0.334	0.762	-0.109	0.650	0.361	0.303	0.445	0.637	-1.036	-1.241	-0.389	0.273	-0.377	-0.526	-0.753	-0.014	-0.852	-1.106	-1.202	-0.888	-0.609	-0.352	-0.524	1.220	-35.156
0.138	0.572	1.039	0.522	0.268	0.613	-0.006	0.667	0.505	0.422	0.481	0.561	-1.007	-1.258	-0.327	0.217	-0.353	-0.403	-0.771	-0.162	-0.974	-1.219	-1.227	-0.932	-0.640	-0.404	-0.633	1.029	-31.250
0.135	0.417	0.884	0.336	0.140	0.406	0.090	0.610	0.596	0.543	0.511	0.479	-0.898	-1.205	-0.258	0.097	-0.308	-0.257	-0.724	-0.348	-1.071	-1.210	-1.147	-0.879	-0.610	-0.389	-0.658	0.870	-27.344
0.103	0.176	0.640	0.074	-0.027	0.156	0.165	0.470	0.609	0.643	0.526	0.395	-0.718	-1.079	-0.181	-0.067	-0.237	-0.096	-0.606	-0.543	-1.123	-1.066	-0.960	-0.730	-0.520	-0.304	-0.593	0.750	-23.438
0.055	-0.121	0.331	-0.229	-0.203	-0.113	0.211	0.255	0.528	0.704	0.514	0.309	-0.486	-0.886	-0.094	-0.246	-0.140	0.072	-0.423	-0.715	-1.117	-0.793	-0.685	-0.502	-0.383	-0.165	-0.453	0.662	-19.531
0.006	-0.433	-0.000	-0.530	-0.353	-0.370	0.224	-0.009	0.356	0.710	0.469	0.215	-0.232	-0.646	0.002	-0.412	-0.021	0.236	-0.194	-0.842	-1.052	-0.423	-0.352	-0.228	-0.217	0.002	-0.266	0.587	-15.625
-0.028	-0.712	-0.306	-0.781	-0.449	-0.582	0.203	-0.285	0.112	0.652	0.385	0.106	0.007	-0.390	0.108	-0.539	0.109	0.387	0.048	-0.911	-0.942	-0.006	-0.005	0.048	-0.046	0.164	-0.072	0.504	-11.719
-0.032	-0.914	-0.534	-0.942	-0.475	-0.720	0.148	-0.529	-0.173	0.531	0.264	-0.023	0.191	-0.159	0.219	-0.611	0.239	0.518	0.266	-0.924	-0.816	0.394	0.307	0.282	0.111	0.291	0.091	0.394	-7.812
0.002	-1.002	-0.646	-0.987	-0.431	-0.769	0.057	-0.701	-0.462	0.351	0.112	-0.174	0.286	0.003	0.333	-0.617	0.356	0.623	0.425	-0.891	-0.707	0.717	0.543	0.434	0.237	0.364	0.189	0.250	-3.906
0.074	-0.957	-0.620	-0.906	-0.331	-0.724	-0.068	-0.770	-0.716	0.128	-0.061	-0.344	0.266	0.059	0.446	-0.556	0.452	0.700	0.503	-0.829	-0.650	0.912	0.671	0.478	0.323	0.376	0.203	0.076	0.000
0.177	-0.780	-0.459	-0.708	-0.196	-0.595	-0.225	-0.723	-0.907	-0.118	-0.240	-0.522	0.123	-0.012	0.553	-0.433	0.526	0.750	0.494	-0.754	-0.668	0.954	0.676	0.405	0.361	0.331	0.129	-0.111	3.906
0.298	-0.490	-0.184	-0.419	-0.054	-0.403	-0.407	-0.563	-1.013	-0.361	-0.405	-0.692	-0.133	-0.208	0.651	-0.257	0.578	0.773	0.409	-0.677	-0.767	0.844	0.567	0.225	0.348	0.241	-0.023	-0.287	7.812
0.420	-0.124	0.164	-0.075	0.076	-0.176	-0.602	-0.314	-1.027	-0.574	-0.537	-0.834	-0.475	-0.507	0.733	-0.045	0.614	0.769	0.275	-0.603	-0.934	0.611	0.366	-0.038	0.282	0.120	-0.230	-0.430	11.719
0.530	0.271	0.536	0.281	0.179	0.058	-0.791	-0.008	-0.954	-0.728	-0.617	-0.926	-0.860	-0.867	0.795	0.185	0.639	0.739	0.124	-0.534	-1.141	0.301	0.111	-0.350	0.160	-0.022	-0.466	-0.522	15.625
0.616	0.645	0.885	0.610	0.253	0.273	-0.952	0.313	-0.809	-0.804	-0.629	-0.949	-1.241	-1.238	0.831	0.410	0.655	0.683	-0.014	-0.467	-1.350	-0.032	-0.160	-0.679	-0.014	-0.176	-0.703	-0.558	19.531
0.671	0.955	1.170	0.879	0.302	0.453	-1.062	0.613	-0.614	-0.790	-0.567	-0.897	-1.575	-1.570	0.840	0.608	0.663	0.605	-0.118	-0.401	-1.528	-0.339	-0.413	-0.992	-0.234	-0.339	-0.921	-0.540	23.438
0.694	1.170	1.365	1.068	0.334	0.588	-1.103	0.862	-0.394	-0.688	-0.436	-0.776	-1.825	-1.824	0.823	0.758	0.662	0.509	-0.183	-0.337	-1.647	-0.586	-0.623	-1.267	-0.484	-0.508	-1.105	-0.483	27.344
0.687	1.275	1.460	1.171	0.360	0.678	-1.069	1.040	-0.179	-0.512	-0.253	-0.612	-1.975	-1.974	0.784	0.844	0.649	0.405	-0.211	-0.279	-1.695	-0.757	-0.778	-1.488	-0.736	-0.674	-1.249	-0.403	31.250
0.655	1.275	1.460	1.194	0.387	0.729	-0.963	1.136	0.007	-0.289	-0.049	-0.445	-2.020	-2.015	0.731	0.859	0.626	0.304	-0.215	-0.233	-1.670	-0.854	-0.877	-1.646	-0.956	-0.820	-1.347	-0.317	35.156
0.601	1.187	1.378	1.150	0.419	0.744	-0.803	1.151	0.142	-0.055	0.140	-0.325	-1.970	-1.957	0.675	0.807	0.601	0.217	-0.210	-0.201	-1.585	-0.891	-0.924	-1.733	-1.105	-0.923	-1.394	-0.236	39.062
0.525	1.036	1.234	1.057	0.451	0.725	-0.615	1.090	0.213	0.158	0.272	-0.302	-1.843	-1.822	0.622	0.699	0.580	0.155	-0.207	-0.188	-1.459	-0.885	-0.930	-1.740	-1.143	-0.949	-1.380	-0.160	42.969
0.422	0.849	1.050	0.929	0.476	0.668	-0.429	0.967	0.217	0.320	0.317	-0.413	-1.659	-1.636	0.572	0.551	0.572	0.125	-0.214	-0.194	-1.313	-0.856	-0.903	-1.658	-1.038	-0.860	-1.286	-0.078	46.875
0.281	0.644	0.840	0.773	0.478	0.565	-0.271	0.801	0.166	0.415	0.258	-0.675	-1.436	-1.431	0.518	0.376	0.580	0.124	-0.233	-0.224	-1.173	-0.817	-0.851	-1.474	-0.771	-0.619	-1.090	0.033	50.781
0.087	0.425	0.611	0.586	0.440	0.405	-0.160	0.617	0.083	0.444	0.101	-1.075	-1.191	-1.235	0.441	0.180	0.597	0.142	-0.268	-0.284	-1.063	-0.778	-0.776	-1.181	-0.336	-0.196	-0.765	0.205	54.688
-0.180	0.188	0.365	0.358	0.346	0.182	-0.103	0.441	0.004	0.420	-0.125	-1.575	-0.935	-1.073	0.319	-0.040	0.607	0.164	-0.320	-0.390	-1.007	-0.744	-0.681	-0.773	0.258	0.428	-0.289	0.471	58.594
-0.534	-0.081	0.098	0.077	0.183	-0.104	-0.094	0.303	-0.032	0.371	-0.373	-2.115	-0.680	-0.963	0.127	-0.294	0.588	0.168	-0.396	-0.556	-1.025	-0.716	-0.570	-0.254	0.989	1.254	0.349	0.855	62.500
-0.983	-0.398	-0.195	-0.267	-0.057	-0.442	-0.120	0.224	0.010	0.320	-0.591	-2.630	-0.437	-0.919	-0.154	-0.596	0.515	0.135	-0.502	-0.799	-1.131	-0.693	-0.447	0.356	1.824	2.258	1.139	1.363	66.406
-1.517	-0.768	-0.513	-0.676	-0.369	-0.814	-0.164	0.222	0.156	0.290	-0.730	-3.061	-0.216	-0.948	-0.526	-0.952	0.373	0.052	-0.644	-1.125	-1.328	-0.673	-0.314	1.029	2.721	3.394	2.048	1.976	70.312
-2.111	-1.187	-0.847	-1.135	-0.738	-1.189	-0.211	0.303	0.410	0.285	-0.762	-3.371	-0.028	-1.046	-0.973	-1.359	0.158	-0.083	-0.823	-1.527	-1.607	-0.652	-0.177	1.720	3.633	4.591	3.016	2.645	74.219
-2.722	-1.633	-1.179	-1.618	-1.134	-1.533	-0.248	0.463	0.758	0.299	-0.686	-3.551	0.116	-1.200	-1.461	-1.801	-0.116	-0.264	-1.032	-1.981	-1.943	-0.624	-0.039	2.380	4.514	5.760	3.964	3.297	78.125
-3.295	-2.071	-1.482	-2.085	-1.521	-1.811	-0.272	0.690	1.164	0.310	-0.528	-3.624	0.210	-1.389	-1.943	-2.247	-0.421	-0.470	-1.256	-2.451	-2.301	-0.581	0.098	2.957	5.318	6.806	4.805	3.843	82.031
-3.771	-2.459	-1.723	-2.492	-1.854	-1.991	-0.282	0.964	1.581	0.294	-0.338	-3.643	0.256	-1.584	-2.368	-2.658	-0.718	-0.677	-1.469	-2.887	-2.638	-0.513	0.234	3.408	6.010	7.640	5.453	4.193	85.938
-4.098	-2.754	-1.871	-2.796	-2.093	-2.048	-0.283	1.268	1.953	0.227	-0.180	-3.678	0.259	-1.756	-2.686	-2.995	-0.968	-0.856	-1.646	-3.243	-2.912	-0.412	0.370	3.702	6.568	8.188	5.843	4.269	89.844
-4.233	-2.918	-1.898	-2.962	-2.206	-1.971	-0.283	1.581	2.231	0.092	-0.115	-3.809	0.231	-1.877	-2.859	-3.224	-1.132	-0.982	-1.759	-3.476	-3.089	-0.275	0.505	3.823	6.982	8.401	5.930	4.024	93.750
-4.152	-2.926	-1.786	-2.969	-2.173	-1.763	-0.290	1.886	2.371	-0.120	-0.199	-4.106	0.188	-1.928	-2.863	-3.320	-1.180	-1.028	-1.785	-3.563	-3.145	-0.103	0.641	3.769	7.249	8.256	5.700	3.440	97.656
-3.845	-2.765	-1.524	-2.810	-1.992	-1.440	-0.312	2.158	2.341	-0.407	-0.467	-4.621	0.148	-1.898	-2.681	-3.269	-1.093	-0.973	-1.710	-3.492	-3.073	0.099	0.779	3.550	7.366	7.750	5.163	2.537	101.562
-3.315	-2.436	-1.116	-2.492	-1.675	-1.033	-0.355	2.370	2.121	-0.763	-0.934	-5.374	0.126	-1.783	-2.311	-3.067	-0.859	-0.801	-1.529	-3.269	-2.877	0.321	0.919	3.183	7.322	6.896	4.351	1.359	105.469
-2.576	-1.946	-0.570	-2.032	-1.245	-0.576	-0.422	2.484	1.699	-1.173	-1.596	-6.352	0.141	-1.588	-1.753	-2.716	-0.477	-0.497	-1.242	-2.909	-2.569	0.555	1.061	2.692	7.091	5.718	3.313	-0.026	109.375
-1.649	-1.311	0.095	-1.450	-0.729	-0.106	-0.509	2.456	1.071	-1.622	-2.431	-7.509	0.210	-1.316	-1.015	-2.224	0.047	-0.059	-0.857	-2.430	-2.164	0.792	1.207	2.106	6.635	4.244	2.110	-1.543	113.281
-0.565	-0.553	0.855	-0.773	-0.154	0.345	-0.609	2.242	0.246	-2.092	-3.405	-8.769	0.349	-0.970	-0.115	-1.600	0.699	0.507	-0.385	-1.848	-1.675	1.033	1.354	1.457	5.910	2.512	0.809	-3.114	117.188
0.638	0.301	1.678	-0.028	0.456	0.755	-0.709	1.805	-0.763	-2.566	-4.470	-10.039	0.575	-0.549	0.919	-0.861	1.455	1.178	0.159	-1.178	-1.110	1.280	1.499	0.785	4.878	0.566	-0.519	-4.661	121.094
1.910	1.214	2.528	0.756	1.079	1.110	-0.793	1.128	-1.927	-3.023	-5.573	-11.214	0.901	-0.052	2.044	-0.035	2.278	1.913	0.758	-0.437	-0.476	1.543	1.638	0.133	3.526	-1.532	-1.800	-6.115	125.000
3.191	2.142	3.362	1.542	1.697	1.405	-0.844	0.218	-3.201	-3.441	-6.652	-12.196	1.333	0.523	3.197	0.838	3.123	2.656	1.388	0.355	0.219	1.830	1.764	-0.456	1.876	-3.698	-2.963	-7.407	128.906
4.405	3.026	4.134	2.291	2.290	1.641	-0.849	-0.886	-4.526	-3.795	-7.643	-12.901	1.870	1.169	4.304	1.706	3.934	3.343	2.020	1.168	0.962	2.147	1.868	-0.936	-0.006	-5.826	-3.938	-8.472	132.812
5.474	3.806	4.794	2.956	2.835	1.817	-0.797	-2.114	-5.827	-4.061	-8.479	-13.266	2.496	1.866	5.280	2.502	4.648	3.907	2.616	1.959	1.727	2.489	1.942	-1.269	-2.011	-7.790	-4.660	-9.248	136.719
6.318	4.418	5.295	3.490	3.307	1.933	-0.685	-3.377	-7.023	-4.212	-9.097	-13.261	3.182	2.583	6.042	3.154	5.202	4.287	3.130	2.673	2.473	2.840	1.975	-1.428	-3.994	-9.456	-5.079	-9.681	140.625
6.865	4.804	5.601	3.850	3.677	1.986	-0.517	-4.570	-8.031	-4.231	-9.443	-12.885	3.889	3.273	6.518	3.597	5.544	4.444	3.517	3.250	3.152	3.172	1.958	-1.400	-5.798	-10.696	-5.159	-9.728	144.531
7.067	4.927	5.685	4.005	3.918	1.971	-0.304	-5.593	-8.778	-4.103	-9.483	-12.172	4.567	3.882	6.661	3.782	5.634	4.361	3.734	3.635	3.706	3.450	1.887	-1.188	-7.271	-11.411	-4.888	-9.367	148.438
6.906	4.773	5.542	3.940	4.011	1.884	-0.059	-6.363	-9.208	-3.829	-9.203	-11.179	5.163	4.355	6.458	3.686	5.461	4.048	3.752	3.787	4.085	3.637	1.758	-0.813	-8.296	-11.544	-4.284	-8.602	152.344
6.395	4.356	5.186	3.664	3.945	1.727	0.203	-6.821	-9.291	-3.414	-8.615	-9.982	5.626	4.643	5.928	3.318	5.035	3.539	3.561	3.687	4.247	3.703	1.576	-0.310	-8.802	-11.091	-3.390	-7.470	156.250
5.580	3.716	4.646	3.203	3.722	1.503	0.468	-6.943	-9.023	-2.876	-7.754	-8.662	5.919	4.713	5.120	2.719	4.396	2.885	3.172	3.344	4.174	3.630	1.352	0.277	-8.774	-10.101	-2.270	-6.033	160.156
4.528	2.909	3.962	2.598	3.359	1.218	0.729	-6.735	-8.422	-2.233	-6.673	-7.298	6.017	4.555	4.103	1.950	3.595	2.138	2.618	2.792	3.870	3.417	1.100	0.904	-8.255	-8.667	-1.004	-4.375	164.062
3.320	2.003	3.177	1.896	2.881	0.882	0.984	-6.236	-7.531	-1.506	-5.436	-5.954	5.920	4.185	2.951	1.083	2.696	1.351	1.944	2.082	3.362	3.079	0.836	1.531	-7.328	-6.910	0.329	-2.589	167.969
2.036	1.059	2.333	1.144	2.322	0.504	1.238	-5.503	-6.402	-0.714	-4.107	-4.679	5.647	3.640	1.738	0.190	1.755	0.561	1.200	1.273	2.698	2.644	0.575	2.128	-6.103	-4.962	1.658	-0.767	171.875
0.742	0.130	1.465	0.382	1.719	0.096	1.499	-4.602	-5.098	0.126	-2.745	-3.500	5.235	2.974	0.518	-0.673	0.818	-0.210	0.432	0.422	1.933	2.146	0.327	2.677	-4.698	-2.945	2.926	1.013	175.781
-0.513	-0.749	0.599	-0.362	1.106	-0.329	1.777	-3.600	-3.679	0.996	-1.396	-2.427	4.733	2.248	-0.670	-1.471	-0.086	-0.951	-0.326	-0.425	1.126	1.620	0.095	3.173	-3.217	-0.958	4.098	2.693	179.688
-1.699	-1.561	-0.244	-1.069	0.517	-0.754	2.082	-2.559	-2.205	1.880	-0.097	-1.453	4.196	1.521	-1.804	-2.188	-0.943	-1.664	-1.052	-1.237	0.328	1.095	-0.122	3.615	-1.747	0.925	5.158	4.239	183.594
-2.804	-2.302	-1.054	-1.728	-0.025	-1.159	2.415	-1.529	-0.730	2.759	1.132	-0.565	3.673	0.842	-2.874	-2.827	-1.747	-2.350	-1.733	-1.996	-0.422	0.592	-0.331	4.009	-0.345	2.664	6.104	5.641	187.500
-3.829	-2.977	-1.821	-2.335	-0.500	-1.528	2.771	-0.553	0.697	3.610	2.275	0.258	3.204	0.244	-3.874	-3.402	-2.495	-3.009	-2.366	-2.693	-1.094	0.126	-0.540	4.361	0.955	4.239	6.943	6.905	191.406
-4.778	-3.598	-2.542	-2.887	-0.903	-1.847	3.139	0.339	2.034	4.406	3.323	1.036	2.815	-0.255	-4.799	-3.928	-3.182	-3.634	-2.946	-3.325	-1.675	-0.294	-0.752	4.675	2.143	5.654	7.690	8.045	195.312
-5.656	-4.174	-3.215	-3.386	-1.234	-2.110	3.497	1.122	3.247	5.124	4.272	1.787	2.517	-0.654	-5.643	-4.417	-3.803	-4.215	-3.468	-3.890	-2.160	-0.663	-0.969	4.955	3.224	6.919	8.358	9.076	199.219
-6.465	-4.713	-3.839	-3.833	-1.504	-2.320	3.825	1.783	4.310	5.741	5.119	2.522	2.308	-0.963	-6.401	-4.880	-4.350	-4.739	-3.927	-4.389	-2.553	-0.976	-1.184	5.205	4.210	8.052	8.961	10.011	203.125
-7.202	-5.218	-4.413	-4.233	-1.726	-2.484	4.100	2.317	5.212	6.241	5.860	3.241	2.179	-1.196	-7.067	-5.320	-4.819	-5.197	-4.317	-4.827	-2.865	-1.228	-1.387	5.432	5.120	9.072	9.511	10.854	207.031
-7.862	-5.688	-4.932	-4.590	-1.917	-2.614	4.306	2.726	5.947	6.618	6.494	3.938	2.115	-1.373	-7.643	-5.739	-5.210	-5.582	-4.635	-5.210	-3.115	-1.415	-1.561	5.644	5.968	9.990	10.018	11.602	210.938
-8.433	-6.118	-5.389	-4.907	-2.093	-2.718	4.435	3.023	6.521	6.872	7.021	4.593	2.100	-1.510	-8.131	-6.136	-5.533	-5.897	-4.885	-5.552	-3.319	-1.534	-1.691	5.850	6.763	10.812	10.488	12.248	214.844
-8.907	-6.501	-5.776	-5.187	-2.263	-2.801	4.486	3.224	6.945	7.012	7.438	5.180	2.119	-1.620	-8.537	-6.508	-5.801	-6.146	-5.076	-5.864	-3.497	-1.589	-1.762	6.060	7.507	11.537	10.921	12.783	218.750
-9.275	-6.830	-6.084	-5.433	-2.434	-2.866	4.467	3.346	7.233	7.053	7.747	5.672	2.159	-1.708	-8.870	-6.853	-6.029	-6.336	-5.218	-6.159	-3.659	-1.584	-1.765	6.277	8.192	12.155	11.316	13.203	222.656
-9.536	-7.101	-6.308	-5.645	-2.603	-2.912	4.392	3.409	7.403	7.016	7.952	6.045	2.211	-1.776	-9.134	-7.163	-6.228	-6.478	-5.325	-6.441	-3.813	-1.529	-1.699	6.504	8.804	12.654	11.664	13.506	226.562
-9.695	-7.313	-6.451	-5.824	-2.765	-2.940	4.280	3.427	7.470	6.927	8.058	6.284	2.266	-1.822	-9.331	-7.431	-6.406	-6.578	-5.408	-6.710	-3.954	-1.435	-1.570	6.735	9.328	13.021	11.954	13.696	230.469
-9.762	-7.472	-6.520	-5.971	-2.913	-2.952	4.149	3.410	7.448	6.807	8.075	6.387	2.322	-1.838	-9.463	-7.650	-6.563	-6.641	-5.470	-6.952	-4.071	-1.312	-1.388	6.963	9.749	13.252	12.178	13.788	234.375
-9.755	-7.586	-6.536	-6.088	-3.041	-2.955	4.015	3.359	7.347	6.678	8.011	6.361	2.377	-1.814	-9.525	-7.812	-6.690	-6.670	-5.512	-7.151	-4.146	-1.168	-1.171	7.178	10.057	13.347	12.328	13.799	238.281
-9.692	-7.666	-6.519	-6.179	-3.144	-2.961	3.889	3.274	7.178	6.551	7.876	6.225	2.436	-1.744	-9.516	-7.912	-6.778	-6.661	-5.526	-7.285	-4.159	-1.004	-0.932	7.372	10.252	13.316	12.401	13.753	242.188
-9.592	-7.724	-6.495	-6.250	-3.224	-2.983	3.776	3.146	6.944	6.432	7.678	6.002	2.503	-1.619	-9.433	-7.948	-6.814	-6.612	-5.500	-7.336	-4.092	-0.819	-0.684	7.538	10.341	13.177	12.400	13.672	246.094
-9.470	-7.771	-6.482	-6.307	-3.287	-3.035	3.674	2.972	6.653	6.317	7.425	5.713	2.585	-1.440	-9.278	-7.924	-6.788	-6.518	-5.424	-7.293	-3.937	-0.606	-0.435	7.675	10.341	12.954	12.333	13.578	250.000
-9.332	-7.812	-6.494	-6.357	-3.339	-3.128	3.580	2.750	6.311	6.197	7.124	5.380	2.686	-1.213	-9.056	-7.846	-6.697	-6.374	-5.288	-7.155	-3.695	-0.359	-0.186	7.785	10.274	12.669	12.213	13.485	253.906
-9.181	-7.849	-6.533	-6.404	-3.390	-3.265	3.484	2.487	5.926	6.059	6.783	5.018	2.808	-0.952	-8.778	-7.724	-6.547	-6.182	-5.090	-6.935	-3.380	-0.073	0.064	7.872	10.165	12.346	12.053	13.400	257.812
-9.014	-7.878	-6.590	-6.451	-3.445	-3.444	3.379	2.194	5.512	5.890	6.407	4.635	2.949	-0.674	-8.460	-7.569	-6.350	-5.945	-4.834	-6.651	-3.018	0.249	0.320	7.942	10.036	12.002	11.866	13.317	261.719
-8.823	-7.892	-6.651	-6.496	-3.508	-3.658	3.259	1.889	5.082	5.682	6.006	4.238	3.103	-0.401	-8.119	-7.391	-6.121	-5.671	-4.531	-6.329	-2.640	0.601	0.585	7.999	9.903	11.647	11.664	13.224	265.625
-8.598	-7.880	-6.694	-6.535	-3.578	-3.895	3.118	1.590	4.652	5.428	5.586	3.831	3.262	-0.152	-7.772	-7.199	-5.877	-5.372	-4.194	-5.994	-2.279	0.970	0.862	8.044	9.778	11.287	11.453	13.100	269.531
-8.331	-7.830	-6.701	-6.557	-3.647	-4.138	2.955	1.312	4.228	5.128	5.150	3.415	3.419	0.062	-7.429	-6.995	-5.625	-5.055	-3.839	-5.664	-1.958	1.340	1.152	8.075	9.660	10.920	11.234	12.925	273.438
-8.015	-7.728	-6.656	-6.550	-3.705	-4.370	2.771	1.059	3.812	4.785	4.699	2.989	3.566	0.240	-7.093	-6.776	-5.367	-4.727	-3.476	-5.345	-1.687	1.695	1.451	8.086	9.543	10.537	11.005	12.680	277.344
-7.647	-7.564	-6.555	-6.497	-3.735	-4.571	2.569	0.826	3.393	4.404	4.228	2.549	3.701	0.391	-6.757	-6.533	-5.093	-4.389	-3.112	-5.032	-1.462	2.024	1.754	8.072	9.416	10.129	10.762	12.353	281.250
-7.228	-7.330	-6.399	-6.382	-3.719	-4.724	2.357	0.600	2.956	3.994	3.725	2.090	3.828	0.533	-6.409	-6.254	-4.786	-4.038	-2.746	-4.709	-1.260	2.318	2.052	8.026	9.264	9.684	10.498	11.940	285.156
-6.765	-7.024	-6.203	-6.194	-3.640	-4.816	2.144	0.363	2.480	3.565	3.182	1.601	3.952	0.689	-6.028	-5.924	-4.424	-3.671	-2.373	-4.354	-1.054	2.578	2.337	7.947	9.072	9.192	10.208	11.449	289.062
-6.267	-6.648	-5.985	-5.925	-3.486	-4.843	1.941	0.099	1.951	3.128	2.590	1.078	4.083	0.881	-5.600	-5.531	-3.990	-3.284	-1.984	-3.943	-0.810	2.810	2.603	7.838	8.827	8.645	9.890	10.893	292.969
-5.749	-6.212	-5.770	-5.580	-3.253	-4.809	1.761	-0.201	1.365	2.700	1.951	0.518	4.230	1.125	-5.114	-5.067	-3.473	-2.879	-1.568	-3.460	-0.504	3.028	2.846	7.706	8.519	8.043	9.548	10.289	296.875
-5.225	-5.729	-5.579	-5.170	-2.947	-4.728	1.617	-0.535	0.733	2.299	1.277	-0.071	4.398	1.426	-4.571	-4.536	-2.875	-2.463	-1.117	-2.898	-0.125	3.246	3.063	7.561	8.147	7.392	9.189	9.652	300.781
-4.717	-5.221	-5.428	-4.716	-2.584	-4.620	1.522	-0.887	0.086	1.946	0.589	-0.673	4.588	1.777	-3.985	-3.950	-2.208	-2.047	-0.631	-2.265	0.325	3.476	3.253	7.415	7.711	6.706	8.823	9.000	304.688
-4.241	-4.710	-5.323	-4.245	-2.189	-4.501	1.485	-1.228	-0.536	1.658	-0.081	-1.264	4.792	2.163	-3.383	-3.336	-1.499	-1.649	-0.119	-1.585	0.824	3.726	3.417	7.276	7.223	6.009	8.465	8.344	308.594
-3.817	-4.221	-5.263	-3.785	-1.787	-4.383	1.511	-1.525	-1.085	1.451	-0.700	-1.818	4.997	2.558	-2.799	-2.725	-0.783	-1.287	0.403	-0.891	1.343	3.994	3.553	7.151	6.700	5.326	8.126	7.696	312.500
-3.457	-3.777	-5.235	-3.362	-1.406	-4.271	1.599	-1.740	-1.515	1.331	-1.237	-2.311	5.186	2.934	-2.273	-2.155	-0.103	-0.983	0.904	-0.225	1.845	4.270	3.659	7.038	6.163	4.687	7.816	7.069	316.406
-3.172	-3.397	-5.223	-2.994	-1.063	-4.157	1.745	-1.839	-1.790	1.298	-1.667	-2.728	5.340	3.266	-1.842	-1.660	0.502	-0.754	1.353	0.373	2.294	4.535	3.730	6.933	5.640	4.116	7.541	6.477	320.312
-2.962	-3.089	-5.209	-2.692	-0.769	-4.031	1.939	-1.800	-1.892	1.345	-1.972	-3.060	5.441	3.533	-1.534	-1.264	0.996	-0.610	1.718	0.867	2.662	4.771	3.763	6.828	5.156	3.634	7.303	5.934	324.219
-2.823	-2.857	-5.178	-2.456	-0.525	-3.879	2.170	-1.615	-1.821	1.461	-2.146	-3.307	5.481	3.724	-1.364	-0.983	1.353	-0.554	1.976	1.234	2.932	4.959	3.756	6.715	4.729	3.250	7.097	5.456	328.125
-2.745	-2.693	-5.120	-2.281	-0.324	-3.689	2.426	-1.294	-1.598	1.630	-2.193	-3.474	5.459	3.839	-1.332	-0.815	1.564	-0.581	2.115	1.464	3.099	5.090	3.711	6.587	4.374	2.961	6.917	5.058	332.031
-2.713	-2.585	-5.036	-2.153	-0.156	-3.460	2.698	-0.866	-1.261	1.837	-2.126	-3.566	5.386	3.886	-1.420	-0.749	1.635	-0.674	2.142	1.565	3.173	5.158	3.634	6.443	4.094	2.756	6.755	4.749	335.938
-2.715	-2.517	-4.932	-2.060	-0.013	-3.198	2.978	-0.371	-0.853	2.068	-1.964	-3.589	5.283	3.880	-1.598	-0.762	1.590	-0.813	2.078	1.557	3.171	5.170	3.536	6.287	3.886	2.618	6.604	4.537	339.844
-2.738	-2.477	-4.826	-1.991	0.112	-2.922	3.261	0.143	-0.423	2.312	-1.732	-3.546	5.173	3.840	-1.829	-0.826	1.458	-0.973	1.958	1.470	3.117	5.141	3.432	6.128	3.744	2.527	6.464	4.420	343.750
-2.775	-2.451	-4.735	-1.940	0.219	-2.656	3.541	0.629	-0.013	2.557	-1.459	-3.441	5.085	3.787	-2.076	-0.914	1.277	-1.131	1.817	1.340	3.037	5.091	3.341	5.983	3.658	2.470	6.338	4.394	347.656
-2.820	-2.435	-4.681	-1.903	0.304	-2.431	3.815	1.049	0.344	2.797	-1.174	-3.280	5.037	3.737	-2.307	-1.001	1.082	-1.267	1.691	1.201	2.954	5.042	3.279	5.869	3.624	2.438	6.236	4.446	351.562
-2.874	-2.423	-4.676	-1.883	0.359	-2.272	4.075	1.376	0.629	3.020	-0.910	-3.080	5.045	3.706	-2.499	-1.073	0.905	-1.367	1.609	1.081	2.885	5.014	3.263	5.804	3.639	2.430	6.171	4.557	355.469
-2.934	-2.415	-4.727	-1.879	0.378	-2.197	4.310	1.597	0.832	3.218	-0.700	-2.863	5.108	3.700	-2.635	-1.117	0.769	-1.419	1.588	1.002	2.843	5.025	3.304	5.801	3.702	2.452	6.154	4.703	359.375
-2.997	-2.410	-4.831	-1.893	0.357	-2.209	4.508	1.709	0.953	3.374	-0.573	-2.665	5.216	3.721	-2.708	-1.130	0.691	-1.420	1.634	0.975	2.832	5.087	3.408	5.867	3.815	2.510	6.192	4.850	363.281
-3.053	-2.404	-4.973	-1.920	0.296	-2.302	4.650	1.716	0.997	3.470	-0.559	-2.527	5.346	3.765	-2.714	-1.109	0.682	-1.364	1.745	1.006	2.854	5.203	3.575	5.996	3.977	2.608	6.282	4.965	367.188
-3.090	-2.390	-5.131	-1.953	0.201	-2.457	4.718	1.632	0.970	3.486	-0.676	-2.493	5.471	3.826	-2.652	-1.052	0.745	-1.253	1.914	1.093	2.906	5.371	3.797	6.170	4.181	2.743	6.411	5.012	371.094
-3.094	-2.364	-5.278	-1.981	0.083	-2.648	4.702	1.473	0.883	3.405	-0.931	-2.595	5.561	3.895	-2.525	-0.961	0.875	-1.089	2.127	1.231	2.984	5.582	4.059	6.366	4.417	2.905	6.557	4.967	375.000
-3.054	-2.320	-5.393	-1.994	-0.043	-2.847	4.599	1.263	0.745	3.224	-1.315	-2.847	5.597	3.965	-2.342	-0.840	1.059	-0.885	2.368	1.411	3.089	5.822	4.342	6.556	4.666	3.075	6.696	4.816	378.906
-2.964	-2.258	-5.457	-1.983	-0.159	-3.026	4.423	1.029	0.573	2.953	-1.798	-3.236	5.570	4.036	-2.120	-0.695	1.273	-0.659	2.618	1.620	3.219	6.072	4.623	6.718	4.904	3.227	6.803	4.562	382.812
-2.826	-2.181	-5.465	-1.945	-0.249	-3.163	4.200	0.803	0.384	2.617	-2.333	-3.716	5.491	4.109	-1.883	-0.541	1.492	-0.435	2.858	1.844	3.376	6.313	4.878	6.833	5.104	3.336	6.863	4.227	386.719
-2.652	-2.097	-5.420	-1.879	-0.301	-3.241	3.964	0.613	0.196	2.254	-2.863	-4.217	5.380	4.188	-1.658	-0.394	1.687	-0.240	3.068	2.065	3.557	6.526	5.085	6.893	5.236	3.377	6.868	3.850	390.625
-2.457	-2.015	-5.334	-1.791	-0.310	-3.252	3.747	0.483	0.031	1.904	-3.326	-4.654	5.265	4.278	-1.475	-0.272	1.831	-0.098	3.230	2.268	3.757	6.694	5.228	6.898	5.279	3.335	6.821	3.478	394.531
-2.264	-1.945	-5.224	-1.688	-0.278	-3.192	3.573	0.427	-0.097	1.601	-3.669	-4.943	5.172	4.376	-1.356	-0.191	1.907	-0.028	3.331	2.440	3.967	6.804	5.295	6.852	5.223	3.209	6.733	3.165	398.438
-2.091	-1.892	-5.103	-1.580	-0.214	-3.070	3.446	0.446	-0.182	1.362	-3.857	-5.022	5.115	4.475	-1.316	-0.161	1.906	-0.037	3.360	2.569	4.169	6.846	5.285	6.765	5.070	3.017	6.621	2.959	402.344
-1.951	-1.856	-4.981	-1.473	-0.130	-2.895	3.359	0.527	-0.227	1.186	-3.881	-4.861	5.096	4.560	-1.356	-0.181	1.832	-0.118	3.318	2.652	4.347	6.818	5.200	6.643	4.842	2.784	6.497	2.892	406.250
-1.847	-1.826	-4.857	-1.366	-0.039	-2.686	3.290	0.643	-0.249	1.054	-3.761	-4.475	5.104	4.618	-1.462	-0.238	1.701	-0.256	3.212	2.697	4.487	6.726	5.055	6.492	4.567	2.543	6.370	2.972	410.156
-1.765	-1.787	-4.720	-1.254	0.052	-2.456	3.211	0.756	-0.274	0.935	-3.545	-3.915	5.116	4.637	-1.606	-0.308	1.539	-0.422	3.060	2.716	4.583	6.582	4.866	6.314	4.277	2.319	6.236	3.179	414.062
-1.685	-1.719	-4.555	-1.126	0.143	-2.221	3.098	0.828	-0.333	0.794	-3.294	-3.262	5.110	4.611	-1.751	-0.361	1.380	-0.586	2.889	2.732	4.634	6.407	4.654	6.107	4.000	2.125	6.085	3.469	417.969
-1.581	-1.604	-4.346	-0.971	0.239	-1.990	2.938	0.825	-0.456	0.603	-3.072	-2.606	5.064	4.540	-1.858	-0.368	1.254	-0.717	2.723	2.762	4.648	6.219	4.440	5.870	3.752	1.962	5.899	3.787	421.875
-1.434	-1.436	-4.084	-0.785	0.348	-1.773	2.730	0.725	-0.661	0.349	-2.928	-2.023	4.971	4.434	-1.897	-0.311	1.186	-0.791	2.588	2.822	4.633	6.036	4.238	5.601	3.539	1.815	5.666	4.078	425.781
-1.235	-1.221	-3.770	-0.570	0.476	-1.575	2.490	0.525	-0.952	0.041	-2.888	-1.562	4.832	4.308	-1.850	-0.185	1.187	-0.798	2.496	2.913	4.603	5.871	4.060	5.306	3.353	1.666	5.382	4.299	429.688
-0.991	-0.978	-3.420	-0.341	0.626	-1.401	2.242	0.237	-1.321	-0.300	-2.951	-1.241	4.664	4.181	-1.717	-0.002	1.254	-0.741	2.453	3.030	4.571	5.729	3.909	4.996	3.182	1.490	5.051	4.425	433.594
-0.720	-0.730	-3.056	-0.115	0.795	-1.255	2.016	-0.110	-1.743	-0.642	-3.097	-1.050	4.493	4.075	-1.511	0.219	1.368	-0.635	2.453	3.162	4.548	5.613	3.785	4.685	3.008	1.269	4.690	4.450	437.500
-0.444	-0.505	-2.704	0.087	0.977	-1.140	1.838	-0.478	-2.189	-0.954	-3.290	-0.963	4.346	4.010	-1.256	0.449	1.505	-0.504	2.485	3.293	4.550	5.522	3.684	4.394	2.813	0.989	4.317	4.382	441.406
-0.184	-0.322	-2.389	0.249	1.161	-1.058	1.723	-0.832	-2.625	-1.215	-3.497	-0.951	4.251	3.998	-0.981	0.666	1.634	-0.373	2.533	3.412	4.585	5.455	3.601	4.142	2.586	0.647	3.954	4.238	445.312
0.046	-0.189	-2.126	0.361	1.337	-1.007	1.672	-1.142	-3.026	-1.414	-3.687	-0.986	4.222	4.043	-0.712	0.854	1.732	-0.264	2.584	3.511	4.659	5.407	3.531	3.942	2.321	0.253	3.615	4.038	449.219
0.239	-0.105	-1.919	0.423	1.491	-0.983	1.675	-1.389	-3.371	-1.555	-3.841	-1.047	4.264	4.140	-0.472	1.003	1.780	-0.191	2.625	3.585	4.770	5.372	3.468	3.799	2.022	-0.175	3.313	3.806	453.125
0.400	-0.061	-1.764	0.442	1.615	-0.979	1.712	-1.569	-3.648	-1.651	-3.953	-1.122	4.370	4.273	-0.275	1.113	1.772	-0.161	2.649	3.634	4.907	5.342	3.408	3.710	1.697	-0.611	3.052	3.568	457.031
0.536	-0.045	-1.646	0.430	1.701	-0.986	1.760	-1.687	-3.854	-1.715	-4.021	-1.199	4.522	4.422	-0.128	1.189	1.711	-0.170	2.651	3.655	5.051	5.303	3.346	3.660	1.358	-1.030	2.831	3.345	460.938
0.656	-0.044	-1.548	0.400	1.747	-0.995	1.795	-1.758	-3.996	-1.763	-4.052	-1.274	4.693	4.565	-0.028	1.236	1.612	-0.205	2.634	3.646	5.183	5.245	3.280	3.627	1.017	-1.410	2.643	3.160	464.844
0.773	-0.050	-1.453	0.364	1.756	-0.999	1.802	-1.800	-4.085	-1.806	-4.057	-1.345	4.858	4.683	0.035	1.264	1.494	-0.252	2.602	3.610	5.286	5.158	3.207	3.584	0.683	-1.740	2.475	3.027	468.750
0.894	-0.057	-1.346	0.332	1.735	-0.995	1.767	-1.830	-4.136	-1.853	-4.044	-1.414	4.992	4.763	0.075	1.281	1.383	-0.293	2.563	3.548	5.347	5.041	3.127	3.509	0.363	-2.019	2.311	2.952	472.656
1.028	-0.064	-1.220	0.308	1.695	-0.982	1.686	-1.863	-4.169	-1.911	-4.023	-1.483	5.076	4.801	0.108	1.298	1.301	-0.311	2.527	3.471	5.366	4.899	3.045	3.382	0.057	-2.256	2.133	2.932	476.562
1.178	-0.071	-1.076	0.295	1.648	-0.966	1.561	-1.908	-4.199	-1.986	-4.000	-1.553	5.101	4.800	0.151	1.322	1.265	-0.297	2.504	3.389	5.347	4.743	2.966	3.199	-0.235	-2.462	1.930	2.956	480.469
1.345	-0.079	-0.923	0.290	1.604	-0.950	1.401	-1.966	-4.235	-2.079	-3.978	-1.620	5.066	4.769	0.215	1.364	1.286	-0.244	2.503	3.317	5.302	4.591	2.899	2.962	-0.520	-2.651	1.694	3.009	484.375
1.526	-0.088	-0.775	0.290	1.572	-0.935	1.218	-2.033	-4.280	-2.194	-3.955	-1.673	4.976	4.718	0.305	1.431	1.364	-0.153	2.529	3.268	5.245	4.459	2.849	2.686	-0.803	-2.830	1.428	3.074	488.281
1.711	-0.096	-0.649	0.294	1.556	-0.920	1.029	-2.099	-4.330	-2.326	-3.927	-1.700	4.844	4.657	0.419	1.527	1.490	-0.032	2.581	3.251	5.187	4.356	2.820	2.391	-1.086	-3.000	1.142	3.140	492.188
1.887	-0.103	-0.563	0.298	1.557	-0.901	0.852	-2.155	-4.376	-2.469	-3.886	-1.688	4.685	4.593	0.550	1.653	1.648	0.108	2.654	3.269	5.137	4.286	2.809	2.100	-1.367	-3.155	0.854	3.201	496.094
2.034	-0.105	-0.529	0.302	1.571	-0.875	0.703	-2.189	-4.402	-2.611	-3.823	-1.626	4.518	4.534	0.686	1.803	1.818	0.250	2.736	3.320	5.096	4.240	2.812	1.837	-1.640	-3.280	0.589	3.260	500.000
2.130	-0.106	-0.556	0.304	1.593	-0.841	0.592	-2.195	-4.398	-2.735	-3.730	-1.511	4.357	4.480	0.812	1.967	1.974	0.377	2.812	3.394	5.066	4.203	2.816	1.620	-1.888	-3.357	0.371	3.326	503.906
2.157	-0.105	-0.642	0.305	1.617	-0.800	0.527	-2.171	-4.351	-2.828	-3.602	-1.351	4.213	4.431	0.913	2.129	2.097	0.474	2.869	3.477	5.039	4.157	2.813	1.461	-2.094	-3.371	0.222	3.410	507.812
2.104	-0.107	-0.780	0.304	1.636	-0.756	0.503	-2.121	-4.257	-2.874	-3.436	-1.156	4.095	4.385	0.978	2.271	2.168	0.530	2.892	3.554	5.010	4.085	2.793	1.366	-2.237	-3.313	0.156	3.519	511.719
1.970	-0.114	-0.953	0.301	1.644	-0.712	0.511	-2.056	-4.119	-2.869	-3.240	-0.945	4.000	4.334	1.001	2.377	2.178	0.543	2.874	3.609	4.969	3.974	2.751	1.334	-2.302	-3.183	0.175	3.654	515.625
1.771	-0.125	-1.140	0.300	1.640	-0.668	0.536	-1.990	-3.947	-2.815	-3.028	-0.732	3.925	4.274	0.985	2.437	2.130	0.517	2.816	3.629	4.910	3.822	2.685	1.355	-2.283	-2.995	0.267	3.804	519.531
1.534	-0.136	-1.313	0.306	1.625	-0.620	0.564	-1.939	-3.762	-2.721	-2.821	-0.534	3.859	4.200	0.941	2.447	2.036	0.464	2.725	3.610	4.828	3.634	2.601	1.413	-2.186	-2.771	0.410	3.950	523.438
1.293	-0.138	-1.447	0.328	1.605	-0.557	0.581	-1.919	-3.587	-2.605	-2.642	-0.361	3.792	4.110	0.887	2.417	1.920	0.404	2.614	3.553	4.723	3.426	2.505	1.489	-2.031	-2.546	0.571	4.063	527.344
1.088	-0.117	-1.520	0.376	1.591	-0.467	0.578	-1.943	-3.449	-2.490	-2.517	-0.221	3.714	4.009	0.846	2.363	1.809	0.357	2.501	3.470	4.602	3.218	2.405	1.559	-1.848	-2.358	0.713	4.115	531.250
0.950	-0.060	-1.516	0.462	1.595	-0.338	0.553	-2.022	-3.374	-2.397	-2.464	-0.120	3.622	3.903	0.841	2.309	1.733	0.342	2.403	3.378	4.478	3.030	2.309	1.605	-1.675	-2.241	0.802	4.082	535.156
0.906	0.046	-1.430	0.592	1.626	-0.162	0.507	-2.159	-3.380	-2.345	-2.493	-0.066	3.515	3.801	0.892	2.280	1.717	0.374	2.340	3.299	4.366	2.883	2.224	1.609	-1.548	-2.225	0.812	3.952	539.062
0.964	0.207	-1.270	0.766	1.686	0.052	0.441	-2.356	-3.476	-2.347	-2.603	-0.061	3.398	3.712	1.013	2.297	1.779	0.460	2.325	3.256	4.282	2.789	2.159	1.567	-1.497	-2.320	0.731	3.731	542.969
1.121	0.419	-1.059	0.975	1.771	0.284	0.355	-2.609	-3.658	-2.408	-2.782	-0.107	3.280	3.645	1.207	2.376	1.927	0.602	2.371	3.266	4.239	2.758	2.119	1.479	-1.535	-2.520	0.564	3.438	546.875
1.359	0.670	-0.830	1.200	1.863	0.498	0.249	-2.909	-3.917	-2.528	-3.010	-0.202	3.173	3.604	1.470	2.518	2.159	0.797	2.481	3.338	4.242	2.790	2.111	1.360	-1.659	-2.799	0.334	3.108	550.781
1.649	0.939	-0.625	1.416	1.942	0.649	0.119	-3.243	-4.230	-2.699	-3.264	-0.338	3.089	3.589	1.787	2.717	2.463	1.036	2.658	3.472	4.289	2.881	2.143	1.228	-1.848	-3.117	0.074	2.782	554.688
1.957	1.198	-0.483	1.596	1.987	0.700	-0.034	-3.592	-4.575	-2.907	-3.519	-0.503	3.040	3.601	2.137	2.955	2.824	1.311	2.894	3.656	4.374	3.024	2.218	1.110	-2.071	-3.426	-0.174	2.497	558.594
2.248	1.421	-0.436	1.718	1.983	0.623	-0.206	-3.934	-4.923	-3.138	-3.753	-0.682	3.035	3.634	2.497	3.207	3.217	1.611	3.178	3.872	4.482	3.208	2.339	1.026	-2.292	-3.679	-0.375	2.285	562.500
2.494	1.588	-0.498	1.771	1.927	0.416	-0.389	-4.242	-5.248	-3.372	-3.952	-0.860	3.075	3.686	2.843	3.446	3.620	1.924	3.491	4.096	4.600	3.420	2.503	0.992	-2.477	-3.846	-0.503	2.160	566.406
2.674	1.686	-0.667	1.755	1.827	0.103	-0.567	-4.492	-5.523	-3.594	-4.107	-1.026	3.156	3.748	3.156	3.648	4.008	2.239	3.814	4.306	4.714	3.648	2.705	1.012	-2.606	-3.914	-0.550	2.117	570.312
2.781	1.717	-0.916	1.683	1.705	-0.271	-0.721	-4.664	-5.730	-3.787	-4.216	-1.173	3.267	3.814	3.425	3.796	4.360	2.543	4.126	4.484	4.814	3.876	2.932	1.078	-2.673	-3.893	-0.528	2.137	574.219
2.821	1.690	-1.211	1.579	1.589	-0.648	-0.830	-4.742	-5.850	-3.942	-4.281	-1.301	3.384	3.875	3.645	3.881	4.661	2.825	4.406	4.617	4.890	4.091	3.170	1.171	-2.682	-3.810	-0.466	2.187	578.125
2.806	1.625	-1.508	1.469	1.508	-0.967	-0.878	-4.715	-5.877	-4.050	-4.309	-1.414	3.484	3.922	3.816	3.903	4.899	3.074	4.640	4.699	4.939	4.280	3.403	1.266	-2.648	-3.701	-0.399	2.231	582.031
2.755	1.539	-1.771	1.377	1.484	-1.175	-0.854	-4.584	-5.812	-4.109	-4.307	-1.518	3.540	3.946	3.944	3.872	5.071	3.280	4.817	4.731	4.958	4.433	3.616	1.341	-2.586	-3.602	-0.363	2.238	585.938
2.688	1.450	-1.971	1.319	1.529	-1.239	-0.760	-4.359	-5.665	-4.124	-4.283	-1.621	3.532	3.941	4.039	3.799	5.179	3.440	4.933	4.716	4.947	4.546	3.798	1.377	-2.506	-3.540	-0.387	2.182	589.844
2.622	1.372	-2.096	1.303	1.639	-1.150	-0.609	-4.057	-5.455	-4.104	-4.243	-1.729	3.446	3.905	4.110	3.700	5.231	3.551	4.992	4.662	4.907	4.620	3.943	1.365	-2.417	-3.531	-0.484	2.048	593.750
2.572	1.316	-2.144	1.327	1.801	-0.922	-0.421	-3.707	-5.205	-4.063	-4.195	-1.850	3.285	3.838	4.167	3.593	5.243	3.620	5.003	4.582	4.844	4.660	4.049	1.306	-2.324	-3.578	-0.655	1.833	597.656
2.550	1.290	-2.122	1.387	1.995	-0.588	-0.224	-3.341	-4.945	-4.016	-4.148	-1.992	3.059	3.747	4.223	3.495	5.232	3.656	4.981	4.487	4.763	4.677	4.119	1.210	-2.235	-3.677	-0.888	1.541	601.562
2.569	1.307	-2.037	1.481	2.197	-0.193	-0.047	-2.996	-4.703	-3.981	-4.115	-2.162	2.791	3.640	4.287	3.423	5.220	3.670	4.946	4.397	4.676	4.683	4.158	1.087	-2.163	-3.822	-1.166	1.181	605.469
2.643	1.382	-1.892	1.610	2.393	0.219	0.084	-2.708	-4.512	-3.973	-4.110	-2.371	2.508	3.532	4.370	3.397	5.227	3.678	4.920	4.332	4.597	4.689	4.173	0.949	-2.131	-4.010	-1.471	0.763	609.375
2.786	1.530	-1.687	1.782	2.575	0.607	0.151	-2.510	-4.399	-4.008	-4.155	-2.628	2.238	3.436	4.484	3.432	5.270	3.695	4.926	4.316	4.542	4.708	4.174	0.806	-2.166	-4.245	-1.789	0.297	613.281
3.012	1.765	-1.416	2.005	2.744	0.947	0.145	-2.426	-4.389	-4.096	-4.268	-2.937	2.004	3.365	4.638	3.544	5.365	3.734	4.980	4.370	4.530	4.749	4.170	0.662	-2.298	-4.536	-2.110	-0.207	617.188
3.326	2.092	-1.078	2.287	2.909	1.222	0.065	-2.467	-4.497	-4.245	-4.465	-3.296	1.821	3.331	4.838	3.737	5.517	3.805	5.093	4.506	4.575	4.815	4.168	0.517	-2.547	-4.890	-2.428	-0.736	621.094
3.719	2.498	-0.678	2.621	3.077	1.431	-0.077	-2.630	-4.727	-4.457	-4.747	-3.690	1.696	3.337	5.085	4.007	5.722	3.915	5.266	4.728	4.684	4.908	4.174	0.369	-2.918	-5.310	-2.739	-1.271	625.000
4.172	2.955	-0.232	2.993	3.255	1.576	-0.266	-2.894	-5.064	-4.725	-5.105	-4.092	1.626	3.382	5.373	4.333	5.965	4.061	5.486	5.019	4.852	5.020	4.190	0.216	-3.395	-5.790	-3.038	-1.788	628.906
4.650	3.422	0.231	3.372	3.437	1.668	-0.479	-3.225	-5.480	-5.034	-5.512	-4.466	1.599	3.456	5.688	4.683	6.220	4.237	5.730	5.349	5.060	5.140	4.214	0.058	-3.943	-6.307	-3.319	-2.259	632.812
5.110	3.847	0.675	3.721	3.613	1.716	-0.696	-3.578	-5.931	-5.362	-5.931	-4.772	1.600	3.542	6.006	5.015	6.458	4.428	5.968	5.676	5.280	5.250	4.243	-0.102	-4.505	-6.828	-3.572	-2.653	636.719
5.508	4.184	1.060	4.000	3.763	1.726	-0.898	-3.909	-6.368	-5.683	-6.318	-4.974	1.606	3.619	6.303	5.287	6.646	4.616	6.170	5.952	5.474	5.337	4.273	-0.257	-5.020	-7.308	-3.791	-2.945	640.625
5.810	4.396	1.351	4.178	3.866	1.704	-1.072	-4.180	-6.743	-5.974	-6.632	-5.047	1.599	3.667	6.557	5.464	6.757	4.786	6.312	6.136	5.608	5.389	4.304	-0.399	-5.422	-7.704	-3.966	-3.115	644.531
5.993	4.469	1.527	4.235	3.900	1.649	-1.217	-4.363	-7.021	-6.215	-6.846	-4.984	1.562	3.665	6.749	5.527	6.778	4.924	6.383	6.201	5.653	5.400	4.337	-0.517	-5.662	-7.977	-4.095	-3.159	648.438
6.054	4.408	1.578	4.171	3.852	1.560	-1.340	-4.452	-7.183	-6.400	-6.947	-4.802	1.483	3.602	6.874	5.477	6.710	5.023	6.385	6.141	5.595	5.373	4.377	-0.604	-5.707	-8.101	-4.177	-3.083	652.344
6.008	4.243	1.517	4.002	3.715	1.439	-1.458	-4.455	-7.235	-6.536	-6.947	-4.532	1.357	3.475	6.935	5.333	6.569	5.086	6.333	5.970	5.438	5.316	4.429	-0.656	-5.553	-8.073	-4.219	-2.912	656.250
5.888	4.016	1.369	3.761	3.497	1.292	-1.592	-4.397	-7.202	-6.640	-6.871	-4.220	1.186	3.288	6.950	5.131	6.387	5.122	6.250	5.720	5.198	5.241	4.498	-0.673	-5.223	-7.911	-4.230	-2.678	660.156
5.737	3.776	1.172	3.487	3.215	1.131	-1.761	-4.313	-7.122	-6.736	-6.759	-3.917	0.977	3.054	6.941	4.911	6.198	5.146	6.161	5.435	4.904	5.160	4.583	-0.665	-4.766	-7.653	-4.225	-2.420	664.062
5.601	3.565	0.967	3.218	2.892	0.969	-1.977	-4.239	-7.038	-6.848	-6.651	-3.666	0.743	2.792	6.935	4.715	6.041	5.178	6.090	5.157	4.589	5.080	4.684	-0.642	-4.251	-7.353	-4.218	-2.178	667.969
5.516	3.413	0.793	2.986	2.557	0.821	-2.239	-4.206	-6.990	-6.991	-6.581	-3.501	0.501	2.522	6.955	4.570	5.943	5.235	6.053	4.918	4.284	5.009	4.793	-0.617	-3.751	-7.068	-4.219	-1.982	671.875
5.508	3.331	0.679	2.810	2.236	0.699	-2.533	-4.231	-7.001	-7.166	-6.572	-3.435	0.268	2.268	7.015	4.491	5.923	5.331	6.055	4.737	4.013	4.948	4.903	-0.602	-3.336	-6.849	-4.237	-1.855	675.781
5.586	3.315	0.643	2.697	1.955	0.608	-2.831	-4.320	-7.079	-7.362	-6.629	-3.468	0.062	2.047	7.119	4.475	5.981	5.474	6.093	4.620	3.795	4.895	5.002	-0.604	-3.062	-6.734	-4.273	-1.803	679.688
5.739	3.347	0.686	2.641	1.730	0.547	-3.101	-4.463	-7.215	-7.556	-6.741	-3.580	-0.100	1.877	7.258	4.508	6.105	5.657	6.155	4.558	3.638	4.847	5.077	-0.625	-2.965	-6.738	-4.321	-1.823	683.594
5.943	3.405	0.796	2.632	1.573	0.507	-3.310	-4.635	-7.384	-7.723	-6.885	-3.744	-0.204	1.769	7.415	4.569	6.272	5.865	6.227	4.537	3.548	4.801	5.117	-0.664	-3.054	-6.853	-4.375	-1.896	687.500
6.163	3.464	0.952	2.655	1.486	0.478	-3.435	-4.805	-7.553	-7.835	-7.030	-3.924	-0.244	1.727	7.564	4.636	6.452	6.074	6.292	4.542	3.521	4.754	5.109	-0.713	-3.314	-7.051	-4.421	-1.997	691.406
6.361	3.504	1.122	2.694	1.466	0.451	-3.467	-4.943	-7.688	-7.875	-7.143	-4.084	-0.215	1.749	7.679	4.687	6.613	6.253	6.336	4.556	3.551	4.702	5.046	-0.765	-3.706	-7.289	-4.450	-2.096	695.312
6.501	3.512	1.273	2.735	1.500	0.421	-3.412	-5.020	-7.764	-7.835	-7.198	-4.193	-0.122	1.827	7.735	4.705	6.728	6.373	6.348	4.569	3.627	4.644	4.926	-0.812	-4.176	-7.514	-4.448	-2.162	699.219
6.556	3.478	1.378	2.766	1.573	0.388	-3.288	-5.022	-7.765	-7.717	-7.173	-4.226	0.029	1.944	7.716	4.681	6.779	6.414	6.323	4.567	3.729	4.579	4.755	-0.842	-4.659	-7.679	-4.407	-2.169	703.125
6.511	3.401	1.414	2.776	1.660	0.359	-3.125	-4.946	-7.690	-7.532	-7.061	-4.168	0.224	2.079	7.616	4.605	6.754	6.366	6.257	4.541	3.831	4.507	4.546	-0.847	-5.088	-7.743	-4.317	-2.098	707.031
6.366	3.280	1.371	2.757	1.737	0.339	-2.952	-4.805	-7.549	-7.298	-6.865	-4.018	0.446	2.208	7.435	4.474	6.653	6.232	6.150	4.477	3.905	4.425	4.317	-0.820	-5.407	-7.684	-4.172	-1.939	710.938
6.131	3.118	1.251	2.698	1.777	0.332	-2.797	-4.623	-7.359	-7.032	-6.598	-3.783	0.678	2.309	7.184	4.285	6.482	6.028	6.003	4.359	3.920	4.334	4.090	-0.752	-5.573	-7.497	-3.968	-1.693	714.844
5.826	2.917	1.066	2.591	1.758	0.335	-2.679	-4.429	-7.141	-6.750	-6.277	-3.476	0.905	2.362	6.877	4.039	6.249	5.775	5.817	4.174	3.850	4.230	3.886	-0.638	-5.565	-7.195	-3.701	-1.367	718.750
5.474	2.678	0.833	2.427	1.660	0.333	-2.607	-4.255	-6.915	-6.461	-5.923	-3.117	1.115	2.359	6.528	3.736	5.965	5.496	5.595	3.912	3.682	4.113	3.721	-0.474	-5.382	-6.798	-3.369	-0.971	722.656
5.096	2.401	0.572	2.202	1.475	0.307	-2.578	-4.125	-6.697	-6.168	-5.554	-2.723	1.303	2.302	6.149	3.382	5.640	5.210	5.339	3.569	3.420	3.982	3.606	-0.260	-5.045	-6.334	-2.974	-0.519	726.562
4.712	2.086	0.297	1.915	1.206	0.237	-2.581	-4.056	-6.497	-5.872	-5.184	-2.310	1.472	2.202	5.752	2.987	5.288	4.931	5.053	3.155	3.084	3.838	3.541	0.003	-4.588	-5.831	-2.519	-0.020	730.469
4.332	1.740	0.020	1.574	0.865	0.106	-2.599	-4.052	-6.321	-5.571	-4.822	-1.889	1.628	2.079	5.348	2.566	4.920	4.666	4.746	2.692	2.710	3.684	3.521	0.305	-4.061	-5.316	-2.017	0.515	734.375
3.968	1.372	-0.254	1.196	0.476	-0.095	-2.620	-4.107	-6.172	-5.267	-4.475	-1.468	1.776	1.958	4.950	2.143	4.557	4.420	4.432	2.215	2.340	3.525	3.534	0.631	-3.517	-4.811	-1.488	1.074	738.281
3.629	1.000	-0.522	0.806	0.072	-0.357	-2.634	-4.209	-6.053	-4.968	-4.150	-1.057	1.922	1.858	4.576	1.749	4.218	4.196	4.129	1.764	2.019	3.367	3.567	0.958	-3.009	-4.340	-0.963	1.640	742.188
3.328	0.650	-0.780	0.435	-0.312	-0.664	-2.638	-4.343	-5.966	-4.690	-3.855	-0.668	2.067	1.795	4.247	1.417	3.931	4.000	3.859	1.383	1.780	3.220	3.605	1.259	-2.583	-3.923	-0.478	2.191	746.094
3.081	0.351	-1.020	0.117	-0.639	-0.986	-2.637	-4.497	-5.917	-4.453	-3.603	-0.316	2.206	1.776	3.986	1.179	3.718	3.840	3.644	1.110	1.646	3.097	3.635	1.508	-2.278	-3.583	-0.070	2.704	750.000
2.904	0.133	-1.233	-0.120	-0.880	-1.293	-2.640	-4.662	-5.911	-4.276	-3.411	-0.021	2.332	1.800	3.812	1.060	3.597	3.724	3.501	0.968	1.622	3.005	3.649	1.682	-2.114	-3.339	0.229	3.150	753.906
2.810	0.016	-1.405	-0.256	-1.019	-1.554	-2.656	-4.828	-5.951	-4.175	-3.292	0.201	2.439	1.857	3.734	1.070	3.576	3.660	3.440	0.966	1.694	2.952	3.642	1.768	-2.097	-3.203	0.400	3.506	757.812
2.804	0.010	-1.525	-0.285	-1.050	-1.749	-2.689	-4.987	-6.032	-4.155	-3.255	0.334	2.518	1.935	3.754	1.207	3.651	3.650	3.459	1.092	1.839	2.935	3.611	1.762	-2.213	-3.178	0.439	3.756	761.719
2.878	0.106	-1.586	-0.217	-0.982	-1.863	-2.737	-5.128	-6.146	-4.207	-3.300	0.369	2.568	2.022	3.858	1.448	3.805	3.690	3.544	1.320	2.027	2.948	3.560	1.675	-2.437	-3.259	0.357	3.890	765.625
3.013	0.282	-1.587	-0.072	-0.830	-1.892	-2.790	-5.235	-6.277	-4.314	-3.415	0.304	2.588	2.108	4.025	1.759	4.014	3.770	3.677	1.610	2.227	2.979	3.489	1.523	-2.734	-3.430	0.179	3.908	769.531
3.180	0.506	-1.537	0.122	-0.616	-1.839	-2.833	-5.287	-6.406	-4.453	-3.578	0.137	2.580	2.190	4.227	2.103	4.246	3.872	3.833	1.923	2.416	3.015	3.404	1.331	-3.064	-3.670	-0.064	3.818	773.438
3.348	0.743	-1.448	0.339	-0.362	-1.712	-2.847	-5.265	-6.516	-4.597	-3.764	-0.127	2.548	2.267	4.440	2.440	4.476	3.979	3.990	2.221	2.578	3.045	3.307	1.122	-3.395	-3.958	-0.338	3.631	777.344
3.489	0.960	-1.340	0.553	-0.085	-1.525	-2.816	-5.156	-6.593	-4.726	-3.946	-0.483	2.496	2.347	4.643	2.743	4.682	4.072	4.132	2.479	2.710	3.061	3.202	0.915	-3.700	-4.272	-0.619	3.361	781.250
3.584	1.139	-1.227	0.750	0.200	-1.293	-2.732	-4.955	-6.630	-4.828	-4.107	-0.922	2.428	2.434	4.823	2.996	4.853	4.140	4.250	2.685	2.815	3.061	3.093	0.723	-3.967	-4.597	-0.888	3.026	785.156
3.628	1.270	-1.122	0.924	0.487	-1.032	-2.596	-4.669	-6.629	-4.898	-4.237	-1.428	2.350	2.535	4.978	3.198	4.988	4.178	4.343	2.841	2.904	3.047	2.983	0.552	-4.195	-4.922	-1.136	2.644	789.062
3.627	1.360	-1.031	1.074	0.771	-0.757	-2.418	-4.321	-6.600	-4.940	-4.337	-1.982	2.265	2.650	5.111	3.360	5.095	4.189	4.415	2.959	2.986	3.022	2.871	0.401	-4.392	-5.243	-1.363	2.235	792.969
3.598	1.422	-0.954	1.208	1.049	-0.483	-2.215	-3.940	-6.555	-4.963	-4.416	-2.555	2.180	2.776	5.229	3.498	5.185	4.183	4.474	3.055	3.067	2.990	2.760	0.263	-4.571	-5.556	-1.575	1.821	796.875
