FP1	F3	F7	FC3	C3	C5	P3	P7	PO7	PO3	O1	Oz	Pz	CPz	FP2	Fz	F4	F8	FC4	FCz	Cz	C4	C6	P4	P8	PO8	PO4	O2	time
-0.404	0.011	-0.563	0.263	-0.094	0.580	-0.087	-0.294	0.296	0.004	0.235	0.871	-0.077	0.030	-1.112	0.113	-0.914	-1.002	-0.795	-0.092	0.299	-0.347	-0.387	0.879	1.231	1.807	1.537	1.609	-199.219
-0.049	0.182	-0.408	0.261	-0.107	0.361	-0.183	-0.249	0.064	-0.164	0.115	0.539	-0.174	0.148	-0.710	0.335	-0.462	-0.703	-0.398	0.215	0.512	-0.067	-0.226	0.587	0.690	1.102	1.044	1.056	-195.312
0.299	0.347	-0.251	0.279	-0.101	0.176	-0.259	-0.220	-0.172	-0.320	-0.021	0.216	-0.255	0.266	-0.319	0.553	-0.028	-0.413	-0.017	0.506	0.712	0.203	-0.067	0.312	0.172	0.427	0.570	0.515	-191.406
0.625	0.494	-0.094	0.326	-0.060	0.049	-0.291	-0.210	-0.403	-0.445	-0.180	-0.079	-0.300	0.388	0.041	0.756	0.363	-0.148	0.326	0.764	0.891	0.448	0.085	0.071	-0.300	-0.185	0.138	0.004	-187.500
0.909	0.612	0.052	0.405	0.029	-0.004	-0.257	-0.212	-0.614	-0.520	-0.354	-0.326	-0.290	0.518	0.347	0.932	0.689	0.072	0.609	0.976	1.043	0.650	0.219	-0.123	-0.709	-0.709	-0.235	-0.458	-183.594
1.127	0.691	0.177	0.508	0.168	0.017	-0.142	-0.212	-0.779	-0.526	-0.527	-0.508	-0.212	0.656	0.578	1.063	0.931	0.231	0.816	1.132	1.165	0.796	0.322	-0.262	-1.041	-1.129	-0.531	-0.856	-179.688
1.261	0.723	0.265	0.619	0.351	0.099	0.056	-0.192	-0.873	-0.449	-0.673	-0.613	-0.063	0.801	0.717	1.137	1.078	0.317	0.936	1.228	1.254	0.872	0.382	-0.342	-1.293	-1.436	-0.740	-1.177	-175.781
1.296	0.707	0.304	0.718	0.560	0.220	0.326	-0.135	-0.872	-0.287	-0.767	-0.634	0.151	0.949	0.758	1.143	1.130	0.326	0.967	1.265	1.312	0.879	0.396	-0.367	-1.462	-1.632	-0.860	-1.409	-171.875
1.230	0.640	0.284	0.782	0.766	0.348	0.642	-0.030	-0.768	-0.049	-0.792	-0.575	0.414	1.094	0.701	1.078	1.095	0.261	0.918	1.249	1.342	0.825	0.365	-0.342	-1.545	-1.720	-0.894	-1.548	-167.969
1.071	0.529	0.203	0.790	0.935	0.448	0.966	0.121	-0.567	0.239	-0.743	-0.445	0.697	1.224	0.560	0.949	0.992	0.138	0.807	1.191	1.347	0.729	0.302	-0.274	-1.540	-1.709	-0.853	-1.591	-164.062
0.842	0.378	0.065	0.729	1.031	0.491	1.251	0.304	-0.294	0.542	-0.631	-0.260	0.967	1.324	0.363	0.769	0.847	-0.019	0.657	1.102	1.331	0.617	0.229	-0.171	-1.444	-1.606	-0.751	-1.542	-160.156
0.570	0.199	-0.119	0.592	1.025	0.452	1.452	0.497	0.011	0.817	-0.479	-0.042	1.187	1.377	0.140	0.558	0.690	-0.176	0.497	0.990	1.289	0.520	0.172	-0.040	-1.254	-1.419	-0.603	-1.411	-156.250
0.290	0.002	-0.331	0.385	0.900	0.321	1.528	0.668	0.299	1.019	-0.319	0.182	1.325	1.366	-0.069	0.340	0.552	-0.298	0.353	0.866	1.217	0.462	0.155	0.113	-0.972	-1.160	-0.423	-1.210	-152.344
0.035	-0.200	-0.552	0.122	0.655	0.100	1.459	0.787	0.524	1.117	-0.182	0.386	1.354	1.280	-0.229	0.140	0.460	-0.351	0.249	0.734	1.108	0.461	0.197	0.279	-0.611	-0.844	-0.225	-0.962	-148.438
-0.170	-0.392	-0.761	-0.176	0.311	-0.194	1.240	0.828	0.651	1.092	-0.091	0.547	1.264	1.118	-0.310	-0.021	0.433	-0.314	0.203	0.600	0.957	0.523	0.304	0.450	-0.195	-0.495	-0.020	-0.693	-144.531
-0.307	-0.563	-0.944	-0.481	-0.094	-0.531	0.896	0.778	0.666	0.948	-0.057	0.647	1.060	0.888	-0.299	-0.129	0.475	-0.179	0.222	0.469	0.768	0.641	0.469	0.613	0.239	-0.140	0.179	-0.431	-140.625
-0.374	-0.700	-1.087	-0.763	-0.510	-0.874	0.469	0.638	0.571	0.709	-0.076	0.682	0.764	0.612	-0.197	-0.176	0.579	0.041	0.302	0.349	0.553	0.796	0.670	0.755	0.649	0.188	0.363	-0.200	-136.719
-0.379	-0.797	-1.185	-0.995	-0.881	-1.182	0.016	0.424	0.392	0.414	-0.129	0.657	0.412	0.321	-0.023	-0.168	0.722	0.314	0.425	0.245	0.330	0.960	0.875	0.859	0.992	0.463	0.521	-0.016	-132.812
-0.340	-0.848	-1.233	-1.155	-1.156	-1.419	-0.401	0.164	0.165	0.113	-0.192	0.589	0.049	0.048	0.187	-0.116	0.873	0.596	0.567	0.163	0.123	1.101	1.049	0.913	1.230	0.662	0.645	0.113	-128.906
-0.278	-0.851	-1.229	-1.224	-1.298	-1.556	-0.727	-0.104	-0.069	-0.152	-0.240	0.498	-0.283	-0.178	0.396	-0.038	0.996	0.842	0.697	0.104	-0.047	1.187	1.156	0.908	1.339	0.774	0.729	0.192	-125.000
-0.214	-0.808	-1.172	-1.197	-1.290	-1.577	-0.927	-0.346	-0.270	-0.344	-0.252	0.405	-0.549	-0.338	0.567	0.050	1.063	1.011	0.786	0.071	-0.166	1.195	1.175	0.841	1.312	0.800	0.764	0.230	-121.094
-0.163	-0.719	-1.059	-1.074	-1.138	-1.481	-0.989	-0.531	-0.410	-0.448	-0.222	0.324	-0.729	-0.424	0.674	0.133	1.053	1.082	0.814	0.062	-0.229	1.114	1.095	0.714	1.159	0.746	0.748	0.237	-117.188
-0.130	-0.590	-0.893	-0.867	-0.867	-1.280	-0.923	-0.639	-0.477	-0.465	-0.155	0.263	-0.817	-0.442	0.709	0.202	0.963	1.049	0.772	0.075	-0.238	0.946	0.922	0.536	0.901	0.624	0.675	0.220	-113.281
-0.112	-0.426	-0.678	-0.594	-0.518	-0.998	-0.763	-0.667	-0.471	-0.411	-0.068	0.216	-0.822	-0.405	0.680	0.256	0.803	0.926	0.663	0.109	-0.203	0.707	0.676	0.321	0.570	0.447	0.544	0.177	-109.375
-0.099	-0.236	-0.422	-0.278	-0.133	-0.662	-0.547	-0.622	-0.406	-0.311	0.017	0.174	-0.762	-0.328	0.603	0.299	0.593	0.739	0.504	0.162	-0.136	0.425	0.388	0.085	0.203	0.229	0.360	0.103	-105.469
-0.083	-0.028	-0.139	0.053	0.244	-0.303	-0.320	-0.524	-0.306	-0.192	0.079	0.126	-0.661	-0.230	0.502	0.335	0.357	0.515	0.313	0.228	-0.051	0.130	0.088	-0.152	-0.161	-0.014	0.131	-0.008	-101.562
-0.055	0.182	0.154	0.373	0.576	0.052	-0.117	-0.396	-0.192	-0.076	0.105	0.062	-0.540	-0.127	0.393	0.367	0.118	0.280	0.111	0.301	0.039	-0.151	-0.196	-0.372	-0.487	-0.263	-0.124	-0.157	-97.656
-0.015	0.379	0.435	0.655	0.838	0.378	0.041	-0.261	-0.084	0.021	0.092	-0.020	-0.419	-0.034	0.289	0.394	-0.108	0.051	-0.084	0.367	0.118	-0.396	-0.441	-0.555	-0.741	-0.491	-0.377	-0.335	-93.750
0.027	0.545	0.682	0.874	1.010	0.657	0.141	-0.140	0.005	0.090	0.048	-0.115	-0.311	0.036	0.191	0.408	-0.309	-0.160	-0.260	0.409	0.169	-0.594	-0.637	-0.684	-0.894	-0.671	-0.597	-0.522	-89.844
0.057	0.661	0.875	1.010	1.082	0.873	0.188	-0.044	0.072	0.132	-0.009	-0.214	-0.220	0.074	0.095	0.402	-0.480	-0.346	-0.412	0.410	0.175	-0.742	-0.777	-0.747	-0.925	-0.773	-0.751	-0.691	-85.938
0.058	0.710	0.996	1.050	1.052	1.015	0.191	0.025	0.120	0.150	-0.060	-0.304	-0.149	0.071	-0.005	0.363	-0.620	-0.504	-0.536	0.351	0.120	-0.845	-0.860	-0.735	-0.826	-0.771	-0.811	-0.812	-82.031
0.014	0.684	1.039	0.986	0.924	1.078	0.165	0.070	0.157	0.153	-0.082	-0.371	-0.093	0.022	-0.113	0.283	-0.729	-0.626	-0.629	0.221	-0.005	-0.910	-0.889	-0.650	-0.604	-0.655	-0.763	-0.860	-78.125
-0.079	0.580	1.002	0.826	0.709	1.064	0.124	0.099	0.195	0.149	-0.063	-0.405	-0.051	-0.069	-0.232	0.160	-0.809	-0.709	-0.691	0.018	-0.200	-0.947	-0.866	-0.502	-0.280	-0.426	-0.609	-0.818	-74.219
-0.218	0.408	0.899	0.583	0.426	0.978	0.079	0.120	0.243	0.144	0.006	-0.401	-0.020	-0.197	-0.358	-0.005	-0.861	-0.747	-0.723	-0.245	-0.449	-0.960	-0.797	-0.312	0.109	-0.105	-0.368	-0.686	-70.312
-0.387	0.186	0.749	0.284	0.102	0.833	0.036	0.141	0.305	0.141	0.119	-0.365	0.001	-0.349	-0.483	-0.200	-0.890	-0.739	-0.726	-0.546	-0.728	-0.957	-0.693	-0.104	0.518	0.272	-0.073	-0.474	-66.406
-0.563	-0.057	0.579	-0.037	-0.232	0.644	-0.006	0.162	0.379	0.139	0.262	-0.304	0.010	-0.508	-0.600	-0.410	-0.901	-0.691	-0.708	-0.853	-1.004	-0.938	-0.565	0.093	0.899	0.661	0.237	-0.207	-62.500
-0.720	-0.291	0.417	-0.344	-0.543	0.433	-0.051	0.183	0.458	0.133	0.413	-0.233	0.004	-0.659	-0.696	-0.614	-0.901	-0.611	-0.677	-1.130	-1.241	-0.908	-0.429	0.254	1.207	1.016	0.518	0.085	-58.594
-0.833	-0.485	0.286	-0.603	-0.800	0.221	-0.104	0.199	0.528	0.115	0.550	-0.164	-0.020	-0.787	-0.762	-0.791	-0.895	-0.509	-0.642	-1.346	-1.410	-0.869	-0.301	0.357	1.411	1.293	0.733	0.370	-54.688
-0.887	-0.617	0.201	-0.786	-0.978	0.032	-0.170	0.203	0.576	0.079	0.650	-0.108	-0.061	-0.884	-0.790	-0.925	-0.887	-0.398	-0.612	-1.477	-1.494	-0.825	-0.197	0.393	1.492	1.464	0.857	0.622	-50.781
-0.874	-0.673	0.167	-0.877	-1.061	-0.118	-0.247	0.192	0.592	0.024	0.699	-0.068	-0.117	-0.945	-0.774	-1.005	-0.878	-0.289	-0.595	-1.515	-1.491	-0.781	-0.129	0.359	1.448	1.513	0.877	0.821	-46.875
-0.799	-0.653	0.178	-0.875	-1.046	-0.215	-0.329	0.163	0.569	-0.049	0.693	-0.043	-0.178	-0.970	-0.714	-1.030	-0.867	-0.186	-0.591	-1.466	-1.411	-0.739	-0.101	0.263	1.292	1.447	0.796	0.961	-42.969
-0.677	-0.568	0.218	-0.790	-0.941	-0.254	-0.407	0.118	0.507	-0.132	0.637	-0.027	-0.236	-0.963	-0.613	-1.009	-0.848	-0.093	-0.596	-1.348	-1.277	-0.702	-0.112	0.123	1.050	1.281	0.632	1.049	-39.062
-0.525	-0.439	0.270	-0.645	-0.766	-0.240	-0.467	0.058	0.411	-0.218	0.542	-0.016	-0.278	-0.928	-0.480	-0.955	-0.818	-0.010	-0.600	-1.189	-1.116	-0.667	-0.150	-0.041	0.751	1.046	0.409	1.097	-35.156
-0.362	-0.287	0.317	-0.464	-0.546	-0.181	-0.501	-0.013	0.287	-0.296	0.427	-0.008	-0.293	-0.870	-0.326	-0.884	-0.772	0.065	-0.592	-1.019	-0.952	-0.627	-0.202	-0.207	0.426	0.773	0.161	1.124	-31.250
-0.203	-0.132	0.351	-0.273	-0.310	-0.091	-0.504	-0.094	0.140	-0.363	0.307	-0.004	-0.274	-0.795	-0.165	-0.811	-0.708	0.132	-0.558	-0.860	-0.806	-0.577	-0.251	-0.355	0.103	0.492	-0.084	1.146	-27.344
-0.054	0.016	0.368	-0.089	-0.087	0.016	-0.477	-0.183	-0.024	-0.414	0.197	-0.014	-0.222	-0.707	-0.010	-0.742	-0.630	0.190	-0.493	-0.731	-0.689	-0.509	-0.287	-0.470	-0.198	0.227	-0.300	1.173	-23.438
0.083	0.153	0.377	0.079	0.103	0.126	-0.428	-0.276	-0.198	-0.453	0.105	-0.049	-0.143	-0.612	0.127	-0.678	-0.544	0.235	-0.397	-0.637	-0.604	-0.422	-0.302	-0.547	-0.461	-0.006	-0.473	1.204	-19.531
0.209	0.284	0.391	0.229	0.248	0.231	-0.369	-0.368	-0.370	-0.484	0.036	-0.122	-0.053	-0.517	0.236	-0.613	-0.461	0.261	-0.282	-0.573	-0.549	-0.324	-0.300	-0.588	-0.677	-0.199	-0.596	1.232	-15.625
0.328	0.416	0.424	0.366	0.344	0.328	-0.312	-0.449	-0.528	-0.510	-0.009	-0.243	0.027	-0.431	0.308	-0.540	-0.394	0.259	-0.168	-0.530	-0.517	-0.231	-0.291	-0.602	-0.840	-0.349	-0.674	1.243	-11.719
0.436	0.554	0.483	0.498	0.398	0.417	-0.265	-0.502	-0.651	-0.533	-0.029	-0.412	0.079	-0.363	0.337	-0.455	-0.356	0.222	-0.079	-0.497	-0.501	-0.163	-0.292	-0.602	-0.946	-0.456	-0.716	1.228	-7.812
0.526	0.694	0.571	0.626	0.421	0.505	-0.232	-0.510	-0.715	-0.548	-0.023	-0.622	0.084	-0.321	0.320	-0.361	-0.358	0.145	-0.039	-0.467	-0.495	-0.145	-0.316	-0.602	-0.990	-0.518	-0.735	1.184	-3.906
0.583	0.824	0.675	0.746	0.424	0.594	-0.208	-0.456	-0.698	-0.547	0.015	-0.854	0.033	-0.312	0.253	-0.268	-0.409	0.029	-0.065	-0.436	-0.498	-0.193	-0.376	-0.613	-0.972	-0.534	-0.740	1.121	0.000
0.593	0.924	0.778	0.845	0.418	0.687	-0.183	-0.329	-0.581	-0.517	0.093	-1.079	-0.071	-0.337	0.139	-0.195	-0.510	-0.119	-0.160	-0.411	-0.508	-0.313	-0.473	-0.639	-0.895	-0.503	-0.735	1.063	3.906
0.544	0.973	0.852	0.907	0.405	0.780	-0.145	-0.127	-0.360	-0.445	0.218	-1.268	-0.217	-0.395	-0.017	-0.162	-0.655	-0.287	-0.316	-0.399	-0.529	-0.498	-0.600	-0.677	-0.767	-0.425	-0.720	1.041	7.812
0.430	0.955	0.876	0.917	0.386	0.867	-0.084	0.139	-0.043	-0.323	0.397	-1.391	-0.386	-0.481	-0.204	-0.187	-0.833	-0.459	-0.511	-0.413	-0.565	-0.730	-0.739	-0.719	-0.604	-0.305	-0.690	1.089	11.719
0.258	0.861	0.833	0.862	0.356	0.938	0.006	0.446	0.341	-0.153	0.628	-1.430	-0.553	-0.588	-0.408	-0.280	-1.026	-0.619	-0.717	-0.461	-0.619	-0.979	-0.873	-0.754	-0.425	-0.154	-0.639	1.230	15.625
0.045	0.700	0.720	0.745	0.309	0.983	0.117	0.760	0.752	0.055	0.900	-1.378	-0.699	-0.709	-0.609	-0.440	-1.216	-0.751	-0.905	-0.547	-0.695	-1.215	-0.979	-0.771	-0.254	0.010	-0.564	1.472	19.531
-0.178	0.491	0.546	0.576	0.244	0.995	0.238	1.044	1.138	0.278	1.189	-1.246	-0.808	-0.835	-0.785	-0.651	-1.381	-0.842	-1.048	-0.666	-0.794	-1.409	-1.041	-0.762	-0.110	0.167	-0.467	1.801	23.438
-0.376	0.266	0.337	0.379	0.160	0.966	0.349	1.261	1.450	0.486	1.464	-1.064	-0.878	-0.963	-0.914	-0.886	-1.502	-0.880	-1.128	-0.805	-0.913	-1.537	-1.046	-0.726	-0.006	0.296	-0.358	2.180	27.344
-0.513	0.060	0.122	0.182	0.063	0.896	0.426	1.383	1.646	0.646	1.682	-0.873	-0.913	-1.088	-0.976	-1.111	-1.561	-0.859	-1.134	-0.944	-1.048	-1.586	-0.989	-0.665	0.055	0.381	-0.253	2.558	31.250
-0.561	-0.094	-0.062	0.014	-0.038	0.785	0.449	1.395	1.700	0.724	1.802	-0.728	-0.928	-1.208	-0.957	-1.291	-1.546	-0.774	-1.060	-1.059	-1.189	-1.552	-0.868	-0.588	0.083	0.415	-0.168	2.877	35.156
-0.503	-0.171	-0.189	-0.102	-0.134	0.640	0.404	1.292	1.603	0.695	1.788	-0.683	-0.942	-1.322	-0.851	-1.396	-1.449	-0.625	-0.910	-1.129	-1.322	-1.440	-0.684	-0.502	0.099	0.403	-0.118	3.083	39.062
-0.341	-0.161	-0.239	-0.151	-0.217	0.470	0.289	1.084	1.368	0.549	1.619	-0.784	-0.973	-1.427	-0.663	-1.409	-1.274	-0.418	-0.694	-1.137	-1.436	-1.262	-0.446	-0.414	0.134	0.366	-0.105	3.142	42.969
-0.096	-0.072	-0.212	-0.135	-0.284	0.289	0.111	0.796	1.029	0.293	1.296	-1.056	-1.037	-1.521	-0.414	-1.333	-1.035	-0.168	-0.433	-1.082	-1.521	-1.039	-0.170	-0.322	0.221	0.341	-0.119	3.044	46.875
0.187	0.071	-0.122	-0.069	-0.336	0.111	-0.111	0.465	0.642	-0.043	0.849	-1.495	-1.142	-1.606	-0.143	-1.191	-0.766	0.096	-0.156	-0.976	-1.576	-0.800	0.123	-0.222	0.397	0.379	-0.132	2.812	50.781
0.451	0.225	-0.001	0.017	-0.385	-0.050	-0.350	0.139	0.274	-0.410	0.336	-2.064	-1.290	-1.686	0.098	-1.025	-0.512	0.339	0.097	-0.849	-1.608	-0.576	0.404	-0.102	0.688	0.540	-0.106	2.503	54.688
0.626	0.341	0.109	0.086	-0.444	-0.185	-0.572	-0.125	0.002	-0.746	-0.164	-2.697	-1.477	-1.768	0.248	-0.893	-0.328	0.516	0.281	-0.746	-1.635	-0.404	0.641	0.054	1.114	0.885	0.008	2.192	58.594
0.646	0.369	0.162	0.097	-0.532	-0.292	-0.748	-0.272	-0.106	-0.982	-0.562	-3.312	-1.690	-1.864	0.248	-0.851	-0.264	0.586	0.352	-0.713	-1.684	-0.311	0.801	0.261	1.679	1.460	0.252	1.967	62.500
0.464	0.266	0.121	0.016	-0.662	-0.374	-0.856	-0.257	0.004	-1.065	-0.781	-3.827	-1.918	-1.983	0.058	-0.948	-0.359	0.519	0.281	-0.794	-1.779	-0.318	0.862	0.529	2.372	2.288	0.657	1.902	66.406
0.060	0.016	-0.037	-0.175	-0.844	-0.437	-0.885	-0.056	0.354	-0.965	-0.774	-4.184	-2.144	-2.132	-0.337	-1.207	-0.626	0.305	0.056	-1.012	-1.941	-0.428	0.818	0.861	3.164	3.353	1.226	2.043	70.312
-0.549	-0.375	-0.310	-0.473	-1.074	-0.490	-0.841	0.326	0.927	-0.687	-0.538	-4.362	-2.355	-2.312	-0.912	-1.619	-1.043	-0.037	-0.305	-1.366	-2.177	-0.627	0.676	1.246	4.011	4.596	1.931	2.389	74.219
-1.302	-0.866	-0.673	-0.852	-1.338	-0.537	-0.741	0.856	1.669	-0.273	-0.120	-4.389	-2.537	-2.510	-1.606	-2.143	-1.557	-0.461	-0.759	-1.825	-2.475	-0.884	0.462	1.663	4.858	5.917	2.714	2.886	78.125
-2.110	-1.396	-1.082	-1.265	-1.607	-0.582	-0.610	1.474	2.497	0.209	0.386	-4.338	-2.673	-2.706	-2.326	-2.711	-2.089	-0.903	-1.241	-2.333	-2.804	-1.156	0.217	2.082	5.649	7.189	3.490	3.432	82.031
-2.866	-1.889	-1.481	-1.653	-1.845	-0.619	-0.474	2.107	3.308	0.677	0.860	-4.309	-2.750	-2.869	-2.968	-3.240	-2.551	-1.291	-1.675	-2.816	-3.118	-1.395	-0.016	2.468	6.334	8.272	4.165	3.892	85.938
-3.463	-2.270	-1.811	-1.957	-2.012	-0.642	-0.354	2.684	4.003	1.051	1.175	-4.414	-2.752	-2.965	-3.432	-3.648	-2.858	-1.559	-1.991	-3.199	-3.364	-1.555	-0.192	2.789	6.874	9.037	4.644	4.124	89.844
-3.811	-2.477	-2.018	-2.124	-2.071	-0.638	-0.262	3.146	4.499	1.267	1.223	-4.747	-2.671	-2.963	-3.638	-3.870	-2.948	-1.659	-2.134	-3.417	-3.491	-1.604	-0.274	3.013	7.249	9.387	4.851	4.007	93.750
-3.853	-2.470	-2.061	-2.118	-1.995	-0.591	-0.200	3.459	4.742	1.287	0.937	-5.365	-2.506	-2.843	-3.546	-3.866	-2.790	-1.565	-2.078	-3.430	-3.465	-1.526	-0.243	3.115	7.455	9.266	4.732	3.461	97.656
-3.567	-2.235	-1.916	-1.925	-1.774	-0.487	-0.166	3.614	4.714	1.103	0.301	-6.275	-2.271	-2.604	-3.151	-3.631	-2.390	-1.282	-1.823	-3.226	-3.273	-1.325	-0.093	3.077	7.496	8.669	4.270	2.470	101.562
-2.974	-1.789	-1.580	-1.558	-1.418	-0.315	-0.155	3.621	4.428	0.732	-0.649	-7.430	-1.987	-2.266	-2.488	-3.187	-1.784	-0.835	-1.400	-2.826	-2.927	-1.025	0.163	2.891	7.387	7.644	3.479	1.081	105.469
-2.124	-1.174	-1.070	-1.047	-0.952	-0.070	-0.167	3.506	3.926	0.213	-1.829	-8.733	-1.688	-1.863	-1.619	-2.580	-1.033	-0.265	-0.855	-2.275	-2.466	-0.664	0.497	2.556	7.142	6.280	2.411	-0.597	109.375
-1.097	-0.445	-0.424	-0.441	-0.422	0.239	-0.205	3.296	3.263	-0.407	-3.126	-10.058	-1.410	-1.445	-0.622	-1.872	-0.205	0.381	-0.247	-1.635	-1.939	-0.284	0.871	2.089	6.778	4.701	1.145	-2.410	113.281
0.015	0.330	0.301	0.204	0.123	0.593	-0.278	3.016	2.504	-1.075	-4.411	-11.264	-1.187	-1.062	0.418	-1.127	0.629	1.051	0.367	-0.972	-1.407	0.071	1.241	1.516	6.315	3.049	-0.218	-4.183	117.188
1.111	1.082	1.041	0.826	0.630	0.962	-0.396	2.686	1.716	-1.741	-5.560	-12.220	-1.046	-0.760	1.417	-0.406	1.406	1.695	0.933	-0.350	-0.926	0.363	1.565	0.877	5.774	1.467	-1.564	-5.741	121.094
2.094	1.748	1.725	1.372	1.052	1.307	-0.565	2.321	0.963	-2.357	-6.465	-12.819	-1.001	-0.571	2.300	0.235	2.073	2.269	1.406	0.179	-0.543	0.565	1.802	0.221	5.186	0.087	-2.781	-6.933	125.000
2.878	2.277	2.292	1.793	1.355	1.587	-0.782	1.941	0.302	-2.880	-7.045	-12.993	-1.054	-0.509	3.001	0.752	2.587	2.730	1.752	0.572	-0.291	0.659	1.926	-0.401	4.588	-0.985	-3.770	-7.650	128.906
3.396	2.626	2.690	2.053	1.515	1.765	-1.033	1.568	-0.214	-3.275	-7.253	-12.715	-1.191	-0.572	3.467	1.107	2.915	3.040	1.945	0.804	-0.186	0.641	1.919	-0.937	4.023	-1.675	-4.452	-7.834	132.812
3.606	2.771	2.888	2.132	1.526	1.817	-1.293	1.228	-0.546	-3.509	-7.072	-12.002	-1.390	-0.740	3.660	1.274	3.033	3.172	1.969	0.858	-0.225	0.515	1.783	-1.345	3.536	-1.945	-4.778	-7.483	136.719
3.493	2.701	2.878	2.022	1.394	1.732	-1.531	0.953	-0.667	-3.561	-6.524	-10.907	-1.623	-0.985	3.560	1.235	2.925	3.105	1.820	0.734	-0.396	0.292	1.529	-1.595	3.168	-1.795	-4.728	-6.641	140.625
3.068	2.421	2.672	1.733	1.137	1.519	-1.715	0.772	-0.565	-3.417	-5.652	-9.510	-1.861	-1.275	3.169	0.986	2.593	2.837	1.501	0.439	-0.676	-0.012	1.181	-1.671	2.952	-1.257	-4.318	-5.396	144.531
2.367	1.950	2.298	1.287	0.781	1.204	-1.815	0.709	-0.247	-3.078	-4.522	-7.907	-2.080	-1.578	2.510	0.538	2.050	2.379	1.032	-0.006	-1.035	-0.377	0.771	-1.576	2.907	-0.389	-3.588	-3.856	148.438
1.445	1.320	1.794	0.716	0.355	0.821	-1.815	0.778	0.262	-2.559	-3.212	-6.199	-2.264	-1.873	1.631	-0.084	1.331	1.760	0.441	-0.573	-1.447	-0.784	0.332	-1.327	3.036	0.730	-2.604	-2.141	152.344
0.365	0.568	1.201	0.060	-0.111	0.412	-1.711	0.981	0.928	-1.887	-1.799	-4.477	-2.405	-2.146	0.593	-0.839	0.483	1.021	-0.234	-1.226	-1.885	-1.212	-0.108	-0.953	3.324	2.017	-1.442	-0.363	156.250
-0.803	-0.262	0.553	-0.641	-0.589	0.013	-1.512	1.303	1.706	-1.096	-0.359	-2.819	-2.502	-2.391	-0.532	-1.676	-0.436	0.214	-0.949	-1.923	-2.326	-1.641	-0.524	-0.489	3.743	3.386	-0.181	1.384	160.156
-1.997	-1.128	-0.119	-1.350	-1.059	-0.349	-1.239	1.720	2.550	-0.232	1.047	-1.281	-2.560	-2.613	-1.671	-2.539	-1.365	-0.609	-1.659	-2.622	-2.756	-2.052	-0.899	0.027	4.260	4.767	1.105	3.032	164.062
-3.163	-1.989	-0.795	-2.039	-1.505	-0.662	-0.918	2.202	3.417	0.665	2.368	0.098	-2.588	-2.820	-2.764	-3.377	-2.251	-1.401	-2.324	-3.288	-3.164	-2.428	-1.221	0.561	4.839	6.102	2.352	4.539	167.969
-4.257	-2.812	-1.460	-2.686	-1.920	-0.924	-0.577	2.716	4.273	1.553	3.572	1.305	-2.596	-3.026	-3.766	-4.148	-3.052	-2.127	-2.915	-3.892	-3.547	-2.755	-1.488	1.087	5.453	7.356	3.515	5.888	171.875
-5.255	-3.572	-2.104	-3.280	-2.302	-1.145	-0.239	3.234	5.096	2.401	4.644	2.338	-2.596	-3.242	-4.655	-4.827	-3.747	-2.769	-3.418	-4.423	-3.904	-3.024	-1.698	1.584	6.083	8.513	4.567	7.082	175.781
-6.144	-4.257	-2.722	-3.820	-2.650	-1.341	0.080	3.737	5.879	3.187	5.579	3.212	-2.595	-3.477	-5.430	-5.406	-4.332	-3.324	-3.833	-4.880	-4.244	-3.231	-1.854	2.045	6.723	9.573	5.495	8.133	179.688
-6.921	-4.862	-3.309	-4.309	-2.966	-1.523	0.374	4.214	6.621	3.902	6.386	3.948	-2.601	-3.734	-6.103	-5.894	-4.820	-3.803	-4.172	-5.278	-4.571	-3.377	-1.961	2.467	7.374	10.542	6.302	9.055	183.594
-7.596	-5.394	-3.861	-4.752	-3.247	-1.702	0.644	4.665	7.331	4.543	7.077	4.569	-2.618	-4.010	-6.698	-6.311	-5.233	-4.224	-4.455	-5.635	-4.892	-3.466	-2.023	2.853	8.040	11.433	6.997	9.860	187.500
-8.180	-5.863	-4.378	-5.156	-3.489	-1.879	0.896	5.098	8.017	5.114	7.666	5.095	-2.649	-4.295	-7.240	-6.680	-5.595	-4.606	-4.704	-5.973	-5.208	-3.505	-2.046	3.208	8.726	12.255	7.594	10.554	191.406
-8.690	-6.284	-4.858	-5.522	-3.684	-2.049	1.139	5.524	8.687	5.623	8.166	5.539	-2.693	-4.573	-7.746	-7.024	-5.930	-4.966	-4.936	-6.303	-5.515	-3.506	-2.036	3.536	9.429	13.013	8.109	11.138	195.312
-9.139	-6.668	-5.304	-5.852	-3.823	-2.206	1.380	5.953	9.342	6.078	8.586	5.910	-2.747	-4.826	-8.225	-7.358	-6.252	-5.313	-5.162	-6.631	-5.802	-3.477	-1.999	3.838	10.140	13.704	8.552	11.607	199.219
-9.541	-7.022	-5.718	-6.141	-3.901	-2.339	1.623	6.389	9.976	6.486	8.934	6.208	-2.807	-5.034	-8.679	-7.690	-6.569	-5.650	-5.384	-6.951	-6.053	-3.431	-1.943	4.117	10.842	14.321	8.932	11.958	203.125
-9.905	-7.348	-6.103	-6.386	-3.919	-2.443	1.869	6.831	10.581	6.851	9.216	6.436	-2.868	-5.180	-9.098	-8.014	-6.880	-5.976	-5.597	-7.249	-6.253	-3.377	-1.876	4.369	11.512	14.851	9.255	12.189	207.031
-10.234	-7.643	-6.462	-6.583	-3.882	-2.514	2.115	7.269	11.148	7.180	9.441	6.601	-2.924	-5.254	-9.475	-8.323	-7.178	-6.283	-5.796	-7.510	-6.388	-3.323	-1.806	4.592	12.125	15.283	9.524	12.310	210.938
-10.532	-7.900	-6.795	-6.733	-3.806	-2.557	2.357	7.689	11.667	7.477	9.620	6.712	-2.969	-5.254	-9.802	-8.601	-7.454	-6.567	-5.971	-7.721	-6.452	-3.276	-1.741	4.787	12.659	15.612	9.743	12.336	214.844
-10.799	-8.114	-7.100	-6.838	-3.707	-2.578	2.589	8.073	12.130	7.747	9.764	6.786	-2.994	-5.182	-10.077	-8.839	-7.702	-6.826	-6.120	-7.875	-6.448	-3.239	-1.687	4.956	13.100	15.836	9.917	12.294	218.750
-11.034	-8.280	-7.373	-6.905	-3.603	-2.585	2.808	8.404	12.531	7.995	9.881	6.838	-2.987	-5.047	-10.304	-9.028	-7.916	-7.061	-6.239	-7.972	-6.385	-3.210	-1.649	5.103	13.438	15.962	10.053	12.216	222.656
-11.233	-8.398	-7.603	-6.939	-3.509	-2.586	3.010	8.666	12.862	8.225	9.980	6.887	-2.937	-4.860	-10.494	-9.164	-8.096	-7.274	-6.333	-8.019	-6.274	-3.185	-1.626	5.235	13.676	16.003	10.158	12.131	226.562
-11.393	-8.470	-7.780	-6.948	-3.433	-2.585	3.193	8.848	13.115	8.435	10.060	6.944	-2.833	-4.634	-10.659	-9.251	-8.243	-7.473	-6.403	-8.024	-6.130	-3.154	-1.618	5.362	13.820	15.974	10.240	12.067	230.469
-11.509	-8.504	-7.899	-6.938	-3.374	-2.583	3.355	8.944	13.282	8.624	10.117	7.015	-2.667	-4.378	-10.810	-9.295	-8.359	-7.661	-6.454	-7.996	-5.961	-3.108	-1.617	5.489	13.885	15.895	10.303	12.040	234.375
-11.578	-8.510	-7.958	-6.917	-3.331	-2.583	3.498	8.952	13.357	8.784	10.145	7.099	-2.437	-4.102	-10.952	-9.303	-8.447	-7.838	-6.486	-7.938	-5.772	-3.036	-1.618	5.621	13.888	15.786	10.353	12.058	238.281
-11.597	-8.497	-7.968	-6.889	-3.294	-2.586	3.618	8.874	13.340	8.907	10.135	7.186	-2.151	-3.812	-11.084	-9.280	-8.506	-7.999	-6.499	-7.849	-5.561	-2.931	-1.614	5.760	13.848	15.664	10.389	12.114	242.188
-11.566	-8.474	-7.944	-6.859	-3.255	-2.597	3.715	8.715	13.230	8.987	10.080	7.261	-1.822	-3.514	-11.197	-9.231	-8.536	-8.134	-6.486	-7.725	-5.327	-2.791	-1.597	5.903	13.785	15.542	10.411	12.193	246.094
-11.482	-8.443	-7.904	-6.826	-3.206	-2.621	3.786	8.483	13.034	9.015	9.971	7.299	-1.473	-3.212	-11.275	-9.153	-8.530	-8.226	-6.439	-7.557	-5.067	-2.613	-1.559	6.045	13.711	15.429	10.413	12.269	250.000
-11.344	-8.402	-7.865	-6.785	-3.140	-2.662	3.827	8.186	12.757	8.984	9.805	7.278	-1.127	-2.914	-11.298	-9.040	-8.481	-8.259	-6.348	-7.338	-4.781	-2.403	-1.495	6.180	13.637	15.324	10.390	12.309	253.906
-11.150	-8.344	-7.835	-6.730	-3.049	-2.719	3.836	7.835	12.408	8.890	9.575	7.171	-0.811	-2.623	-11.245	-8.883	-8.382	-8.214	-6.201	-7.063	-4.473	-2.163	-1.396	6.300	13.562	15.219	10.335	12.283	257.812
-10.896	-8.259	-7.816	-6.650	-2.932	-2.793	3.811	7.441	11.997	8.729	9.281	6.965	-0.547	-2.346	-11.103	-8.675	-8.223	-8.081	-5.987	-6.732	-4.150	-1.896	-1.258	6.398	13.483	15.099	10.240	12.162	261.719
-10.583	-8.138	-7.804	-6.541	-2.789	-2.879	3.757	7.018	11.534	8.506	8.923	6.652	-0.347	-2.085	-10.861	-8.407	-7.999	-7.855	-5.701	-6.350	-3.821	-1.605	-1.076	6.468	13.388	14.944	10.099	11.928	265.625
-10.214	-7.977	-7.792	-6.397	-2.623	-2.971	3.678	6.580	11.031	8.227	8.506	6.241	-0.217	-1.842	-10.518	-8.077	-7.709	-7.540	-5.340	-5.927	-3.493	-1.287	-0.851	6.506	13.264	14.734	9.911	11.577	269.531
-9.799	-7.778	-7.773	-6.221	-2.441	-3.063	3.584	6.143	10.504	7.907	8.039	5.750	-0.149	-1.614	-10.085	-7.687	-7.353	-7.150	-4.911	-5.473	-3.168	-0.944	-0.585	6.512	13.095	14.449	9.675	11.117	273.438
-9.349	-7.546	-7.744	-6.018	-2.249	-3.146	3.487	5.718	9.969	7.568	7.534	5.207	-0.126	-1.396	-9.576	-7.244	-6.938	-6.705	-4.424	-5.001	-2.845	-0.576	-0.291	6.485	12.868	14.078	9.397	10.567	277.344
-8.879	-7.290	-7.704	-5.796	-2.052	-3.210	3.400	5.319	9.443	7.235	7.005	4.639	-0.125	-1.181	-9.015	-6.761	-6.477	-6.231	-3.898	-4.519	-2.517	-0.184	0.019	6.429	12.570	13.615	9.084	9.957	281.250
-8.407	-7.021	-7.658	-5.561	-1.854	-3.244	3.335	4.955	8.941	6.934	6.468	4.073	-0.118	-0.957	-8.429	-6.253	-5.983	-5.754	-3.357	-4.036	-2.175	0.224	0.325	6.351	12.195	13.067	8.747	9.317	285.156
-7.946	-6.745	-7.609	-5.320	-1.654	-3.238	3.302	4.633	8.477	6.686	5.936	3.527	-0.078	-0.717	-7.845	-5.737	-5.475	-5.300	-2.822	-3.556	-1.809	0.639	0.612	6.258	11.746	12.447	8.399	8.679	289.062
-7.510	-6.468	-7.562	-5.075	-1.447	-3.187	3.308	4.359	8.059	6.506	5.421	3.011	0.016	-0.452	-7.289	-5.229	-4.973	-4.889	-2.314	-3.082	-1.415	1.050	0.864	6.161	11.230	11.775	8.053	8.070	292.969
-7.108	-6.196	-7.519	-4.827	-1.230	-3.092	3.353	4.137	7.692	6.396	4.933	2.531	0.176	-0.160	-6.782	-4.745	-4.493	-4.537	-1.846	-2.615	-0.991	1.449	1.073	6.070	10.665	11.079	7.722	7.513	296.875
-6.748	-5.929	-7.481	-4.577	-1.002	-2.962	3.433	3.966	7.372	6.347	4.475	2.086	0.400	0.156	-6.338	-4.295	-4.050	-4.249	-1.426	-2.156	-0.546	1.827	1.237	5.995	10.076	10.389	7.417	7.026	300.781
-6.431	-5.672	-7.447	-4.329	-0.766	-2.812	3.536	3.843	7.094	6.341	4.049	1.675	0.676	0.486	-5.964	-3.887	-3.651	-4.024	-1.051	-1.708	-0.094	2.181	1.364	5.944	9.498	9.732	7.149	6.620	304.688
-6.155	-5.426	-7.412	-4.087	-0.531	-2.661	3.646	3.761	6.848	6.352	3.654	1.295	0.978	0.816	-5.658	-3.523	-3.299	-3.852	-0.716	-1.276	0.344	2.511	1.468	5.921	8.963	9.135	6.922	6.300	308.594
-5.914	-5.191	-7.372	-3.857	-0.311	-2.530	3.743	3.708	6.621	6.350	3.283	0.942	1.272	1.126	-5.411	-3.201	-2.987	-3.717	-0.409	-0.864	0.749	2.818	1.567	5.922	8.501	8.618	6.738	6.060	312.500
-5.695	-4.964	-7.318	-3.642	-0.117	-2.437	3.807	3.666	6.402	6.308	2.928	0.608	1.523	1.398	-5.205	-2.910	-2.704	-3.599	-0.116	-0.474	1.106	3.107	1.675	5.939	8.133	8.189	6.587	5.885	316.406
-5.486	-4.739	-7.241	-3.444	0.038	-2.393	3.821	3.615	6.178	6.208	2.583	0.287	1.698	1.618	-5.020	-2.637	-2.435	-3.479	0.172	-0.107	1.406	3.380	1.805	5.955	7.865	7.848	6.458	5.752	320.312
-5.271	-4.511	-7.134	-3.263	0.148	-2.399	3.773	3.538	5.944	6.037	2.245	-0.020	1.772	1.777	-4.837	-2.367	-2.167	-3.343	0.463	0.241	1.650	3.636	1.960	5.954	7.688	7.585	6.334	5.635	324.219
-5.041	-4.271	-6.990	-3.095	0.215	-2.447	3.662	3.424	5.702	5.800	1.918	-0.309	1.736	1.874	-4.644	-2.089	-1.893	-3.188	0.755	0.574	1.846	3.873	2.131	5.917	7.581	7.385	6.198	5.515	328.125
-4.795	-4.018	-6.811	-2.936	0.244	-2.519	3.496	3.271	5.460	5.510	1.612	-0.564	1.593	1.914	-4.441	-1.797	-1.616	-3.018	1.042	0.894	2.006	4.083	2.302	5.830	7.520	7.230	6.037	5.378	332.031
-4.539	-3.753	-6.602	-2.783	0.247	-2.594	3.292	3.089	5.233	5.191	1.345	-0.765	1.362	1.906	-4.235	-1.497	-1.349	-2.849	1.308	1.198	2.140	4.257	2.452	5.687	7.477	7.106	5.846	5.223	335.938
-4.288	-3.482	-6.375	-2.634	0.235	-2.650	3.075	2.900	5.041	4.874	1.135	-0.892	1.070	1.862	-4.044	-1.203	-1.113	-2.696	1.536	1.476	2.251	4.388	2.561	5.491	7.431	7.003	5.627	5.061	339.844
-4.062	-3.217	-6.145	-2.490	0.223	-2.667	2.873	2.734	4.900	4.591	0.998	-0.930	0.754	1.791	-3.886	-0.937	-0.930	-2.578	1.708	1.715	2.339	4.469	2.612	5.253	7.371	6.914	5.391	4.910	343.750
-3.881	-2.969	-5.925	-2.353	0.218	-2.635	2.711	2.619	4.820	4.366	0.940	-0.880	0.450	1.704	-3.777	-0.723	-0.819	-2.504	1.810	1.897	2.399	4.500	2.604	4.994	7.296	6.837	5.156	4.789	347.656
-3.759	-2.750	-5.729	-2.228	0.228	-2.549	2.607	2.574	4.801	4.217	0.950	-0.758	0.191	1.610	-3.724	-0.582	-0.787	-2.477	1.841	2.010	2.424	4.492	2.546	4.740	7.213	6.772	4.939	4.710	351.562
-3.699	-2.568	-5.564	-2.118	0.255	-2.415	2.569	2.608	4.828	4.147	1.003	-0.599	0.001	1.518	-3.721	-0.527	-0.829	-2.485	1.807	2.047	2.414	4.462	2.460	4.517	7.135	6.717	4.758	4.669	355.469
-3.688	-2.424	-5.430	-2.024	0.296	-2.245	2.589	2.710	4.876	4.139	1.061	-0.449	-0.111	1.435	-3.751	-0.555	-0.925	-2.510	1.728	2.014	2.373	4.432	2.378	4.347	7.079	6.665	4.623	4.648	359.375
-3.702	-2.314	-5.320	-1.945	0.347	-2.053	2.647	2.856	4.911	4.163	1.073	-0.363	-0.146	1.364	-3.785	-0.649	-1.042	-2.524	1.634	1.927	2.312	4.428	2.332	4.246	7.057	6.611	4.534	4.608	363.281
-3.706	-2.223	-5.219	-1.875	0.401	-1.854	2.708	3.008	4.896	4.173	0.990	-0.393	-0.120	1.308	-3.789	-0.780	-1.140	-2.498	1.554	1.812	2.243	4.469	2.351	4.215	7.077	6.545	4.480	4.500	367.188
-3.660	-2.136	-5.105	-1.804	0.451	-1.661	2.733	3.127	4.801	4.119	0.769	-0.579	-0.058	1.264	-3.730	-0.910	-1.178	-2.405	1.519	1.696	2.179	4.566	2.452	4.247	7.141	6.459	4.443	4.271	371.094
-3.531	-2.031	-4.956	-1.724	0.492	-1.478	2.685	3.178	4.607	3.954	0.383	-0.944	0.014	1.223	-3.580	-1.004	-1.125	-2.223	1.550	1.605	2.127	4.720	2.642	4.322	7.243	6.346	4.399	3.880	375.000
-3.298	-1.895	-4.755	-1.625	0.519	-1.307	2.537	3.137	4.309	3.648	-0.171	-1.486	0.070	1.179	-3.328	-1.038	-0.964	-1.945	1.655	1.557	2.090	4.918	2.910	4.415	7.370	6.203	4.323	3.312	378.906
-2.960	-1.720	-4.492	-1.504	0.533	-1.144	2.283	3.000	3.920	3.194	-0.869	-2.169	0.093	1.124	-2.980	-1.002	-0.696	-1.576	1.831	1.557	2.064	5.138	3.232	4.497	7.506	6.033	4.202	2.588	382.812
-2.539	-1.509	-4.172	-1.360	0.535	-0.981	1.937	2.781	3.469	2.617	-1.660	-2.930	0.077	1.055	-2.560	-0.903	-0.348	-1.143	2.060	1.599	2.046	5.353	3.575	4.548	7.631	5.843	4.030	1.763	386.719
-2.074	-1.277	-3.809	-1.201	0.532	-0.813	1.536	2.511	2.994	1.967	-2.475	-3.686	0.028	0.977	-2.112	-0.768	0.040	-0.683	2.311	1.669	2.032	5.535	3.899	4.550	7.727	5.644	3.818	0.920	390.625
-1.613	-1.044	-3.426	-1.035	0.532	-0.636	1.127	2.231	2.537	1.309	-3.239	-4.347	-0.044	0.896	-1.686	-0.628	0.417	-0.244	2.550	1.747	2.022	5.658	4.165	4.499	7.776	5.446	3.585	0.149	394.531
-1.206	-0.836	-3.049	-0.876	0.542	-0.448	0.759	1.987	2.140	0.715	-3.882	-4.833	-0.125	0.823	-1.333	-0.519	0.730	0.128	2.739	1.814	2.018	5.705	4.340	4.400	7.767	5.260	3.356	-0.468	398.438
-0.892	-0.672	-2.701	-0.733	0.567	-0.256	0.470	1.817	1.832	0.242	-4.355	-5.092	-0.204	0.764	-1.091	-0.470	0.938	0.393	2.846	1.852	2.019	5.665	4.404	4.263	7.701	5.096	3.155	-0.875	402.344
-0.691	-0.567	-2.397	-0.617	0.606	-0.066	0.279	1.745	1.628	-0.077	-4.633	-5.106	-0.281	0.719	-0.984	-0.495	1.016	0.529	2.850	1.848	2.024	5.541	4.353	4.103	7.588	4.964	2.999	-1.048	406.250
-0.604	-0.521	-2.144	-0.533	0.654	0.109	0.182	1.778	1.527	-0.238	-4.724	-4.897	-0.366	0.678	-1.008	-0.593	0.961	0.536	2.746	1.796	2.022	5.343	4.199	3.937	7.449	4.872	2.896	-1.003	410.156
-0.610	-0.525	-1.939	-0.480	0.701	0.257	0.155	1.901	1.509	-0.268	-4.662	-4.523	-0.477	0.627	-1.140	-0.745	0.793	0.435	2.548	1.701	2.001	5.091	3.968	3.777	7.311	4.826	2.840	-0.785	414.062
-0.670	-0.555	-1.772	-0.451	0.739	0.367	0.157	2.084	1.544	-0.215	-4.501	-4.064	-0.635	0.549	-1.333	-0.916	0.554	0.263	2.288	1.578	1.953	4.810	3.694	3.625	7.196	4.824	2.810	-0.459	417.969
-0.737	-0.583	-1.629	-0.432	0.761	0.434	0.147	2.283	1.592	-0.136	-4.302	-3.606	-0.855	0.429	-1.530	-1.063	0.298	0.070	2.008	1.450	1.873	4.528	3.415	3.480	7.117	4.852	2.774	-0.097	421.875
-0.766	-0.580	-1.494	-0.410	0.762	0.457	0.086	2.449	1.618	-0.085	-4.120	-3.221	-1.141	0.265	-1.674	-1.146	0.079	-0.098	1.756	1.345	1.765	4.269	3.162	3.327	7.067	4.883	2.697	0.239	425.781
-0.721	-0.528	-1.356	-0.369	0.745	0.441	-0.050	2.540	1.590	-0.102	-3.996	-2.954	-1.482	0.064	-1.721	-1.134	-0.060	-0.204	1.572	1.290	1.647	4.052	2.957	3.153	7.026	4.887	2.546	0.511	429.688
-0.586	-0.418	-1.209	-0.304	0.716	0.396	-0.266	2.523	1.488	-0.203	-3.947	-2.815	-1.850	-0.152	-1.646	-1.018	-0.095	-0.225	1.480	1.299	1.541	3.888	2.807	2.945	6.962	4.830	2.303	0.702	433.594
-0.363	-0.258	-1.051	-0.213	0.686	0.333	-0.544	2.385	1.309	-0.384	-3.970	-2.783	-2.202	-0.351	-1.452	-0.808	-0.025	-0.160	1.487	1.379	1.475	3.777	2.710	2.697	6.839	4.688	1.967	0.817	437.500
-0.073	-0.067	-0.888	-0.104	0.667	0.263	-0.853	2.133	1.062	-0.619	-4.046	-2.819	-2.490	-0.500	-1.164	-0.532	0.127	-0.026	1.581	1.522	1.473	3.715	2.651	2.414	6.625	4.444	1.554	0.874	441.406
0.251	0.131	-0.726	0.013	0.674	0.194	-1.148	1.792	0.770	-0.868	-4.145	-2.879	-2.670	-0.568	-0.819	-0.228	0.328	0.150	1.737	1.710	1.551	3.692	2.612	2.110	6.303	4.096	1.094	0.890	445.312
0.575	0.315	-0.574	0.131	0.719	0.134	-1.389	1.401	0.462	-1.088	-4.238	-2.927	-2.709	-0.535	-0.465	0.066	0.538	0.336	1.923	1.922	1.712	3.699	2.574	1.805	5.866	3.649	0.624	0.879	449.219
0.864	0.471	-0.440	0.243	0.814	0.085	-1.540	1.004	0.171	-1.241	-4.300	-2.940	-2.594	-0.398	-0.139	0.320	0.723	0.501	2.107	2.138	1.944	3.725	2.523	1.521	5.326	3.122	0.184	0.851	453.125
1.094	0.595	-0.333	0.347	0.959	0.046	-1.585	0.642	-0.073	-1.298	-4.313	-2.911	-2.335	-0.171	0.127	0.517	0.860	0.624	2.265	2.341	2.222	3.761	2.450	1.275	4.703	2.538	-0.196	0.810	457.031
1.254	0.691	-0.257	0.443	1.151	0.013	-1.525	0.347	-0.250	-1.248	-4.270	-2.844	-1.960	0.119	0.321	0.657	0.943	0.694	2.382	2.525	2.511	3.799	2.352	1.078	4.028	1.924	-0.492	0.764	460.938
1.343	0.770	-0.219	0.535	1.375	-0.019	-1.377	0.135	-0.354	-1.099	-4.176	-2.751	-1.514	0.435	0.445	0.753	0.981	0.712	2.456	2.690	2.778	3.831	2.232	0.931	3.334	1.309	-0.698	0.722	464.844
1.373	0.843	-0.219	0.626	1.613	-0.057	-1.175	0.004	-0.393	-0.876	-4.044	-2.646	-1.045	0.743	0.514	0.827	0.991	0.691	2.495	2.845	2.999	3.853	2.098	0.828	2.653	0.720	-0.816	0.696	468.750
1.363	0.924	-0.255	0.721	1.845	-0.102	-0.958	-0.063	-0.390	-0.615	-3.899	-2.545	-0.603	1.016	0.554	0.906	0.999	0.647	2.517	3.003	3.164	3.865	1.959	0.755	2.014	0.181	-0.865	0.697	472.656
1.335	1.020	-0.318	0.822	2.054	-0.149	-0.770	-0.096	-0.377	-0.362	-3.768	-2.460	-0.229	1.239	0.593	1.011	1.030	0.602	2.541	3.179	3.280	3.870	1.825	0.698	1.439	-0.291	-0.871	0.733	476.562
1.312	1.135	-0.393	0.932	2.226	-0.191	-0.644	-0.131	-0.391	-0.160	-3.678	-2.405	0.046	1.406	0.655	1.159	1.104	0.574	2.587	3.380	3.362	3.875	1.707	0.641	0.948	-0.684	-0.862	0.808	480.469
1.313	1.269	-0.462	1.052	2.353	-0.217	-0.609	-0.200	-0.464	-0.047	-3.651	-2.383	0.203	1.517	0.762	1.352	1.231	0.580	2.665	3.603	3.429	3.884	1.611	0.573	0.553	-0.993	-0.870	0.918	484.375
1.350	1.418	-0.506	1.178	2.431	-0.217	-0.679	-0.324	-0.615	-0.046	-3.695	-2.397	0.234	1.572	0.921	1.581	1.409	0.628	2.778	3.835	3.492	3.901	1.542	0.484	0.261	-1.218	-0.919	1.056	488.281
1.427	1.572	-0.510	1.306	2.459	-0.186	-0.854	-0.513	-0.844	-0.164	-3.801	-2.439	0.138	1.568	1.130	1.827	1.627	0.720	2.918	4.052	3.550	3.920	1.498	0.366	0.074	-1.361	-1.024	1.216	492.188
1.538	1.722	-0.462	1.429	2.438	-0.127	-1.127	-0.758	-1.135	-0.391	-3.949	-2.498	-0.075	1.503	1.377	2.067	1.864	0.849	3.065	4.228	3.591	3.931	1.475	0.219	-0.011	-1.427	-1.189	1.389	496.094
1.668	1.858	-0.364	1.537	2.372	-0.051	-1.475	-1.035	-1.452	-0.703	-4.106	-2.561	-0.386	1.372	1.639	2.276	2.092	1.004	3.198	4.339	3.595	3.920	1.463	0.045	-0.005	-1.425	-1.406	1.573	500.000
1.798	1.968	-0.223	1.622	2.268	0.026	-1.871	-1.312	-1.756	-1.067	-4.238	-2.618	-0.766	1.178	1.889	2.438	2.285	1.167	3.293	4.376	3.548	3.873	1.452	-0.149	0.077	-1.364	-1.656	1.766	503.906
1.908	2.046	-0.056	1.679	2.137	0.085	-2.281	-1.550	-2.001	-1.445	-4.317	-2.664	-1.178	0.936	2.100	2.542	2.418	1.316	3.333	4.341	3.446	3.781	1.434	-0.353	0.213	-1.263	-1.915	1.963	507.812
1.984	2.090	0.115	1.707	1.993	0.109	-2.669	-1.715	-2.152	-1.801	-4.325	-2.701	-1.578	0.670	2.252	2.592	2.476	1.435	3.312	4.255	3.301	3.645	1.402	-0.554	0.375	-1.143	-2.160	2.158	511.719
2.021	2.103	0.269	1.708	1.856	0.089	-3.002	-1.784	-2.187	-2.105	-4.261	-2.739	-1.921	0.414	2.332	2.598	2.452	1.509	3.234	4.147	3.139	3.476	1.351	-0.742	0.530	-1.031	-2.376	2.335	515.625
2.021	2.096	0.391	1.694	1.745	0.025	-3.251	-1.750	-2.104	-2.335	-4.137	-2.791	-2.169	0.203	2.344	2.580	2.355	1.533	3.115	4.051	2.994	3.294	1.282	-0.908	0.648	-0.957	-2.555	2.475	519.531
1.999	2.084	0.474	1.677	1.675	-0.072	-3.398	-1.623	-1.918	-2.483	-3.981	-2.875	-2.298	0.067	2.302	2.560	2.204	1.510	2.980	3.991	2.895	3.123	1.199	-1.044	0.702	-0.944	-2.700	2.555	523.438
1.973	2.083	0.516	1.671	1.654	-0.187	-3.438	-1.433	-1.662	-2.548	-3.824	-3.002	-2.301	0.020	2.230	2.558	2.028	1.455	2.853	3.979	2.856	2.983	1.110	-1.149	0.683	-1.002	-2.817	2.559	527.344
1.958	2.105	0.523	1.685	1.680	-0.303	-3.379	-1.221	-1.383	-2.538	-3.698	-3.175	-2.195	0.058	2.155	2.585	1.862	1.389	2.759	4.007	2.874	2.893	1.026	-1.217	0.596	-1.125	-2.910	2.480	531.250
1.963	2.157	0.500	1.724	1.738	-0.408	-3.240	-1.031	-1.128	-2.466	-3.627	-3.384	-2.008	0.162	2.104	2.647	1.736	1.338	2.712	4.053	2.924	2.858	0.959	-1.246	0.469	-1.285	-2.980	2.325	535.156
1.990	2.235	0.451	1.782	1.807	-0.496	-3.045	-0.909	-0.941	-2.345	-3.621	-3.613	-1.780	0.300	2.096	2.738	1.674	1.323	2.719	4.090	2.973	2.876	0.923	-1.231	0.339	-1.442	-3.018	2.117	539.062
2.029	2.330	0.380	1.849	1.863	-0.566	-2.824	-0.886	-0.855	-2.189	-3.679	-3.834	-1.549	0.437	2.138	2.846	1.686	1.359	2.776	4.090	2.988	2.940	0.928	-1.167	0.250	-1.557	-3.012	1.889	542.969
2.068	2.425	0.287	1.911	1.887	-0.622	-2.601	-0.980	-0.884	-2.005	-3.785	-4.024	-1.344	0.546	2.227	2.957	1.770	1.453	2.873	4.040	2.946	3.035	0.978	-1.054	0.235	-1.594	-2.946	1.675	546.875
2.091	2.505	0.173	1.955	1.866	-0.671	-2.398	-1.191	-1.028	-1.800	-3.917	-4.162	-1.181	0.612	2.350	3.058	1.913	1.597	2.995	3.942	2.846	3.147	1.075	-0.894	0.310	-1.540	-2.811	1.508	550.781
2.091	2.557	0.040	1.970	1.799	-0.719	-2.227	-1.504	-1.272	-1.581	-4.050	-4.237	-1.059	0.638	2.486	3.139	2.091	1.774	3.125	3.813	2.706	3.267	1.211	-0.692	0.470	-1.403	-2.604	1.411	554.688
2.064	2.573	-0.106	1.953	1.697	-0.771	-2.094	-1.892	-1.588	-1.354	-4.164	-4.252	-0.964	0.638	2.614	3.196	2.279	1.962	3.252	3.681	2.560	3.388	1.376	-0.460	0.690	-1.208	-2.333	1.393	558.594
2.015	2.554	-0.259	1.906	1.576	-0.830	-2.001	-2.321	-1.944	-1.132	-4.245	-4.219	-0.874	0.639	2.715	3.227	2.451	2.137	3.364	3.578	2.447	3.510	1.558	-0.210	0.933	-0.997	-2.017	1.448	562.500
1.958	2.508	-0.409	1.840	1.457	-0.897	-1.945	-2.753	-2.308	-0.928	-4.287	-4.158	-0.769	0.666	2.779	3.238	2.588	2.277	3.456	3.527	2.403	3.633	1.745	0.039	1.155	-0.810	-1.682	1.558	566.406
1.907	2.448	-0.543	1.766	1.360	-0.973	-1.923	-3.155	-2.649	-0.763	-4.295	-4.093	-0.636	0.736	2.803	3.236	2.679	2.367	3.526	3.543	2.447	3.758	1.927	0.270	1.318	-0.685	-1.363	1.692	570.312
1.877	2.393	-0.650	1.702	1.301	-1.053	-1.936	-3.494	-2.945	-0.659	-4.281	-4.047	-0.474	0.855	2.798	3.231	2.724	2.407	3.577	3.623	2.580	3.885	2.096	0.461	1.395	-0.649	-1.096	1.812	574.219
1.885	2.361	-0.715	1.665	1.286	-1.131	-1.982	-3.750	-3.181	-0.638	-4.263	-4.042	-0.297	1.010	2.788	3.237	2.734	2.409	3.613	3.753	2.783	4.009	2.249	0.595	1.370	-0.717	-0.919	1.877	578.125
1.942	2.369	-0.729	1.668	1.316	-1.198	-2.064	-3.909	-3.352	-0.714	-4.264	-4.091	-0.125	1.181	2.803	3.266	2.729	2.398	3.643	3.909	3.021	4.126	2.388	0.653	1.242	-0.892	-0.863	1.849	582.031
2.056	2.427	-0.684	1.717	1.383	-1.241	-2.180	-3.974	-3.463	-0.897	-4.306	-4.202	0.016	1.339	2.878	3.329	2.735	2.408	3.679	4.066	3.255	4.230	2.517	0.627	1.022	-1.169	-0.949	1.701	585.938
2.230	2.536	-0.581	1.814	1.475	-1.254	-2.329	-3.958	-3.526	-1.184	-4.407	-4.377	0.104	1.459	3.039	3.432	2.777	2.472	3.736	4.200	3.449	4.320	2.642	0.516	0.728	-1.534	-1.183	1.423	589.844
2.462	2.690	-0.428	1.946	1.575	-1.229	-2.505	-3.885	-3.559	-1.560	-4.576	-4.608	0.126	1.524	3.303	3.574	2.875	2.619	3.826	4.295	3.581	4.399	2.774	0.331	0.386	-1.965	-1.552	1.025	593.750
2.747	2.872	-0.243	2.098	1.668	-1.167	-2.697	-3.785	-3.582	-1.999	-4.815	-4.884	0.082	1.530	3.666	3.746	3.036	2.860	3.958	4.346	3.643	4.476	2.920	0.095	0.023	-2.434	-2.026	0.538	597.656
3.072	3.064	-0.049	2.250	1.742	-1.076	-2.891	-3.689	-3.618	-2.469	-5.114	-5.194	-0.017	1.489	4.105	3.933	3.259	3.188	4.136	4.360	3.644	4.565	3.090	-0.159	-0.329	-2.913	-2.556	0.006	601.562
3.422	3.248	0.133	2.383	1.792	-0.964	-3.075	-3.624	-3.685	-2.932	-5.454	-5.524	-0.150	1.420	4.584	4.117	3.527	3.579	4.354	4.350	3.608	4.680	3.285	-0.398	-0.646	-3.369	-3.089	-0.520	605.469
3.777	3.408	0.281	2.488	1.820	-0.846	-3.235	-3.608	-3.801	-3.355	-5.813	-5.863	-0.292	1.351	5.058	4.282	3.817	3.994	4.599	4.339	3.564	4.834	3.504	-0.587	-0.906	-3.781	-3.569	-0.994	609.375
4.119	3.540	0.387	2.560	1.834	-0.731	-3.360	-3.648	-3.972	-3.710	-6.171	-6.202	-0.418	1.308	5.483	4.415	4.103	4.388	4.856	4.351	3.543	5.035	3.740	-0.703	-1.100	-4.135	-3.955	-1.385	613.281
4.432	3.646	0.449	2.608	1.851	-0.627	-3.445	-3.744	-4.202	-3.980	-6.510	-6.537	-0.505	1.313	5.827	4.512	4.359	4.722	5.106	4.403	3.569	5.282	3.978	-0.736	-1.233	-4.431	-4.217	-1.682	617.188
4.704	3.736	0.478	2.644	1.885	-0.535	-3.487	-3.887	-4.483	-4.161	-6.824	-6.862	-0.537	1.379	6.074	4.576	4.569	4.968	5.331	4.508	3.656	5.566	4.203	-0.686	-1.321	-4.683	-4.350	-1.892	621.094
4.928	3.819	0.489	2.681	1.949	-0.456	-3.486	-4.064	-4.804	-4.259	-7.111	-7.175	-0.501	1.509	6.228	4.616	4.726	5.117	5.520	4.666	3.806	5.868	4.399	-0.568	-1.389	-4.915	-4.365	-2.040	625.000
5.101	3.907	0.498	2.731	2.049	-0.392	-3.441	-4.259	-5.147	-4.287	-7.374	-7.473	-0.391	1.697	6.306	4.643	4.831	5.175	5.666	4.861	4.007	6.164	4.555	-0.406	-1.465	-5.151	-4.290	-2.160	628.906
5.222	4.001	0.518	2.796	2.180	-0.341	-3.353	-4.453	-5.491	-4.260	-7.614	-7.748	-0.201	1.930	6.335	4.666	4.894	5.165	5.767	5.071	4.239	6.425	4.660	-0.225	-1.575	-5.416	-4.156	-2.285	632.812
5.293	4.099	0.556	2.872	2.333	-0.305	-3.222	-4.633	-5.811	-4.190	-7.833	-7.989	0.068	2.193	6.340	4.688	4.927	5.114	5.825	5.262	4.477	6.628	4.712	-0.049	-1.737	-5.722	-3.997	-2.440	636.719
5.316	4.193	0.615	2.950	2.492	-0.282	-3.049	-4.787	-6.088	-4.089	-8.023	-8.180	0.413	2.468	6.342	4.710	4.941	5.050	5.842	5.408	4.696	6.750	4.711	0.100	-1.957	-6.068	-3.838	-2.639	640.625
5.297	4.274	0.691	3.023	2.641	-0.266	-2.840	-4.911	-6.308	-3.962	-8.175	-8.300	0.822	2.737	6.353	4.728	4.946	4.991	5.820	5.486	4.875	6.781	4.660	0.209	-2.232	-6.439	-3.697	-2.881	644.531
5.244	4.338	0.779	3.083	2.768	-0.250	-2.606	-5.004	-6.464	-3.820	-8.279	-8.335	1.272	2.984	6.376	4.739	4.948	4.949	5.766	5.494	5.004	6.721	4.565	0.268	-2.549	-6.811	-3.585	-3.154	648.438
5.171	4.384	0.875	3.135	2.868	-0.226	-2.369	-5.075	-6.561	-3.673	-8.327	-8.274	1.729	3.196	6.407	4.744	4.950	4.926	5.688	5.445	5.080	6.585	4.437	0.276	-2.891	-7.156	-3.504	-3.440	652.344
5.100	4.421	0.975	3.185	2.939	-0.185	-2.156	-5.132	-6.617	-3.539	-8.323	-8.119	2.150	3.358	6.444	4.751	4.960	4.919	5.600	5.369	5.112	6.397	4.289	0.231	-3.235	-7.447	-3.456	-3.722	656.250
5.057	4.462	1.079	3.244	2.985	-0.125	-2.000	-5.189	-6.654	-3.441	-8.279	-7.887	2.489	3.460	6.487	4.773	4.986	4.928	5.521	5.307	5.114	6.192	4.139	0.138	-3.564	-7.668	-3.443	-3.986	660.156
5.067	4.519	1.186	3.321	3.010	-0.049	-1.931	-5.257	-6.699	-3.407	-8.218	-7.605	2.705	3.496	6.542	4.825	5.039	4.952	5.474	5.298	5.104	6.007	4.005	0.004	-3.858	-7.812	-3.469	-4.225	664.062
5.147	4.600	1.295	3.417	3.014	0.031	-1.973	-5.342	-6.776	-3.459	-8.169	-7.308	2.769	3.467	6.615	4.919	5.130	4.998	5.480	5.369	5.096	5.878	3.909	-0.158	-4.103	-7.884	-3.533	-4.437	667.969
5.304	4.706	1.405	3.527	2.994	0.100	-2.134	-5.446	-6.896	-3.612	-8.157	-7.029	2.674	3.377	6.714	5.055	5.262	5.069	5.553	5.528	5.099	5.829	3.872	-0.333	-4.283	-7.892	-3.633	-4.621	671.875
5.524	4.824	1.507	3.632	2.942	0.138	-2.407	-5.562	-7.058	-3.864	-8.198	-6.792	2.436	3.238	6.835	5.220	5.434	5.172	5.695	5.756	5.111	5.872	3.905	-0.496	-4.382	-7.845	-3.757	-4.773	675.781
5.778	4.934	1.590	3.709	2.849	0.130	-2.764	-5.679	-7.241	-4.195	-8.289	-6.608	2.092	3.063	6.968	5.385	5.628	5.301	5.891	6.010	5.119	6.000	4.012	-0.624	-4.388	-7.745	-3.882	-4.886	679.688
6.022	5.008	1.644	3.733	2.711	0.068	-3.163	-5.776	-7.412	-4.568	-8.409	-6.470	1.695	2.869	7.087	5.512	5.820	5.445	6.111	6.235	5.102	6.186	4.184	-0.692	-4.290	-7.589	-3.978	-4.946	683.594
6.205	5.020	1.656	3.686	2.527	-0.042	-3.553	-5.834	-7.533	-4.929	-8.523	-6.359	1.302	2.671	7.159	5.556	5.974	5.581	6.313	6.367	5.036	6.389	4.399	-0.680	-4.083	-7.369	-4.010	-4.937	687.500
6.281	4.946	1.619	3.556	2.307	-0.185	-3.880	-5.832	-7.564	-5.222	-8.586	-6.244	0.971	2.485	7.147	5.477	6.052	5.678	6.446	6.356	4.904	6.563	4.623	-0.577	-3.774	-7.079	-3.947	-4.845	691.406
6.213	4.772	1.532	3.346	2.065	-0.340	-4.095	-5.752	-7.477	-5.389	-8.556	-6.093	0.748	2.323	7.016	5.247	6.020	5.703	6.466	6.168	4.694	6.659	4.817	-0.381	-3.375	-6.713	-3.763	-4.661	695.312
5.981	4.495	1.396	3.063	1.820	-0.482	-4.161	-5.585	-7.259	-5.385	-8.399	-5.880	0.666	2.195	6.744	4.855	5.853	5.629	6.340	5.798	4.410	6.644	4.943	-0.101	-2.911	-6.272	-3.444	-4.385	699.219
5.587	4.122	1.219	2.724	1.588	-0.592	-4.059	-5.331	-6.913	-5.185	-8.101	-5.590	0.739	2.108	6.323	4.311	5.540	5.440	6.053	5.266	4.066	6.498	4.973	0.245	-2.410	-5.767	-2.993	-4.024	703.125
5.050	3.669	1.008	2.348	1.377	-0.662	-3.789	-4.999	-6.462	-4.785	-7.665	-5.222	0.966	2.066	5.764	3.647	5.090	5.134	5.615	4.619	3.689	6.225	4.894	0.634	-1.903	-5.211	-2.426	-3.594	707.031
4.408	3.160	0.770	1.951	1.192	-0.693	-3.372	-4.608	-5.938	-4.205	-7.115	-4.793	1.328	2.071	5.097	2.907	4.527	4.727	5.057	3.915	3.311	5.848	4.711	1.041	-1.419	-4.627	-1.772	-3.121	710.938
3.707	2.625	0.513	1.553	1.027	-0.699	-2.845	-4.185	-5.380	-3.487	-6.492	-4.329	1.797	2.121	4.368	2.148	3.891	4.245	4.429	3.221	2.965	5.408	4.445	1.439	-0.987	-4.042	-1.072	-2.635	714.844
3.003	2.095	0.246	1.169	0.876	-0.695	-2.260	-3.761	-4.831	-2.688	-5.843	-3.867	2.335	2.213	3.629	1.426	3.229	3.728	3.786	2.597	2.681	4.951	4.130	1.805	-0.633	-3.489	-0.371	-2.170	718.750
2.346	1.604	-0.021	0.817	0.733	-0.700	-1.670	-3.365	-4.326	-1.874	-5.219	-3.442	2.899	2.342	2.935	0.790	2.590	3.214	3.188	2.090	2.482	4.523	3.802	2.118	-0.375	-2.998	0.284	-1.756	722.656
1.780	1.181	-0.276	0.511	0.596	-0.723	-1.129	-3.023	-3.892	-1.109	-4.666	-3.082	3.447	2.502	2.333	0.276	2.019	2.743	2.683	1.726	2.376	4.161	3.498	2.366	-0.226	-2.597	0.851	-1.418	726.562
1.337	0.848	-0.507	0.266	0.467	-0.769	-0.683	-2.753	-3.546	-0.451	-4.217	-2.803	3.941	2.682	1.858	-0.099	1.548	2.347	2.305	1.510	2.360	3.891	3.241	2.539	-0.189	-2.305	1.298	-1.166	730.469
1.030	0.619	-0.706	0.089	0.351	-0.835	-0.364	-2.564	-3.294	0.058	-3.890	-2.607	4.346	2.867	1.529	-0.331	1.199	2.048	2.073	1.425	2.417	3.722	3.050	2.638	-0.254	-2.128	1.608	-1.001	734.375
0.859	0.495	-0.862	-0.018	0.253	-0.910	-0.188	-2.454	-3.133	0.395	-3.688	-2.483	4.637	3.040	1.350	-0.433	0.983	1.859	1.987	1.438	2.519	3.649	2.928	2.668	-0.400	-2.057	1.776	-0.908	738.281
0.811	0.467	-0.970	-0.061	0.176	-0.986	-0.157	-2.417	-3.057	0.552	-3.600	-2.411	4.800	3.178	1.308	-0.427	0.897	1.785	2.029	1.510	2.634	3.659	2.873	2.638	-0.594	-2.071	1.811	-0.865	742.188
0.862	0.516	-1.026	-0.053	0.118	-1.053	-0.255	-2.441	-3.055	0.541	-3.608	-2.372	4.831	3.265	1.383	-0.340	0.928	1.817	2.173	1.601	2.728	3.727	2.872	2.563	-0.800	-2.139	1.737	-0.848	746.094
0.983	0.617	-1.032	-0.012	0.074	-1.105	-0.458	-2.510	-3.114	0.385	-3.689	-2.347	4.743	3.286	1.543	-0.199	1.054	1.942	2.382	1.678	2.778	3.827	2.913	2.459	-0.982	-2.226	1.582	-0.830	750.000
1.144	0.741	-0.989	0.040	0.036	-1.144	-0.731	-2.609	-3.222	0.118	-3.820	-2.324	4.563	3.238	1.754	-0.034	1.245	2.134	2.617	1.718	2.772	3.934	2.981	2.342	-1.110	-2.299	1.380	-0.791	753.906
1.314	0.857	-0.907	0.082	-0.003	-1.171	-1.036	-2.723	-3.363	-0.219	-3.978	-2.294	4.327	3.131	1.979	0.132	1.467	2.364	2.842	1.710	2.713	4.026	3.063	2.230	-1.164	-2.332	1.166	-0.719	757.812
1.466	0.939	-0.799	0.097	-0.049	-1.193	-1.337	-2.835	-3.517	-0.581	-4.142	-2.255	4.076	2.982	2.185	0.278	1.683	2.595	3.024	1.655	2.613	4.087	3.146	2.137	-1.139	-2.309	0.971	-0.610	761.719
1.573	0.969	-0.685	0.076	-0.105	-1.216	-1.599	-2.929	-3.660	-0.924	-4.289	-2.206	3.849	2.817	2.343	0.389	1.858	2.795	3.139	1.569	2.494	4.108	3.219	2.075	-1.040	-2.229	0.820	-0.467	765.625
1.617	0.939	-0.590	0.017	-0.168	-1.244	-1.795	-2.990	-3.761	-1.205	-4.396	-2.152	3.673	2.665	2.432	0.460	1.965	2.930	3.173	1.470	2.379	4.086	3.273	2.047	-0.882	-2.098	0.728	-0.301	769.531
1.584	0.851	-0.535	-0.073	-0.232	-1.277	-1.903	-3.003	-3.791	-1.389	-4.440	-2.098	3.563	2.548	2.442	0.491	1.985	2.978	3.119	1.385	2.286	4.022	3.298	2.053	-0.690	-1.936	0.702	-0.127	773.438
1.468	0.718	-0.542	-0.180	-0.285	-1.311	-1.914	-2.956	-3.719	-1.454	-4.401	-2.051	3.521	2.483	2.373	0.489	1.909	2.926	2.978	1.333	2.231	3.920	3.282	2.083	-0.488	-1.766	0.735	0.040	777.344
1.271	0.556	-0.622	-0.290	-0.316	-1.338	-1.827	-2.839	-3.525	-1.389	-4.267	-2.020	3.534	2.478	2.230	0.465	1.742	2.776	2.761	1.333	2.218	3.784	3.218	2.127	-0.303	-1.613	0.815	0.185	781.250
1.004	0.385	-0.776	-0.389	-0.317	-1.352	-1.650	-2.651	-3.204	-1.203	-4.036	-2.012	3.585	2.530	2.031	0.431	1.495	2.538	2.481	1.391	2.244	3.623	3.104	2.170	-0.152	-1.494	0.922	0.300	785.156
0.682	0.217	-0.996	-0.469	-0.284	-1.349	-1.402	-2.398	-2.767	-0.916	-3.719	-2.028	3.657	2.628	1.791	0.398	1.191	2.232	2.157	1.505	2.303	3.441	2.942	2.203	-0.042	-1.419	1.040	0.381	789.062
0.326	0.061	-1.263	-0.529	-0.221	-1.329	-1.109	-2.097	-2.243	-0.562	-3.339	-2.066	3.732	2.758	1.530	0.372	0.850	1.885	1.806	1.660	2.384	3.248	2.743	2.221	0.030	-1.385	1.156	0.435	792.969
-0.042	-0.082	-1.553	-0.575	-0.141	-1.298	-0.799	-1.772	-1.674	-0.180	-2.928	-2.116	3.800	2.901	1.266	0.355	0.499	1.522	1.450	1.839	2.473	3.051	2.526	2.226	0.077	-1.377	1.263	0.473	796.875
