FP1	F3	F7	FC3	C3	C5	P3	P7	PO7	PO3	O1	Oz	Pz	CPz	FP2	Fz	F4	F8	FC4	FCz	Cz	C4	C6	P4	P8	PO8	PO4	O2	time
-1.287	-1.836	-1.846	-1.605	-0.798	-1.242	0.627	-0.651	-0.477	0.757	0.079	1.613	1.647	0.867	-0.656	-1.014	0.022	-0.303	0.059	-0.437	0.442	0.884	0.685	1.612	1.263	1.818	1.836	2.198	-199.219
-0.886	-1.351	-1.408	-1.144	-0.425	-0.753	0.713	-0.539	-0.703	0.700	-0.090	1.272	1.476	0.682	-0.322	-0.628	0.301	-0.082	0.251	-0.275	0.333	0.921	0.631	1.278	0.812	1.211	1.358	1.621	-195.312
-0.517	-0.900	-1.001	-0.711	-0.070	-0.305	0.786	-0.426	-0.892	0.632	-0.245	0.959	1.307	0.512	-0.022	-0.268	0.551	0.113	0.423	-0.120	0.245	0.934	0.568	0.958	0.401	0.658	0.909	1.104	-191.406
-0.205	-0.512	-0.649	-0.329	0.243	0.065	0.829	-0.321	-1.022	0.539	-0.376	0.696	1.144	0.370	0.219	0.047	0.751	0.260	0.562	0.024	0.199	0.905	0.491	0.666	0.060	0.201	0.517	0.693	-187.500
0.031	-0.208	-0.374	-0.020	0.491	0.333	0.832	-0.233	-1.082	0.413	-0.474	0.497	0.989	0.269	0.386	0.305	0.884	0.346	0.659	0.157	0.206	0.835	0.404	0.418	-0.185	-0.131	0.203	0.422	-183.594
0.184	-0.000	-0.190	0.200	0.653	0.480	0.786	-0.174	-1.074	0.254	-0.536	0.369	0.850	0.215	0.470	0.500	0.941	0.366	0.712	0.275	0.268	0.731	0.316	0.227	-0.319	-0.322	-0.020	0.307	-179.688
0.258	0.112	-0.095	0.323	0.714	0.508	0.693	-0.156	-1.016	0.065	-0.563	0.311	0.730	0.211	0.478	0.631	0.924	0.323	0.726	0.375	0.373	0.616	0.239	0.104	-0.340	-0.377	-0.148	0.342	-175.781
0.268	0.142	-0.080	0.353	0.667	0.428	0.556	-0.187	-0.934	-0.143	-0.562	0.304	0.635	0.252	0.427	0.709	0.844	0.232	0.711	0.457	0.506	0.514	0.189	0.053	-0.264	-0.319	-0.187	0.494	-171.875
0.241	0.117	-0.117	0.307	0.520	0.269	0.387	-0.275	-0.859	-0.356	-0.547	0.324	0.568	0.327	0.342	0.751	0.723	0.117	0.680	0.523	0.647	0.446	0.176	0.070	-0.121	-0.188	-0.155	0.714	-167.969
0.207	0.068	-0.178	0.213	0.294	0.066	0.201	-0.419	-0.822	-0.555	-0.533	0.340	0.532	0.423	0.255	0.779	0.587	0.005	0.645	0.575	0.780	0.424	0.204	0.141	0.047	-0.035	-0.078	0.939	-164.062
0.195	0.027	-0.230	0.101	0.022	-0.140	0.017	-0.613	-0.840	-0.724	-0.535	0.324	0.527	0.526	0.193	0.811	0.464	-0.078	0.616	0.618	0.893	0.451	0.268	0.246	0.196	0.091	0.017	1.109	-160.156
0.223	0.016	-0.251	0.001	-0.253	-0.316	-0.144	-0.839	-0.919	-0.844	-0.564	0.260	0.553	0.623	0.177	0.855	0.373	-0.113	0.598	0.653	0.978	0.515	0.357	0.361	0.285	0.150	0.103	1.175	-156.250
0.294	0.042	-0.229	-0.067	-0.489	-0.436	-0.261	-1.073	-1.043	-0.901	-0.621	0.148	0.606	0.704	0.210	0.909	0.320	-0.095	0.588	0.678	1.034	0.596	0.455	0.464	0.292	0.121	0.163	1.114	-152.344
0.398	0.099	-0.169	-0.095	-0.651	-0.491	-0.316	-1.283	-1.188	-0.883	-0.698	0.003	0.683	0.761	0.281	0.957	0.302	-0.033	0.577	0.684	1.057	0.670	0.541	0.542	0.214	0.007	0.192	0.931	-148.438
0.509	0.167	-0.086	-0.088	-0.718	-0.487	-0.299	-1.439	-1.317	-0.786	-0.776	-0.147	0.775	0.788	0.366	0.975	0.302	0.052	0.553	0.661	1.045	0.715	0.600	0.586	0.072	-0.165	0.196	0.657	-144.531
0.598	0.221	-0.006	-0.060	-0.685	-0.443	-0.207	-1.515	-1.395	-0.613	-0.835	-0.269	0.869	0.783	0.433	0.938	0.299	0.133	0.503	0.596	0.995	0.713	0.621	0.599	-0.093	-0.348	0.191	0.345	-140.625
0.632	0.238	0.048	-0.032	-0.567	-0.383	-0.046	-1.494	-1.393	-0.377	-0.852	-0.334	0.951	0.742	0.451	0.826	0.273	0.182	0.419	0.481	0.903	0.658	0.597	0.590	-0.234	-0.488	0.198	0.055	-136.719
0.589	0.200	0.056	-0.022	-0.394	-0.333	0.163	-1.375	-1.296	-0.099	-0.808	-0.323	1.004	0.669	0.398	0.633	0.211	0.179	0.298	0.314	0.767	0.553	0.531	0.571	-0.308	-0.537	0.236	-0.162	-132.812
0.459	0.105	0.013	-0.044	-0.201	-0.311	0.396	-1.166	-1.101	0.193	-0.696	-0.232	1.013	0.564	0.267	0.370	0.109	0.114	0.144	0.105	0.590	0.411	0.430	0.550	-0.288	-0.467	0.313	-0.271	-128.906
0.251	-0.036	-0.073	-0.098	-0.026	-0.320	0.621	-0.891	-0.821	0.470	-0.519	-0.069	0.965	0.434	0.069	0.063	-0.025	-0.007	-0.033	-0.128	0.380	0.249	0.304	0.530	-0.173	-0.277	0.426	-0.267	-125.000
-0.007	-0.198	-0.178	-0.174	0.104	-0.353	0.808	-0.576	-0.482	0.701	-0.294	0.138	0.855	0.287	-0.169	-0.247	-0.171	-0.164	-0.214	-0.358	0.154	0.087	0.167	0.505	0.011	-0.001	0.554	-0.171	-121.094
-0.273	-0.346	-0.268	-0.252	0.174	-0.386	0.932	-0.249	-0.118	0.858	-0.051	0.357	0.683	0.135	-0.405	-0.516	-0.305	-0.329	-0.378	-0.555	-0.066	-0.058	0.032	0.464	0.214	0.302	0.665	-0.029	-117.188
-0.495	-0.444	-0.306	-0.305	0.187	-0.394	0.976	0.064	0.233	0.922	0.174	0.548	0.459	-0.010	-0.597	-0.700	-0.402	-0.467	-0.504	-0.687	-0.258	-0.174	-0.091	0.389	0.372	0.554	0.718	0.099	-113.281
-0.625	-0.459	-0.264	-0.308	0.159	-0.349	0.935	0.342	0.535	0.880	0.345	0.675	0.197	-0.137	-0.704	-0.767	-0.439	-0.545	-0.574	-0.732	-0.397	-0.255	-0.193	0.262	0.428	0.679	0.674	0.155	-109.375
-0.627	-0.373	-0.125	-0.243	0.112	-0.236	0.814	0.572	0.759	0.735	0.433	0.712	-0.082	-0.237	-0.698	-0.702	-0.402	-0.541	-0.578	-0.678	-0.469	-0.303	-0.272	0.075	0.339	0.622	0.506	0.097	-105.469
-0.489	-0.185	0.107	-0.105	0.072	-0.056	0.627	0.746	0.888	0.501	0.425	0.646	-0.355	-0.302	-0.573	-0.511	-0.289	-0.449	-0.516	-0.526	-0.466	-0.327	-0.329	-0.170	0.098	0.362	0.208	-0.097	-101.562
-0.226	0.085	0.407	0.092	0.057	0.174	0.397	0.860	0.920	0.205	0.323	0.482	-0.598	-0.333	-0.341	-0.222	-0.113	-0.280	-0.402	-0.296	-0.396	-0.339	-0.369	-0.458	-0.269	-0.077	-0.201	-0.416	-97.656
0.119	0.400	0.732	0.322	0.076	0.421	0.148	0.917	0.867	-0.116	0.149	0.239	-0.790	-0.332	-0.037	0.118	0.099	-0.062	-0.258	-0.017	-0.275	-0.348	-0.396	-0.757	-0.703	-0.632	-0.678	-0.822	-93.750
0.486	0.714	1.033	0.553	0.126	0.647	-0.095	0.922	0.751	-0.422	-0.065	-0.050	-0.916	-0.304	0.291	0.458	0.314	0.167	-0.111	0.272	-0.126	-0.361	-0.416	-1.030	-1.125	-1.212	-1.161	-1.259	-89.844
0.811	0.978	1.259	0.748	0.196	0.814	-0.308	0.880	0.600	-0.673	-0.279	-0.349	-0.967	-0.254	0.591	0.742	0.497	0.366	0.013	0.532	0.026	-0.378	-0.431	-1.235	-1.453	-1.715	-1.580	-1.664	-85.938
1.036	1.155	1.371	0.879	0.272	0.895	-0.478	0.799	0.439	-0.841	-0.459	-0.623	-0.942	-0.188	0.817	0.932	0.619	0.501	0.095	0.730	0.157	-0.392	-0.438	-1.337	-1.619	-2.052	-1.872	-1.978	-82.031
1.125	1.221	1.349	0.929	0.341	0.878	-0.597	0.684	0.290	-0.910	-0.577	-0.843	-0.849	-0.109	0.936	1.003	0.662	0.551	0.128	0.845	0.253	-0.392	-0.432	-1.314	-1.583	-2.165	-1.992	-2.159	-78.125
1.068	1.172	1.194	0.898	0.391	0.771	-0.664	0.542	0.163	-0.885	-0.623	-0.994	-0.703	-0.023	0.935	0.952	0.622	0.512	0.116	0.871	0.308	-0.365	-0.408	-1.161	-1.340	-2.032	-1.917	-2.188	-74.219
0.878	1.022	0.931	0.796	0.417	0.594	-0.688	0.382	0.062	-0.782	-0.600	-1.067	-0.524	0.068	0.820	0.795	0.509	0.397	0.072	0.812	0.321	-0.302	-0.358	-0.891	-0.920	-1.672	-1.654	-2.069	-70.312
0.593	0.797	0.600	0.641	0.417	0.379	-0.681	0.216	-0.016	-0.630	-0.520	-1.068	-0.335	0.154	0.613	0.556	0.338	0.227	0.011	0.683	0.296	-0.205	-0.280	-0.535	-0.381	-1.138	-1.234	-1.825	-66.406
0.256	0.529	0.249	0.458	0.390	0.158	-0.656	0.061	-0.069	-0.459	-0.401	-1.007	-0.161	0.225	0.343	0.270	0.132	0.034	-0.055	0.500	0.233	-0.084	-0.177	-0.133	0.204	-0.505	-0.706	-1.491	-62.500
-0.083	0.251	-0.073	0.268	0.337	-0.037	-0.627	-0.066	-0.095	-0.298	-0.259	-0.900	-0.026	0.264	0.047	-0.034	-0.089	-0.155	-0.119	0.282	0.132	0.039	-0.060	0.263	0.759	0.146	-0.134	-1.109	-58.594
-0.385	-0.009	-0.325	0.089	0.259	-0.185	-0.601	-0.144	-0.084	-0.162	-0.105	-0.765	0.050	0.255	-0.242	-0.328	-0.305	-0.313	-0.179	0.044	-0.009	0.135	0.055	0.606	1.214	0.738	0.419	-0.718	-54.688
-0.620	-0.232	-0.483	-0.068	0.158	-0.274	-0.583	-0.159	-0.023	-0.058	0.058	-0.620	0.055	0.184	-0.494	-0.592	-0.500	-0.425	-0.239	-0.198	-0.191	0.177	0.148	0.851	1.520	1.208	0.893	-0.350	-50.781
-0.774	-0.402	-0.540	-0.195	0.040	-0.302	-0.572	-0.101	0.097	0.018	0.230	-0.480	-0.017	0.047	-0.689	-0.810	-0.665	-0.481	-0.303	-0.432	-0.408	0.142	0.198	0.968	1.645	1.517	1.238	-0.030	-46.875
-0.844	-0.513	-0.507	-0.289	-0.085	-0.278	-0.563	0.028	0.281	0.077	0.414	-0.358	-0.162	-0.149	-0.811	-0.975	-0.791	-0.481	-0.373	-0.640	-0.646	0.024	0.192	0.940	1.585	1.649	1.423	0.225	-42.969
-0.838	-0.563	-0.404	-0.349	-0.202	-0.214	-0.551	0.212	0.521	0.131	0.609	-0.261	-0.366	-0.386	-0.856	-1.082	-0.876	-0.430	-0.447	-0.806	-0.881	-0.169	0.124	0.769	1.357	1.609	1.432	0.411	-39.062
-0.769	-0.555	-0.259	-0.373	-0.297	-0.128	-0.533	0.431	0.799	0.185	0.811	-0.189	-0.612	-0.638	-0.828	-1.131	-0.920	-0.340	-0.519	-0.917	-1.085	-0.415	-0.003	0.476	0.999	1.425	1.272	0.528	-35.156
-0.655	-0.495	-0.097	-0.364	-0.357	-0.034	-0.510	0.657	1.088	0.242	1.008	-0.138	-0.877	-0.875	-0.739	-1.124	-0.931	-0.223	-0.581	-0.962	-1.234	-0.681	-0.173	0.093	0.565	1.137	0.967	0.584	-31.250
-0.517	-0.394	0.060	-0.323	-0.376	0.051	-0.488	0.859	1.359	0.299	1.188	-0.099	-1.139	-1.072	-0.611	-1.069	-0.915	-0.095	-0.627	-0.940	-1.311	-0.934	-0.365	-0.333	0.119	0.800	0.560	0.589	-27.344
-0.372	-0.265	0.196	-0.257	-0.355	0.117	-0.476	1.016	1.585	0.348	1.336	-0.064	-1.378	-1.211	-0.466	-0.976	-0.883	0.030	-0.651	-0.859	-1.312	-1.144	-0.557	-0.751	-0.275	0.466	0.103	0.558	-23.438
-0.242	-0.125	0.304	-0.175	-0.306	0.156	-0.481	1.112	1.747	0.386	1.440	-0.028	-1.576	-1.288	-0.330	-0.857	-0.847	0.136	-0.655	-0.739	-1.248	-1.291	-0.726	-1.113	-0.560	0.188	-0.342	0.505	-19.531
-0.141	0.010	0.379	-0.088	-0.245	0.164	-0.506	1.142	1.839	0.412	1.496	0.012	-1.720	-1.308	-0.224	-0.727	-0.816	0.211	-0.643	-0.602	-1.141	-1.368	-0.856	-1.378	-0.698	0.005	-0.721	0.444	-15.625
-0.083	0.125	0.421	-0.007	-0.189	0.145	-0.547	1.114	1.864	0.433	1.502	0.052	-1.799	-1.283	-0.165	-0.599	-0.797	0.246	-0.622	-0.476	-1.019	-1.381	-0.940	-1.519	-0.670	-0.062	-0.986	0.387	-11.719
-0.070	0.209	0.429	0.059	-0.151	0.109	-0.595	1.040	1.836	0.460	1.463	0.084	-1.808	-1.227	-0.158	-0.487	-0.793	0.237	-0.598	-0.380	-0.907	-1.341	-0.974	-1.527	-0.488	-0.010	-1.112	0.340	-7.812
-0.102	0.257	0.405	0.104	-0.136	0.069	-0.636	0.940	1.771	0.503	1.389	0.096	-1.746	-1.152	-0.200	-0.398	-0.801	0.189	-0.575	-0.328	-0.823	-1.263	-0.961	-1.410	-0.184	0.144	-1.092	0.303	-3.906
-0.168	0.268	0.348	0.127	-0.143	0.042	-0.655	0.831	1.688	0.572	1.288	0.077	-1.615	-1.067	-0.279	-0.337	-0.818	0.111	-0.553	-0.322	-0.776	-1.162	-0.907	-1.191	0.189	0.366	-0.941	0.274	0.000
-0.255	0.247	0.262	0.129	-0.162	0.040	-0.643	0.727	1.604	0.668	1.175	0.020	-1.424	-0.976	-0.379	-0.301	-0.835	0.017	-0.527	-0.356	-0.762	-1.048	-0.819	-0.903	0.574	0.617	-0.692	0.245	3.906
-0.350	0.202	0.151	0.112	-0.185	0.070	-0.598	0.639	1.528	0.784	1.060	-0.072	-1.187	-0.880	-0.480	-0.289	-0.846	-0.078	-0.493	-0.417	-0.772	-0.929	-0.707	-0.582	0.914	0.857	-0.386	0.211	7.812
-0.440	0.139	0.025	0.079	-0.204	0.128	-0.525	0.570	1.469	0.907	0.957	-0.184	-0.921	-0.780	-0.569	-0.294	-0.849	-0.162	-0.447	-0.489	-0.795	-0.808	-0.578	-0.262	1.167	1.057	-0.067	0.168	11.719
-0.522	0.066	-0.106	0.032	-0.216	0.201	-0.438	0.519	1.427	1.022	0.879	-0.293	-0.650	-0.678	-0.637	-0.311	-0.845	-0.227	-0.391	-0.562	-0.822	-0.687	-0.441	0.030	1.310	1.201	0.230	0.122	15.625
-0.592	-0.014	-0.228	-0.029	-0.226	0.272	-0.354	0.482	1.401	1.107	0.835	-0.369	-0.396	-0.581	-0.682	-0.337	-0.839	-0.270	-0.329	-0.627	-0.846	-0.569	-0.305	0.273	1.342	1.287	0.478	0.079	19.531
-0.652	-0.095	-0.329	-0.104	-0.242	0.320	-0.295	0.451	1.386	1.146	0.828	-0.388	-0.184	-0.498	-0.704	-0.366	-0.834	-0.289	-0.268	-0.680	-0.866	-0.455	-0.180	0.456	1.277	1.323	0.659	0.049	23.438
-0.697	-0.171	-0.400	-0.187	-0.271	0.330	-0.277	0.418	1.374	1.120	0.854	-0.336	-0.034	-0.440	-0.703	-0.391	-0.834	-0.282	-0.212	-0.719	-0.883	-0.349	-0.071	0.574	1.145	1.324	0.769	0.038	27.344
-0.723	-0.234	-0.437	-0.272	-0.320	0.294	-0.313	0.373	1.354	1.020	0.898	-0.217	0.038	-0.417	-0.678	-0.403	-0.832	-0.246	-0.164	-0.739	-0.900	-0.254	0.015	0.626	0.979	1.305	0.808	0.044	31.250
-0.721	-0.273	-0.440	-0.347	-0.388	0.211	-0.411	0.305	1.317	0.839	0.937	-0.057	0.024	-0.434	-0.621	-0.390	-0.818	-0.172	-0.120	-0.735	-0.916	-0.174	0.080	0.616	0.813	1.281	0.782	0.054	35.156
-0.683	-0.277	-0.419	-0.401	-0.472	0.091	-0.569	0.206	1.255	0.582	0.945	0.104	-0.076	-0.492	-0.522	-0.340	-0.776	-0.054	-0.070	-0.699	-0.931	-0.110	0.127	0.552	0.676	1.264	0.703	0.048	39.062
-0.607	-0.244	-0.386	-0.428	-0.561	-0.054	-0.778	0.073	1.164	0.264	0.896	0.220	-0.253	-0.586	-0.376	-0.244	-0.693	0.113	-0.004	-0.630	-0.943	-0.066	0.164	0.450	0.596	1.270	0.590	0.002	42.969
-0.503	-0.177	-0.361	-0.426	-0.645	-0.211	-1.021	-0.090	1.051	-0.086	0.777	0.250	-0.489	-0.705	-0.188	-0.105	-0.565	0.323	0.083	-0.529	-0.949	-0.041	0.200	0.332	0.598	1.321	0.469	-0.097	46.875
-0.394	-0.095	-0.367	-0.407	-0.716	-0.368	-1.274	-0.274	0.936	-0.431	0.594	0.171	-0.759	-0.836	0.023	0.062	-0.404	0.556	0.191	-0.412	-0.952	-0.038	0.240	0.225	0.705	1.448	0.376	-0.249	50.781
-0.319	-0.030	-0.428	-0.392	-0.773	-0.523	-1.509	-0.458	0.850	-0.724	0.374	-0.012	-1.036	-0.965	0.217	0.227	-0.240	0.779	0.307	-0.302	-0.959	-0.056	0.288	0.162	0.941	1.696	0.354	-0.428	54.688
-0.325	-0.020	-0.569	-0.413	-0.826	-0.676	-1.697	-0.614	0.833	-0.917	0.164	-0.262	-1.291	-1.083	0.343	0.348	-0.116	0.946	0.406	-0.233	-0.980	-0.098	0.339	0.179	1.323	2.112	0.448	-0.587	58.594
-0.459	-0.106	-0.805	-0.501	-0.890	-0.833	-1.815	-0.712	0.924	-0.971	0.025	-0.527	-1.502	-1.185	0.342	0.380	-0.084	1.009	0.456	-0.240	-1.030	-0.164	0.385	0.305	1.863	2.736	0.697	-0.664	62.500
-0.757	-0.320	-1.141	-0.683	-0.984	-1.003	-1.845	-0.722	1.155	-0.860	0.010	-0.743	-1.654	-1.271	0.165	0.284	-0.186	0.931	0.427	-0.354	-1.124	-0.255	0.416	0.556	2.558	3.590	1.124	-0.601	66.406
-1.230	-0.673	-1.562	-0.970	-1.121	-1.186	-1.781	-0.622	1.541	-0.584	0.155	-0.863	-1.741	-1.343	-0.214	0.041	-0.448	0.694	0.295	-0.589	-1.272	-0.370	0.421	0.936	3.385	4.664	1.731	-0.361	70.312
-1.859	-1.147	-2.037	-1.353	-1.304	-1.374	-1.629	-0.406	2.068	-0.172	0.460	-0.868	-1.766	-1.409	-0.784	-0.345	-0.867	0.308	0.054	-0.940	-1.475	-0.505	0.398	1.423	4.303	5.903	2.485	0.053	74.219
-2.591	-1.698	-2.515	-1.796	-1.521	-1.549	-1.411	-0.084	2.698	0.323	0.884	-0.777	-1.741	-1.471	-1.497	-0.842	-1.405	-0.188	-0.282	-1.380	-1.724	-0.654	0.347	1.978	5.248	7.211	3.323	0.592	78.125
-3.346	-2.258	-2.935	-2.245	-1.747	-1.681	-1.157	0.314	3.367	0.825	1.347	-0.645	-1.681	-1.532	-2.268	-1.390	-2.000	-0.730	-0.674	-1.861	-1.996	-0.804	0.279	2.547	6.149	8.462	4.156	1.159	82.031
-4.031	-2.747	-3.235	-2.637	-1.943	-1.738	-0.902	0.746	3.998	1.251	1.748	-0.555	-1.600	-1.587	-2.991	-1.918	-2.568	-1.241	-1.069	-2.322	-2.259	-0.934	0.214	3.067	6.934	9.516	4.884	1.631	85.938
-4.550	-3.089	-3.367	-2.909	-2.072	-1.694	-0.684	1.161	4.514	1.528	1.981	-0.596	-1.510	-1.626	-3.558	-2.350	-3.027	-1.643	-1.401	-2.700	-2.476	-1.022	0.175	3.481	7.545	10.245	5.411	1.875	89.844
-4.826	-3.226	-3.299	-3.011	-2.101	-1.533	-0.530	1.515	4.852	1.601	1.956	-0.847	-1.415	-1.637	-3.880	-2.622	-3.305	-1.876	-1.611	-2.936	-2.612	-1.042	0.185	3.745	7.944	10.551	5.658	1.776	93.750
-4.809	-3.126	-3.024	-2.914	-2.009	-1.254	-0.454	1.774	4.971	1.448	1.619	-1.359	-1.313	-1.605	-3.898	-2.691	-3.355	-1.902	-1.652	-2.993	-2.638	-0.974	0.264	3.832	8.113	10.378	5.574	1.257	97.656
-4.479	-2.784	-2.557	-2.616	-1.792	-0.872	-0.458	1.921	4.859	1.079	0.960	-2.145	-1.196	-1.515	-3.596	-2.539	-3.164	-1.710	-1.500	-2.850	-2.537	-0.807	0.419	3.736	8.055	9.721	5.145	0.294	101.562
-3.851	-2.226	-1.929	-2.133	-1.458	-0.414	-0.528	1.952	4.529	0.534	0.014	-3.175	-1.051	-1.357	-2.999	-2.175	-2.749	-1.322	-1.159	-2.513	-2.304	-0.542	0.645	3.468	7.786	8.620	4.389	-1.078	105.469
-2.969	-1.496	-1.187	-1.504	-1.030	0.086	-0.640	1.873	4.018	-0.126	-1.145	-4.382	-0.867	-1.124	-2.163	-1.628	-2.155	-0.776	-0.659	-2.007	-1.950	-0.197	0.925	3.057	7.329	7.152	3.357	-2.772	109.375
-1.901	-0.653	-0.381	-0.776	-0.537	0.590	-0.767	1.697	3.377	-0.828	-2.418	-5.668	-0.637	-0.819	-1.171	-0.946	-1.444	-0.129	-0.050	-1.373	-1.495	0.199	1.226	2.536	6.709	5.426	2.126	-4.659	113.281
-0.731	0.237	0.434	-0.005	-0.013	1.062	-0.879	1.443	2.663	-1.502	-3.692	-6.919	-0.365	-0.454	-0.114	-0.185	-0.687	0.559	0.607	-0.664	-0.970	0.605	1.514	1.949	5.959	3.569	0.789	-6.584	117.188
0.446	1.107	1.207	0.754	0.509	1.472	-0.954	1.129	1.933	-2.087	-4.858	-8.017	-0.061	-0.049	0.915	0.594	0.045	1.226	1.247	0.064	-0.414	0.977	1.752	1.337	5.116	1.717	-0.554	-8.382	121.094
1.536	1.893	1.888	1.446	0.994	1.795	-0.979	0.778	1.244	-2.537	-5.814	-8.851	0.251	0.364	1.831	1.331	0.688	1.813	1.809	0.752	0.132	1.273	1.910	0.739	4.228	0.001	-1.802	-9.900	125.000
2.449	2.538	2.434	2.020	1.411	2.017	-0.951	0.416	0.646	-2.826	-6.481	-9.330	0.542	0.751	2.564	1.967	1.191	2.274	2.245	1.344	0.623	1.459	1.966	0.191	3.351	-1.456	-2.865	-11.007	128.906
3.112	2.994	2.809	2.435	1.730	2.134	-0.874	0.070	0.181	-2.944	-6.802	-9.391	0.780	1.072	3.059	2.451	1.518	2.570	2.516	1.792	1.019	1.514	1.913	-0.280	2.551	-2.556	-3.669	-11.613	132.812
3.473	3.227	2.989	2.658	1.927	2.146	-0.757	-0.231	-0.117	-2.891	-6.749	-9.010	0.941	1.294	3.283	2.740	1.645	2.676	2.603	2.057	1.283	1.429	1.751	-0.649	1.889	-3.226	-4.163	-11.668	136.719
3.504	3.222	2.961	2.670	1.986	2.059	-0.612	-0.460	-0.227	-2.681	-6.320	-8.198	1.008	1.394	3.226	2.807	1.566	2.585	2.497	2.112	1.390	1.205	1.492	-0.901	1.419	-3.431	-4.321	-11.174	140.625
3.208	2.980	2.730	2.470	1.902	1.885	-0.447	-0.599	-0.139	-2.331	-5.546	-7.006	0.979	1.358	2.895	2.637	1.287	2.304	2.207	1.951	1.329	0.858	1.154	-1.028	1.177	-3.171	-4.143	-10.176	144.531
2.614	2.524	2.316	2.074	1.682	1.639	-0.269	-0.634	0.137	-1.864	-4.480	-5.511	0.868	1.192	2.318	2.239	0.826	1.853	1.751	1.586	1.105	0.411	0.757	-1.027	1.173	-2.484	-3.655	-8.757	148.438
1.775	1.893	1.754	1.519	1.345	1.338	-0.078	-0.567	0.579	-1.306	-3.198	-3.810	0.697	0.914	1.540	1.639	0.216	1.266	1.165	1.048	0.740	-0.103	0.325	-0.904	1.392	-1.438	-2.905	-7.025	152.344
0.763	1.139	1.089	0.853	0.925	1.003	0.123	-0.409	1.146	-0.686	-1.787	-2.007	0.499	0.556	0.615	0.883	-0.506	0.582	0.490	0.388	0.272	-0.646	-0.118	-0.673	1.795	-0.126	-1.952	-5.104	156.250
-0.344	0.320	0.371	0.134	0.459	0.652	0.335	-0.180	1.794	-0.032	-0.338	-0.199	0.303	0.155	-0.396	0.029	-1.295	-0.156	-0.223	-0.333	-0.251	-1.181	-0.549	-0.351	2.328	1.350	-0.865	-3.114	160.156
-1.468	-0.510	-0.354	-0.583	-0.011	0.304	0.558	0.096	2.472	0.629	1.064	1.531	0.135	-0.251	-1.436	-0.856	-2.102	-0.908	-0.924	-1.052	-0.781	-1.671	-0.947	0.041	2.928	2.887	0.289	-1.164	164.062
-2.542	-1.303	-1.050	-1.251	-0.449	-0.026	0.790	0.395	3.137	1.274	2.352	3.116	0.009	-0.626	-2.454	-1.710	-2.885	-1.640	-1.568	-1.711	-1.271	-2.084	-1.297	0.480	3.539	4.394	1.449	0.655	167.969
-3.519	-2.027	-1.690	-1.836	-0.829	-0.328	1.027	0.700	3.759	1.888	3.479	4.513	-0.069	-0.947	-3.410	-2.482	-3.609	-2.325	-2.124	-2.269	-1.689	-2.400	-1.587	0.944	4.115	5.803	2.567	2.281	171.875
-4.371	-2.666	-2.263	-2.324	-1.137	-0.595	1.265	1.005	4.322	2.463	4.425	5.700	-0.106	-1.200	-4.279	-3.138	-4.249	-2.949	-2.574	-2.710	-2.018	-2.611	-1.811	1.416	4.629	7.067	3.608	3.677	175.781
-5.093	-3.214	-2.766	-2.716	-1.371	-0.825	1.500	1.311	4.830	2.997	5.192	6.670	-0.115	-1.385	-5.049	-3.665	-4.793	-3.505	-2.921	-3.036	-2.260	-2.724	-1.973	1.878	5.072	8.166	4.551	4.832	179.688
-5.700	-3.679	-3.203	-3.025	-1.539	-1.016	1.728	1.630	5.299	3.493	5.800	7.433	-0.113	-1.513	-5.720	-4.068	-5.244	-3.992	-3.180	-3.270	-2.433	-2.758	-2.080	2.317	5.452	9.100	5.386	5.755	183.594
-6.217	-4.072	-3.584	-3.270	-1.657	-1.169	1.945	1.974	5.755	3.954	6.284	8.012	-0.117	-1.602	-6.302	-4.364	-5.610	-4.419	-3.380	-3.445	-2.565	-2.741	-2.147	2.722	5.787	9.887	6.113	6.472	187.500
-6.675	-4.405	-3.916	-3.471	-1.742	-1.286	2.149	2.355	6.223	4.385	6.678	8.439	-0.137	-1.670	-6.809	-4.578	-5.906	-4.796	-3.549	-3.595	-2.686	-2.705	-2.191	3.084	6.102	10.550	6.737	7.017	191.406
-7.105	-4.690	-4.208	-3.646	-1.809	-1.370	2.340	2.779	6.722	4.785	7.017	8.748	-0.180	-1.735	-7.258	-4.737	-6.152	-5.132	-3.714	-3.747	-2.820	-2.678	-2.228	3.398	6.421	11.121	7.270	7.432	195.312
-7.527	-4.938	-4.469	-3.807	-1.874	-1.425	2.518	3.242	7.259	5.153	7.327	8.975	-0.243	-1.808	-7.665	-4.865	-6.362	-5.439	-3.892	-3.916	-2.981	-2.680	-2.271	3.662	6.764	11.627	7.725	7.753	199.219
-7.951	-5.160	-4.708	-3.964	-1.946	-1.460	2.684	3.731	7.828	5.483	7.625	9.149	-0.319	-1.891	-8.044	-4.984	-6.552	-5.724	-4.088	-4.105	-3.170	-2.718	-2.324	3.882	7.142	12.095	8.116	8.016	203.125
-8.376	-5.366	-4.936	-4.122	-2.033	-1.483	2.836	4.225	8.411	5.771	7.916	9.293	-0.398	-1.981	-8.402	-5.108	-6.734	-5.992	-4.297	-4.311	-3.375	-2.784	-2.383	4.068	7.564	12.544	8.458	8.246	207.031
-8.792	-5.567	-5.163	-4.288	-2.139	-1.509	2.973	4.700	8.982	6.009	8.198	9.419	-0.470	-2.070	-8.744	-5.249	-6.915	-6.246	-4.509	-4.525	-3.580	-2.859	-2.436	4.237	8.027	12.986	8.768	8.463	210.938
-9.185	-5.775	-5.401	-4.463	-2.265	-1.548	3.091	5.132	9.512	6.195	8.461	9.532	-0.523	-2.147	-9.070	-5.418	-7.102	-6.484	-4.708	-4.740	-3.767	-2.921	-2.468	4.405	8.528	13.427	9.061	8.677	214.844
-9.542	-6.000	-5.658	-4.652	-2.407	-1.610	3.188	5.498	9.978	6.328	8.696	9.634	-0.550	-2.203	-9.379	-5.618	-7.298	-6.706	-4.882	-4.951	-3.921	-2.947	-2.466	4.590	9.059	13.870	9.349	8.895	218.750
-9.857	-6.249	-5.940	-4.856	-2.561	-1.701	3.260	5.783	10.362	6.412	8.894	9.723	-0.546	-2.231	-9.666	-5.849	-7.505	-6.908	-5.023	-5.157	-4.037	-2.922	-2.421	4.803	9.608	14.307	9.642	9.115	222.656
-10.126	-6.522	-6.248	-5.075	-2.717	-1.822	3.310	5.979	10.654	6.454	9.049	9.803	-0.506	-2.226	-9.926	-6.106	-7.717	-7.085	-5.128	-5.359	-4.110	-2.840	-2.329	5.049	10.165	14.732	9.942	9.337	226.562
-10.351	-6.817	-6.580	-5.305	-2.868	-1.970	3.338	6.083	10.852	6.464	9.158	9.873	-0.429	-2.186	-10.153	-6.374	-7.928	-7.232	-5.195	-5.550	-4.143	-2.704	-2.194	5.327	10.717	15.133	10.249	9.557	230.469
-10.537	-7.123	-6.931	-5.540	-3.000	-2.138	3.349	6.098	10.957	6.451	9.223	9.933	-0.314	-2.107	-10.341	-6.637	-8.126	-7.347	-5.225	-5.721	-4.134	-2.522	-2.026	5.627	11.248	15.497	10.553	9.769	234.375
-10.684	-7.424	-7.289	-5.770	-3.104	-2.316	3.348	6.029	10.975	6.422	9.241	9.982	-0.163	-1.986	-10.484	-6.870	-8.298	-7.427	-5.214	-5.853	-4.078	-2.303	-1.834	5.935	11.742	15.809	10.841	9.965	238.281
-10.790	-7.702	-7.641	-5.980	-3.168	-2.493	3.340	5.885	10.909	6.381	9.215	10.014	0.019	-1.822	-10.576	-7.050	-8.427	-7.473	-5.162	-5.926	-3.966	-2.057	-1.629	6.233	12.184	16.056	11.094	10.132	242.188
-10.849	-7.934	-7.971	-6.153	-3.182	-2.659	3.329	5.678	10.767	6.329	9.143	10.018	0.226	-1.613	-10.615	-7.154	-8.504	-7.487	-5.064	-5.917	-3.789	-1.790	-1.417	6.505	12.557	16.226	11.294	10.257	246.094
-10.852	-8.102	-8.263	-6.273	-3.140	-2.807	3.319	5.419	10.556	6.264	9.024	9.986	0.449	-1.360	-10.600	-7.166	-8.521	-7.473	-4.920	-5.809	-3.540	-1.504	-1.203	6.738	12.853	16.314	11.428	10.323	250.000
-10.791	-8.189	-8.506	-6.324	-3.041	-2.931	3.313	5.124	10.285	6.182	8.857	9.910	0.678	-1.070	-10.532	-7.079	-8.478	-7.439	-4.730	-5.597	-3.218	-1.204	-0.985	6.926	13.064	16.317	11.486	10.314	253.906
-10.664	-8.186	-8.690	-6.301	-2.890	-3.032	3.316	4.809	9.969	6.082	8.644	9.781	0.904	-0.750	-10.416	-6.896	-8.381	-7.390	-4.499	-5.285	-2.831	-0.892	-0.762	7.067	13.195	16.240	11.467	10.221	257.812
-10.476	-8.096	-8.816	-6.206	-2.698	-3.113	3.328	4.494	9.621	5.964	8.390	9.598	1.122	-0.409	-10.260	-6.630	-8.239	-7.329	-4.234	-4.893	-2.396	-0.572	-0.530	7.166	13.254	16.093	11.379	10.037	261.719
-10.240	-7.932	-8.888	-6.050	-2.479	-3.180	3.351	4.199	9.261	5.829	8.103	9.359	1.328	-0.060	-10.070	-6.304	-8.065	-7.258	-3.945	-4.446	-1.934	-0.249	-0.286	7.234	13.253	15.886	11.235	9.768	265.625
-9.976	-7.718	-8.918	-5.856	-2.253	-3.237	3.386	3.942	8.905	5.683	7.792	9.067	1.522	0.287	-9.854	-5.944	-7.867	-7.176	-3.638	-3.973	-1.467	0.069	-0.031	7.280	13.207	15.632	11.051	9.424	269.531
-9.707	-7.480	-8.918	-5.646	-2.037	-3.285	3.434	3.743	8.572	5.534	7.472	8.727	1.705	0.621	-9.618	-5.579	-7.653	-7.078	-3.324	-3.505	-1.018	0.379	0.230	7.312	13.126	15.339	10.843	9.023	273.438
-9.450	-7.248	-8.900	-5.443	-1.842	-3.322	3.496	3.616	8.277	5.392	7.154	8.346	1.881	0.933	-9.366	-5.232	-7.423	-6.959	-3.007	-3.063	-0.601	0.674	0.491	7.333	13.014	15.013	10.624	8.586	277.344
-9.220	-7.042	-8.873	-5.263	-1.676	-3.343	3.572	3.571	8.030	5.266	6.850	7.937	2.051	1.215	-9.101	-4.919	-7.175	-6.811	-2.693	-2.665	-0.228	0.949	0.741	7.342	12.870	14.656	10.403	8.133	281.250
-9.016	-6.873	-8.839	-5.112	-1.536	-3.338	3.662	3.607	7.836	5.163	6.566	7.511	2.216	1.464	-8.827	-4.646	-6.903	-6.629	-2.383	-2.315	0.097	1.202	0.971	7.334	12.686	14.264	10.182	7.678	285.156
-8.828	-6.736	-8.794	-4.984	-1.414	-3.300	3.764	3.710	7.690	5.089	6.301	7.082	2.376	1.678	-8.545	-4.409	-6.601	-6.410	-2.077	-2.009	0.377	1.431	1.173	7.304	12.451	13.836	9.960	7.232	289.062
-8.639	-6.612	-8.727	-4.860	-1.296	-3.223	3.877	3.856	7.578	5.039	6.047	6.663	2.532	1.863	-8.256	-4.192	-6.264	-6.155	-1.772	-1.736	0.619	1.640	1.344	7.247	12.153	13.367	9.735	6.798	292.969
-8.423	-6.475	-8.628	-4.720	-1.167	-3.106	3.994	4.007	7.474	5.003	5.787	6.260	2.684	2.028	-7.957	-3.975	-5.886	-5.868	-1.462	-1.475	0.836	1.834	1.486	7.163	11.790	12.858	9.503	6.375	296.875
-8.160	-6.294	-8.486	-4.539	-1.013	-2.958	4.106	4.123	7.349	4.964	5.503	5.874	2.831	2.185	-7.648	-3.733	-5.468	-5.555	-1.138	-1.204	1.043	2.024	1.609	7.057	11.363	12.316	9.261	5.959	300.781
-7.832	-6.045	-8.296	-4.299	-0.827	-2.792	4.202	4.164	7.171	4.901	5.171	5.501	2.970	2.347	-7.323	-3.445	-5.011	-5.224	-0.791	-0.902	1.256	2.222	1.723	6.938	10.886	11.751	9.012	5.545	304.688
-7.435	-5.712	-8.058	-3.996	-0.610	-2.626	4.268	4.102	6.916	4.793	4.778	5.130	3.095	2.524	-6.980	-3.096	-4.520	-4.882	-0.413	-0.555	1.489	2.442	1.842	6.817	10.379	11.178	8.755	5.128	308.594
-6.973	-5.297	-7.781	-3.635	-0.370	-2.482	4.294	3.926	6.569	4.625	4.316	4.754	3.199	2.721	-6.615	-2.685	-4.003	-4.536	-0.002	-0.157	1.748	2.690	1.975	6.703	9.863	10.613	8.494	4.706	312.500
-6.466	-4.815	-7.478	-3.235	-0.122	-2.375	4.272	3.644	6.135	4.391	3.794	4.367	3.273	2.935	-6.227	-2.218	-3.474	-4.188	0.441	0.286	2.034	2.968	2.128	6.601	9.360	10.072	8.230	4.281	316.406
-5.940	-4.295	-7.166	-2.823	0.115	-2.314	4.200	3.284	5.635	4.097	3.234	3.976	3.307	3.155	-5.819	-1.719	-2.948	-3.845	0.902	0.753	2.337	3.269	2.297	6.510	8.888	9.567	7.964	3.861	320.312
-5.430	-3.775	-6.863	-2.429	0.325	-2.296	4.087	2.889	5.107	3.761	2.672	3.601	3.297	3.367	-5.405	-1.219	-2.451	-3.515	1.361	1.215	2.638	3.576	2.475	6.424	8.459	9.109	7.698	3.458	324.219
-4.970	-3.294	-6.583	-2.081	0.495	-2.308	3.948	2.509	4.598	3.413	2.151	3.273	3.244	3.553	-5.004	-0.753	-2.009	-3.210	1.788	1.638	2.914	3.868	2.648	6.337	8.081	8.705	7.435	3.092	328.125
-4.592	-2.887	-6.337	-1.801	0.616	-2.330	3.802	2.191	4.156	3.091	1.715	3.028	3.153	3.695	-4.642	-0.358	-1.652	-2.947	2.156	1.988	3.139	4.120	2.800	6.242	7.756	8.363	7.180	2.784	332.031
-4.318	-2.579	-6.133	-1.599	0.688	-2.342	3.671	1.972	3.822	2.830	1.399	2.902	3.035	3.784	-4.346	-0.060	-1.403	-2.744	2.436	2.239	3.293	4.311	2.919	6.135	7.488	8.086	6.941	2.558	335.938
-4.155	-2.382	-5.971	-1.478	0.715	-2.325	3.576	1.872	3.622	2.661	1.224	2.918	2.904	3.814	-4.138	0.123	-1.278	-2.614	2.613	2.375	3.364	4.426	2.996	6.018	7.276	7.877	6.726	2.427	339.844
-4.094	-2.293	-5.853	-1.430	0.702	-2.275	3.529	1.890	3.562	2.601	1.189	3.078	2.774	3.786	-4.031	0.191	-1.279	-2.562	2.681	2.397	3.351	4.457	3.029	5.896	7.119	7.735	6.543	2.395	343.750
-4.116	-2.297	-5.774	-1.440	0.658	-2.193	3.535	2.009	3.627	2.647	1.271	3.363	2.658	3.712	-4.022	0.158	-1.391	-2.583	2.652	2.316	3.267	4.411	3.025	5.776	7.019	7.657	6.399	2.450	347.656
-4.188	-2.368	-5.731	-1.493	0.591	-2.096	3.587	2.191	3.783	2.783	1.428	3.731	2.565	3.607	-4.094	0.050	-1.584	-2.659	2.551	2.158	3.131	4.305	3.000	5.673	6.978	7.639	6.298	2.563	351.562
-4.276	-2.475	-5.719	-1.568	0.511	-2.000	3.671	2.394	3.979	2.972	1.603	4.121	2.499	3.487	-4.214	-0.100	-1.817	-2.760	2.413	1.956	2.971	4.166	2.974	5.598	6.998	7.677	6.243	2.695	355.469
-4.349	-2.585	-5.728	-1.648	0.423	-1.923	3.763	2.568	4.159	3.169	1.735	4.464	2.458	3.370	-4.344	-0.252	-2.043	-2.854	2.277	1.746	2.814	4.024	2.972	5.565	7.084	7.763	6.233	2.796	359.375
-4.378	-2.669	-5.747	-1.715	0.337	-1.876	3.838	2.674	4.273	3.324	1.768	4.689	2.434	3.269	-4.442	-0.371	-2.216	-2.909	2.180	1.559	2.680	3.913	3.013	5.582	7.236	7.888	6.264	2.815	363.281
-4.346	-2.702	-5.757	-1.751	0.258	-1.858	3.870	2.683	4.278	3.389	1.658	4.734	2.417	3.192	-4.471	-0.428	-2.299	-2.901	2.151	1.422	2.585	3.857	3.111	5.650	7.449	8.037	6.325	2.709	367.188
-4.241	-2.665	-5.740	-1.744	0.195	-1.858	3.839	2.584	4.151	3.329	1.385	4.556	2.392	3.141	-4.406	-0.405	-2.267	-2.813	2.206	1.351	2.533	3.871	3.271	5.760	7.712	8.187	6.399	2.447	371.094
-4.064	-2.551	-5.674	-1.684	0.153	-1.858	3.730	2.387	3.893	3.122	0.948	4.140	2.345	3.111	-4.237	-0.298	-2.117	-2.644	2.343	1.354	2.523	3.956	3.484	5.896	8.003	8.314	6.463	2.020	375.000
-3.823	-2.364	-5.545	-1.572	0.135	-1.842	3.540	2.120	3.523	2.768	0.375	3.505	2.269	3.096	-3.969	-0.116	-1.864	-2.405	2.546	1.426	2.545	4.100	3.732	6.035	8.294	8.390	6.498	1.443	378.906
-3.537	-2.122	-5.349	-1.417	0.140	-1.795	3.277	1.820	3.082	2.288	-0.284	2.705	2.158	3.087	-3.627	0.117	-1.541	-2.116	2.787	1.554	2.589	4.279	3.989	6.153	8.555	8.399	6.485	0.760	382.812
-3.234	-1.854	-5.098	-1.235	0.161	-1.715	2.962	1.531	2.619	1.724	-0.967	1.824	2.016	3.077	-3.246	0.369	-1.191	-1.805	3.035	1.717	2.644	4.464	4.228	6.232	8.761	8.333	6.422	0.037	386.719
-2.947	-1.594	-4.816	-1.053	0.189	-1.611	2.625	1.293	2.186	1.132	-1.604	0.965	1.855	3.062	-2.869	0.603	-0.862	-1.503	3.257	1.889	2.699	4.628	4.424	6.262	8.893	8.203	6.315	-0.650	390.625
-2.706	-1.380	-4.534	-0.897	0.212	-1.500	2.300	1.135	1.825	0.569	-2.135	0.225	1.691	3.039	-2.535	0.786	-0.596	-1.234	3.428	2.046	2.745	4.745	4.563	6.245	8.944	8.032	6.185	-1.224	394.531
-2.536	-1.237	-4.284	-0.789	0.222	-1.399	2.015	1.066	1.564	0.086	-2.520	-0.316	1.538	3.009	-2.274	0.893	-0.422	-1.015	3.533	2.165	2.777	4.804	4.640	6.188	8.920	7.851	6.056	-1.632	398.438
-2.447	-1.179	-4.089	-0.742	0.216	-1.321	1.792	1.079	1.407	-0.287	-2.746	-0.618	1.412	2.974	-2.101	0.913	-0.355	-0.855	3.567	2.233	2.791	4.801	4.657	6.108	8.832	7.688	5.950	-1.848	402.344
-2.434	-1.201	-3.956	-0.753	0.198	-1.268	1.635	1.150	1.339	-0.540	-2.827	-0.678	1.320	2.940	-2.016	0.849	-0.392	-0.753	3.535	2.245	2.793	4.740	4.623	6.015	8.701	7.566	5.880	-1.878	406.250
-2.475	-1.280	-3.877	-0.807	0.178	-1.231	1.537	1.243	1.324	-0.693	-2.800	-0.534	1.261	2.910	-2.004	0.720	-0.518	-0.703	3.449	2.209	2.791	4.635	4.550	5.919	8.546	7.497	5.846	-1.762	410.156
-2.536	-1.380	-3.829	-0.877	0.170	-1.193	1.478	1.317	1.321	-0.778	-2.718	-0.250	1.228	2.888	-2.040	0.555	-0.703	-0.695	3.327	2.144	2.798	4.499	4.448	5.819	8.384	7.477	5.834	-1.557	414.062
-2.577	-1.459	-3.782	-0.932	0.189	-1.133	1.429	1.336	1.288	-0.840	-2.634	0.099	1.207	2.874	-2.094	0.392	-0.911	-0.713	3.191	2.081	2.827	4.347	4.324	5.707	8.223	7.490	5.816	-1.330	417.969
-2.563	-1.478	-3.706	-0.941	0.244	-1.033	1.363	1.276	1.194	-0.923	-2.587	0.444	1.180	2.865	-2.133	0.269	-1.103	-0.743	3.062	2.051	2.887	4.190	4.181	5.567	8.061	7.510	5.761	-1.140	421.875
-2.466	-1.413	-3.579	-0.887	0.336	-0.888	1.257	1.127	1.028	-1.057	-2.599	0.735	1.133	2.852	-2.131	0.216	-1.244	-0.768	2.959	2.076	2.978	4.034	4.021	5.382	7.887	7.504	5.635	-1.028	425.781
-2.278	-1.257	-3.389	-0.766	0.456	-0.703	1.101	0.904	0.796	-1.255	-2.666	0.951	1.053	2.826	-2.071	0.246	-1.311	-0.774	2.891	2.167	3.089	3.880	3.842	5.137	7.680	7.443	5.418	-1.010	429.688
-2.010	-1.024	-3.141	-0.593	0.588	-0.498	0.899	0.634	0.525	-1.510	-2.763	1.096	0.939	2.777	-1.949	0.352	-1.299	-0.754	2.859	2.314	3.199	3.726	3.645	4.829	7.423	7.299	5.099	-1.079	433.594
-1.688	-0.747	-2.851	-0.396	0.708	-0.299	0.668	0.359	0.251	-1.796	-2.855	1.195	0.802	2.702	-1.774	0.511	-1.218	-0.706	2.851	2.489	3.287	3.571	3.434	4.466	7.101	7.058	4.689	-1.207	437.500
-1.347	-0.467	-2.542	-0.210	0.796	-0.135	0.436	0.120	0.013	-2.079	-2.901	1.285	0.663	2.605	-1.568	0.681	-1.098	-0.637	2.852	2.654	3.334	3.415	3.216	4.069	6.710	6.718	4.212	-1.357	441.406
-1.025	-0.231	-2.245	-0.071	0.839	-0.031	0.236	-0.048	-0.157	-2.319	-2.872	1.399	0.549	2.501	-1.361	0.819	-0.976	-0.560	2.842	2.772	3.332	3.265	3.005	3.668	6.256	6.287	3.704	-1.494	445.312
-0.752	-0.072	-1.985	-0.001	0.832	0.001	0.097	-0.124	-0.237	-2.482	-2.752	1.567	0.489	2.410	-1.185	0.889	-0.890	-0.492	2.804	2.815	3.288	3.126	2.815	3.297	5.756	5.786	3.206	-1.590	449.219
-0.544	-0.012	-1.786	-0.013	0.784	-0.041	0.035	-0.108	-0.226	-2.544	-2.544	1.801	0.503	2.352	-1.062	0.870	-0.869	-0.446	2.728	2.772	3.220	3.006	2.659	2.983	5.231	5.243	2.753	-1.630	453.125
-0.402	-0.050	-1.661	-0.098	0.710	-0.148	0.054	-0.015	-0.136	-2.503	-2.268	2.100	0.599	2.345	-1.005	0.764	-0.921	-0.433	2.616	2.658	3.154	2.909	2.545	2.743	4.703	4.687	2.373	-1.618	457.031
-0.312	-0.167	-1.611	-0.236	0.631	-0.300	0.139	0.120	0.002	-2.370	-1.958	2.446	0.771	2.395	-1.006	0.599	-1.034	-0.451	2.481	2.504	3.116	2.837	2.475	2.580	4.189	4.145	2.077	-1.571	460.938
-0.250	-0.326	-1.632	-0.394	0.567	-0.474	0.258	0.256	0.148	-2.180	-1.651	2.809	0.994	2.499	-1.043	0.418	-1.175	-0.492	2.346	2.355	3.126	2.789	2.443	2.483	3.703	3.638	1.861	-1.518	464.844
-0.187	-0.487	-1.707	-0.538	0.532	-0.648	0.370	0.349	0.257	-1.977	-1.388	3.157	1.235	2.641	-1.083	0.275	-1.300	-0.538	2.238	2.253	3.190	2.761	2.442	2.433	3.252	3.183	1.709	-1.489	468.750
-0.100	-0.606	-1.816	-0.641	0.527	-0.806	0.432	0.364	0.291	-1.811	-1.199	3.456	1.456	2.799	-1.091	0.216	-1.364	-0.570	2.184	2.234	3.303	2.749	2.459	2.406	2.842	2.790	1.600	-1.513	472.656
0.028	-0.652	-1.935	-0.683	0.546	-0.939	0.407	0.281	0.222	-1.728	-1.101	3.686	1.620	2.946	-1.035	0.273	-1.333	-0.566	2.201	2.311	3.448	2.749	2.484	2.382	2.476	2.467	1.512	-1.606	476.562
0.201	-0.608	-2.039	-0.658	0.575	-1.044	0.268	0.094	0.041	-1.759	-1.096	3.838	1.700	3.058	-0.898	0.453	-1.192	-0.514	2.297	2.479	3.599	2.756	2.508	2.343	2.158	2.217	1.426	-1.774	480.469
0.412	-0.476	-2.108	-0.573	0.597	-1.124	0.010	-0.184	-0.243	-1.919	-1.176	3.917	1.683	3.116	-0.675	0.740	-0.948	-0.407	2.464	2.713	3.728	2.766	2.526	2.283	1.890	2.042	1.330	-2.009	484.375
0.648	-0.270	-2.127	-0.442	0.594	-1.187	-0.358	-0.527	-0.609	-2.203	-1.320	3.940	1.571	3.112	-0.378	1.101	-0.627	-0.244	2.685	2.976	3.815	2.776	2.534	2.197	1.671	1.934	1.217	-2.295	488.281
0.891	-0.018	-2.091	-0.284	0.559	-1.239	-0.808	-0.901	-1.019	-2.585	-1.503	3.926	1.380	3.047	-0.027	1.491	-0.268	-0.033	2.932	3.230	3.847	2.779	2.530	2.087	1.499	1.882	1.084	-2.611	492.188
1.124	0.251	-1.999	-0.117	0.494	-1.280	-1.301	-1.268	-1.433	-3.028	-1.702	3.895	1.140	2.934	0.350	1.864	0.085	0.213	3.175	3.445	3.825	2.770	2.512	1.955	1.365	1.864	0.929	-2.935	496.094
1.335	0.507	-1.862	0.047	0.409	-1.309	-1.790	-1.589	-1.806	-3.482	-1.893	3.860	0.883	2.792	0.724	2.185	0.395	0.475	3.388	3.602	3.761	2.739	2.477	1.802	1.253	1.851	0.747	-3.250	500.000
1.519	0.731	-1.697	0.201	0.327	-1.318	-2.228	-1.833	-2.102	-3.899	-2.057	3.832	0.642	2.647	1.071	2.433	0.634	0.734	3.551	3.702	3.679	2.682	2.421	1.628	1.145	1.812	0.532	-3.540	503.906
1.673	0.911	-1.522	0.345	0.273	-1.297	-2.573	-1.978	-2.295	-4.236	-2.182	3.814	0.445	2.522	1.372	2.603	0.794	0.971	3.658	3.759	3.604	2.596	2.342	1.431	1.021	1.715	0.276	-3.802	507.812
1.804	1.049	-1.358	0.485	0.270	-1.238	-2.796	-2.013	-2.371	-4.461	-2.258	3.804	0.305	2.436	1.620	2.709	0.880	1.170	3.716	3.798	3.562	2.483	2.239	1.213	0.863	1.537	-0.024	-4.035	511.719
1.920	1.154	-1.220	0.627	0.334	-1.138	-2.884	-1.945	-2.339	-4.556	-2.282	3.796	0.227	2.399	1.812	2.773	0.909	1.324	3.740	3.846	3.570	2.354	2.119	0.976	0.662	1.267	-0.366	-4.249	515.625
2.027	1.240	-1.117	0.777	0.469	-1.002	-2.842	-1.793	-2.220	-4.521	-2.256	3.784	0.205	2.413	1.956	2.821	0.906	1.431	3.751	3.921	3.632	2.223	1.988	0.731	0.422	0.911	-0.739	-4.455	519.531
2.131	1.323	-1.053	0.935	0.666	-0.839	-2.688	-1.591	-2.050	-4.368	-2.187	3.759	0.227	2.467	2.058	2.874	0.895	1.497	3.768	4.033	3.737	2.106	1.862	0.492	0.158	0.493	-1.117	-4.662	523.438
2.233	1.413	-1.021	1.098	0.903	-0.668	-2.454	-1.382	-1.869	-4.122	-2.088	3.714	0.277	2.546	2.131	2.946	0.893	1.536	3.804	4.174	3.862	2.018	1.756	0.281	-0.104	0.054	-1.466	-4.878	527.344
2.331	1.515	-1.016	1.257	1.152	-0.510	-2.181	-1.210	-1.720	-3.813	-1.978	3.641	0.344	2.631	2.183	3.040	0.914	1.563	3.865	4.327	3.978	1.970	1.683	0.122	-0.331	-0.360	-1.748	-5.098	531.250
2.419	1.629	-1.030	1.401	1.384	-0.388	-1.907	-1.118	-1.638	-3.478	-1.880	3.536	0.420	2.707	2.223	3.152	0.963	1.596	3.947	4.468	4.057	1.968	1.655	0.035	-0.492	-0.700	-1.926	-5.314	535.156
2.492	1.749	-1.056	1.522	1.572	-0.320	-1.669	-1.140	-1.653	-3.149	-1.817	3.394	0.502	2.766	2.260	3.275	1.045	1.648	4.045	4.581	4.082	2.013	1.678	0.036	-0.562	-0.932	-1.972	-5.508	539.062
2.543	1.870	-1.092	1.611	1.702	-0.319	-1.494	-1.293	-1.781	-2.861	-1.813	3.215	0.590	2.809	2.300	3.404	1.159	1.729	4.154	4.658	4.056	2.104	1.752	0.132	-0.532	-1.034	-1.878	-5.663	542.969
2.572	1.983	-1.135	1.667	1.772	-0.388	-1.398	-1.581	-2.026	-2.641	-1.887	2.998	0.685	2.847	2.352	3.536	1.306	1.842	4.270	4.704	3.996	2.237	1.873	0.316	-0.406	-1.009	-1.653	-5.762	546.875
2.581	2.087	-1.187	1.695	1.791	-0.520	-1.384	-1.988	-2.377	-2.510	-2.049	2.745	0.789	2.900	2.425	3.678	1.490	1.984	4.397	4.740	3.938	2.409	2.030	0.569	-0.209	-0.880	-1.325	-5.801	550.781
2.576	2.180	-1.246	1.702	1.778	-0.696	-1.448	-2.485	-2.814	-2.478	-2.301	2.457	0.900	2.983	2.527	3.839	1.712	2.151	4.544	4.790	3.920	2.616	2.216	0.864	0.027	-0.689	-0.938	-5.787	554.688
2.569	2.266	-1.312	1.696	1.750	-0.896	-1.574	-3.033	-3.306	-2.546	-2.631	2.137	1.016	3.112	2.667	4.028	1.978	2.338	4.722	4.880	3.975	2.856	2.420	1.170	0.259	-0.487	-0.542	-5.739	558.594
2.572	2.349	-1.384	1.686	1.721	-1.097	-1.742	-3.587	-3.816	-2.703	-3.018	1.792	1.129	3.289	2.851	4.252	2.289	2.543	4.940	5.026	4.118	3.123	2.635	1.456	0.448	-0.327	-0.186	-5.687	562.500
2.595	2.432	-1.459	1.678	1.700	-1.279	-1.930	-4.103	-4.305	-2.928	-3.432	1.431	1.235	3.505	3.082	4.512	2.643	2.764	5.204	5.226	4.344	3.413	2.857	1.700	0.564	-0.252	0.091	-5.658	566.406
2.645	2.516	-1.537	1.673	1.684	-1.427	-2.117	-4.543	-4.735	-3.194	-3.837	1.069	1.326	3.741	3.357	4.800	3.034	3.005	5.508	5.465	4.625	3.715	3.084	1.884	0.589	-0.291	0.261	-5.677	570.312
2.724	2.602	-1.614	1.671	1.665	-1.533	-2.284	-4.878	-5.071	-3.468	-4.199	0.725	1.395	3.969	3.669	5.100	3.447	3.264	5.838	5.712	4.916	4.016	3.314	2.003	0.524	-0.451	0.315	-5.758	574.219
2.829	2.689	-1.688	1.673	1.636	-1.593	-2.419	-5.090	-5.289	-3.722	-4.487	0.418	1.435	4.157	4.002	5.394	3.864	3.539	6.170	5.934	5.169	4.299	3.543	2.057	0.379	-0.719	0.257	-5.903	578.125
2.953	2.777	-1.751	1.681	1.592	-1.604	-2.517	-5.172	-5.376	-3.933	-4.682	0.165	1.436	4.277	4.337	5.662	4.265	3.819	6.478	6.099	5.339	4.543	3.760	2.049	0.177	-1.068	0.103	-6.104	582.031
3.088	2.869	-1.795	1.699	1.535	-1.563	-2.577	-5.128	-5.332	-4.084	-4.774	-0.024	1.392	4.312	4.654	5.888	4.629	4.088	6.733	6.188	5.400	4.724	3.951	1.981	-0.057	-1.464	-0.129	-6.348	585.938
3.228	2.970	-1.807	1.737	1.478	-1.468	-2.602	-4.970	-5.171	-4.171	-4.769	-0.150	1.295	4.257	4.933	6.062	4.936	4.330	6.913	6.196	5.347	4.824	4.099	1.857	-0.300	-1.871	-0.420	-6.621	589.844
3.367	3.085	-1.777	1.806	1.438	-1.313	-2.599	-4.716	-4.919	-4.200	-4.688	-0.225	1.141	4.122	5.161	6.182	5.172	4.528	7.007	6.136	5.202	4.832	4.188	1.678	-0.529	-2.260	-0.756	-6.913	593.750
3.504	3.221	-1.693	1.914	1.436	-1.097	-2.574	-4.393	-4.612	-4.188	-4.563	-0.270	0.929	3.929	5.332	6.252	5.329	4.669	7.013	6.030	5.001	4.748	4.207	1.447	-0.730	-2.614	-1.124	-7.216	597.656
3.640	3.381	-1.550	2.066	1.486	-0.824	-2.536	-4.032	-4.296	-4.158	-4.433	-0.313	0.665	3.708	5.450	6.279	5.406	4.751	6.944	5.907	4.789	4.586	4.160	1.172	-0.892	-2.924	-1.515	-7.526	601.562
3.782	3.562	-1.345	2.258	1.595	-0.502	-2.495	-3.668	-4.021	-4.142	-4.341	-0.385	0.362	3.493	5.526	6.274	5.412	4.781	6.823	5.794	4.606	4.375	4.061	0.870	-1.012	-3.191	-1.919	-7.840	605.469
3.938	3.759	-1.081	2.480	1.757	-0.148	-2.464	-3.344	-3.836	-4.171	-4.324	-0.511	0.041	3.311	5.578	6.251	5.361	4.778	6.680	5.708	4.480	4.156	3.938	0.565	-1.090	-3.422	-2.322	-8.154	609.375
4.119	3.966	-0.771	2.718	1.953	0.215	-2.456	-3.104	-3.786	-4.274	-4.410	-0.707	-0.272	3.184	5.627	6.220	5.275	4.764	6.549	5.660	4.424	3.974	3.829	0.289	-1.131	-3.626	-2.703	-8.465	613.281
4.335	4.173	-0.429	2.954	2.159	0.561	-2.485	-2.988	-3.906	-4.470	-4.615	-0.978	-0.544	3.123	5.695	6.193	5.182	4.765	6.460	5.650	4.434	3.871	3.768	0.075	-1.147	-3.814	-3.040	-8.767	617.188
4.592	4.371	-0.071	3.172	2.349	0.867	-2.559	-3.029	-4.211	-4.763	-4.941	-1.315	-0.745	3.135	5.799	6.182	5.107	4.803	6.437	5.673	4.499	3.880	3.783	-0.049	-1.154	-4.000	-3.309	-9.058	621.094
4.891	4.556	0.283	3.363	2.502	1.112	-2.680	-3.242	-4.699	-5.144	-5.371	-1.699	-0.843	3.218	5.949	6.195	5.073	4.892	6.495	5.723	4.602	4.014	3.888	-0.066	-1.176	-4.198	-3.493	-9.334	625.000
5.227	4.726	0.621	3.523	2.607	1.286	-2.842	-3.621	-5.340	-5.587	-5.881	-2.101	-0.820	3.369	6.147	6.238	5.097	5.033	6.633	5.796	4.732	4.268	4.076	0.027	-1.237	-4.426	-3.584	-9.600	628.906
5.585	4.882	0.932	3.653	2.664	1.383	-3.029	-4.137	-6.083	-6.052	-6.434	-2.490	-0.665	3.581	6.382	6.314	5.182	5.218	6.840	5.888	4.883	4.614	4.326	0.214	-1.365	-4.700	-3.587	-9.858	632.812
5.947	5.025	1.208	3.759	2.682	1.410	-3.219	-4.738	-6.862	-6.496	-6.986	-2.835	-0.384	3.845	6.638	6.419	5.322	5.429	7.093	6.000	5.054	5.011	4.601	0.464	-1.578	-5.032	-3.516	-10.113	636.719
6.288	5.156	1.446	3.845	2.674	1.375	-3.391	-5.361	-7.601	-6.874	-7.497	-3.112	0.000	4.147	6.889	6.546	5.498	5.642	7.362	6.131	5.245	5.412	4.865	0.738	-1.885	-5.424	-3.397	-10.366	640.625
6.587	5.273	1.642	3.913	2.653	1.293	-3.525	-5.935	-8.228	-7.154	-7.928	-3.304	0.452	4.467	7.111	6.683	5.685	5.832	7.614	6.274	5.453	5.769	5.080	0.994	-2.277	-5.866	-3.257	-10.613	644.531
6.823	5.371	1.793	3.961	2.628	1.180	-3.608	-6.401	-8.687	-7.315	-8.250	-3.405	0.923	4.779	7.282	6.814	5.858	5.978	7.821	6.416	5.665	6.042	5.222	1.196	-2.727	-6.330	-3.124	-10.843	648.438
6.982	5.443	1.899	3.984	2.599	1.049	-3.641	-6.711	-8.941	-7.356	-8.445	-3.418	1.359	5.052	7.387	6.923	5.994	6.070	7.961	6.542	5.861	6.207	5.279	1.316	-3.187	-6.780	-3.021	-11.038	652.344
7.058	5.480	1.956	3.975	2.560	0.911	-3.635	-6.843	-8.983	-7.293	-8.511	-3.356	1.710	5.251	7.422	6.994	6.081	6.103	8.024	6.630	6.011	6.256	5.254	1.344	-3.602	-7.171	-2.963	-11.176	656.250
7.055	5.474	1.963	3.927	2.504	0.775	-3.607	-6.802	-8.829	-7.159	-8.459	-3.239	1.936	5.353	7.392	7.019	6.117	6.084	8.012	6.664	6.088	6.198	5.162	1.281	-3.914	-7.458	-2.958	-11.240	660.156
6.983	5.424	1.922	3.838	2.422	0.646	-3.581	-6.614	-8.523	-6.994	-8.315	-3.088	2.015	5.341	7.312	6.997	6.108	6.026	7.939	6.635	6.072	6.055	5.028	1.144	-4.077	-7.610	-3.005	-11.216	664.062
6.863	5.330	1.837	3.713	2.310	0.526	-3.577	-6.327	-8.125	-6.841	-8.112	-2.929	1.945	5.218	7.200	6.932	6.071	5.945	7.827	6.543	5.958	5.859	4.881	0.958	-4.064	-7.609	-3.097	-11.103	667.969
6.716	5.200	1.715	3.559	2.169	0.414	-3.613	-5.994	-7.701	-6.741	-7.890	-2.779	1.748	5.004	7.078	6.835	6.022	5.855	7.698	6.398	5.758	5.647	4.749	0.756	-3.875	-7.457	-3.218	-10.911	671.875
6.561	5.043	1.564	3.386	2.001	0.308	-3.697	-5.670	-7.316	-6.720	-7.682	-2.648	1.461	4.730	6.962	6.714	5.974	5.771	7.576	6.216	5.495	5.454	4.652	0.572	-3.533	-7.173	-3.345	-10.657	675.781
6.413	4.865	1.395	3.201	1.812	0.205	-3.829	-5.396	-7.020	-6.789	-7.513	-2.533	1.130	4.433	6.861	6.578	5.938	5.700	7.475	6.011	5.202	5.310	4.607	0.437	-3.079	-6.785	-3.452	-10.363	679.688
6.275	4.668	1.216	3.007	1.604	0.099	-4.001	-5.199	-6.845	-6.939	-7.390	-2.416	0.803	4.151	6.774	6.423	5.912	5.646	7.401	5.791	4.909	5.230	4.616	0.378	-2.563	-6.328	-3.507	-10.046	683.594
6.139	4.451	1.035	2.802	1.379	-0.012	-4.197	-5.083	-6.795	-7.144	-7.305	-2.274	0.519	3.908	6.693	6.241	5.888	5.607	7.349	5.558	4.636	5.217	4.674	0.411	-2.038	-5.832	-3.478	-9.718	687.500
5.993	4.205	0.853	2.581	1.138	-0.133	-4.395	-5.037	-6.848	-7.361	-7.235	-2.077	0.307	3.721	6.601	6.022	5.853	5.577	7.305	5.306	4.397	5.259	4.768	0.538	-1.549	-5.325	-3.344	-9.380	691.406
5.818	3.925	0.670	2.341	0.886	-0.261	-4.568	-5.031	-6.963	-7.537	-7.145	-1.801	0.177	3.589	6.481	5.753	5.788	5.547	7.249	5.030	4.191	5.333	4.876	0.750	-1.131	-4.829	-3.094	-9.025	695.312
5.596	3.610	0.485	2.083	0.630	-0.393	-4.688	-5.028	-7.080	-7.618	-7.001	-1.431	0.127	3.504	6.314	5.433	5.676	5.499	7.158	4.728	4.013	5.407	4.970	1.022	-0.810	-4.362	-2.734	-8.640	699.219
5.318	3.268	0.295	1.815	0.385	-0.521	-4.727	-4.988	-7.142	-7.557	-6.773	-0.967	0.144	3.451	6.086	5.067	5.504	5.417	7.013	4.407	3.852	5.446	5.023	1.324	-0.597	-3.938	-2.288	-8.213	703.125
4.980	2.916	0.100	1.556	0.171	-0.632	-4.662	-4.878	-7.099	-7.326	-6.444	-0.424	0.214	3.419	5.789	4.673	5.265	5.280	6.801	4.082	3.702	5.419	5.008	1.619	-0.498	-3.566	-1.789	-7.738	707.031
4.588	2.578	-0.098	1.326	0.007	-0.714	-4.483	-4.678	-6.922	-6.917	-6.013	0.167	0.326	3.399	5.423	4.277	4.963	5.072	6.516	3.774	3.559	5.302	4.905	1.878	-0.506	-3.251	-1.278	-7.214	710.938
4.156	2.275	-0.294	1.145	-0.088	-0.755	-4.192	-4.386	-6.609	-6.351	-5.495	0.769	0.473	3.392	4.995	3.904	4.608	4.782	6.164	3.505	3.427	5.089	4.706	2.080	-0.606	-2.990	-0.792	-6.653	714.844
3.703	2.022	-0.486	1.024	-0.107	-0.753	-3.806	-4.020	-6.181	-5.669	-4.921	1.343	0.657	3.403	4.520	3.575	4.223	4.412	5.764	3.292	3.312	4.789	4.418	2.218	-0.776	-2.777	-0.357	-6.071	718.750
3.252	1.823	-0.673	0.958	-0.054	-0.714	-3.358	-3.614	-5.682	-4.932	-4.331	1.857	0.881	3.442	4.020	3.301	3.830	3.976	5.343	3.140	3.222	4.425	4.063	2.302	-0.983	-2.596	0.012	-5.487	722.656
2.823	1.665	-0.854	0.930	0.048	-0.652	-2.891	-3.213	-5.167	-4.207	-3.766	2.289	1.148	3.517	3.517	3.081	3.457	3.500	4.934	3.042	3.164	4.037	3.678	2.350	-1.194	-2.431	0.314	-4.920	726.562
2.435	1.526	-1.032	0.910	0.169	-0.591	-2.453	-2.863	-4.694	-3.563	-3.268	2.634	1.457	3.634	3.037	2.899	3.120	3.021	4.571	2.980	3.141	3.670	3.307	2.389	-1.371	-2.265	0.562	-4.383	730.469
2.101	1.378	-1.209	0.863	0.270	-0.554	-2.093	-2.607	-4.312	-3.057	-2.867	2.896	1.799	3.789	2.600	2.733	2.832	2.575	4.282	2.931	3.151	3.371	2.997	2.444	-1.478	-2.082	0.774	-3.884	734.375
1.829	1.196	-1.382	0.759	0.311	-0.566	-1.850	-2.474	-4.056	-2.729	-2.585	3.092	2.157	3.975	2.221	2.559	2.592	2.196	4.081	2.870	3.188	3.174	2.784	2.537	-1.486	-1.871	0.971	-3.427	738.281
1.618	0.964	-1.547	0.577	0.264	-0.641	-1.750	-2.476	-3.942	-2.599	-2.427	3.245	2.507	4.175	1.909	2.354	2.388	1.906	3.968	2.780	3.243	3.100	2.691	2.681	-1.373	-1.625	1.170	-3.013	742.188
1.463	0.681	-1.695	0.315	0.114	-0.784	-1.803	-2.605	-3.965	-2.665	-2.387	3.377	2.820	4.370	1.661	2.112	2.204	1.712	3.930	2.654	3.302	3.146	2.721	2.873	-1.132	-1.344	1.379	-2.639	746.094
1.353	0.362	-1.815	-0.013	-0.137	-0.985	-1.999	-2.837	-4.103	-2.902	-2.443	3.508	3.069	4.537	1.472	1.834	2.022	1.607	3.939	2.492	3.350	3.288	2.853	3.101	-0.772	-1.031	1.600	-2.305	750.000
1.273	0.035	-1.896	-0.377	-0.467	-1.226	-2.309	-3.132	-4.316	-3.267	-2.567	3.652	3.231	4.656	1.331	1.538	1.831	1.572	3.964	2.306	3.371	3.487	3.052	3.344	-0.314	-0.696	1.822	-2.009	753.906
1.212	-0.266	-1.932	-0.738	-0.844	-1.480	-2.693	-3.442	-4.560	-3.705	-2.724	3.814	3.291	4.710	1.225	1.249	1.627	1.582	3.975	2.110	3.352	3.693	3.271	3.574	0.204	-0.355	2.029	-1.754	757.812
1.159	-0.505	-1.923	-1.055	-1.228	-1.721	-3.100	-3.716	-4.785	-4.154	-2.878	3.991	3.247	4.693	1.147	1.001	1.421	1.614	3.952	1.926	3.284	3.858	3.464	3.762	0.732	-0.026	2.203	-1.541	761.719
1.109	-0.657	-1.875	-1.294	-1.577	-1.926	-3.479	-3.910	-4.951	-4.554	-2.998	4.173	3.109	4.608	1.089	0.821	1.232	1.650	3.891	1.771	3.169	3.947	3.594	3.886	1.213	0.267	2.325	-1.376	765.625
1.063	-0.709	-1.802	-1.435	-1.859	-2.081	-3.784	-3.986	-5.025	-4.854	-3.062	4.347	2.900	4.467	1.052	0.734	1.087	1.683	3.800	1.665	3.019	3.943	3.636	3.930	1.589	0.497	2.379	-1.264	769.531
1.026	-0.662	-1.722	-1.469	-2.046	-2.182	-3.978	-3.924	-4.990	-5.017	-3.056	4.502	2.652	4.292	1.038	0.753	1.012	1.714	3.700	1.621	2.854	3.845	3.579	3.884	1.806	0.640	2.354	-1.214	773.438
1.005	-0.532	-1.652	-1.404	-2.127	-2.232	-4.039	-3.717	-4.844	-5.026	-2.975	4.629	2.396	4.108	1.050	0.878	1.029	1.748	3.613	1.647	2.699	3.667	3.429	3.748	1.826	0.676	2.249	-1.233	777.344
1.008	-0.342	-1.606	-1.255	-2.100	-2.239	-3.965	-3.372	-4.594	-4.884	-2.827	4.725	2.162	3.934	1.091	1.096	1.148	1.793	3.560	1.744	2.578	3.432	3.199	3.531	1.630	0.595	2.067	-1.325	781.250
1.038	-0.118	-1.592	-1.046	-1.978	-2.216	-3.768	-2.908	-4.259	-4.608	-2.620	4.793	1.967	3.788	1.161	1.389	1.366	1.855	3.554	1.905	2.510	3.165	2.909	3.245	1.225	0.403	1.818	-1.487	785.156
1.096	0.117	-1.609	-0.802	-1.784	-2.174	-3.473	-2.352	-3.862	-4.232	-2.373	4.840	1.819	3.674	1.256	1.731	1.668	1.938	3.597	2.117	2.497	2.885	2.579	2.907	0.642	0.115	1.518	-1.711	789.062
1.176	0.346	-1.654	-0.543	-1.544	-2.126	-3.116	-1.739	-3.431	-3.796	-2.101	4.872	1.711	3.591	1.369	2.099	2.028	2.039	3.680	2.361	2.532	2.609	2.231	2.537	-0.062	-0.238	1.187	-1.979	792.969
1.268	0.563	-1.714	-0.288	-1.290	-2.082	-2.737	-1.107	-2.990	-3.341	-1.822	4.901	1.628	3.526	1.490	2.471	2.416	2.154	3.789	2.618	2.597	2.346	1.882	2.159	-0.820	-0.619	0.845	-2.266	796.875
