FP1	F3	F7	FC3	C3	C5	P3	P7	PO7	PO3	O1	Oz	Pz	CPz	FP2	Fz	F4	F8	FC4	FCz	Cz	C4	C6	P4	P8	PO8	PO4	O2	time
1.028	0.172	0.326	-0.788	0.704	0.192	0.551	-0.395	-0.338	0.319	-1.105	-0.461	0.922	0.964	0.677	0.542	-0.531	0.501	-0.785	0.882	1.202	0.715	-0.762	-0.504	-1.074	-0.892	-0.739	-0.707	-199.219
1.312	0.353	0.446	-0.270	0.980	0.574	0.471	-0.434	-0.456	-0.054	-1.118	-0.662	0.831	0.988	0.880	0.575	-0.468	0.476	-0.686	0.887	1.196	0.548	-0.859	-0.603	-1.161	-1.035	-0.868	-0.865	-195.312
1.549	0.523	0.553	0.195	1.224	0.908	0.401	-0.474	-0.565	-0.402	-1.131	-0.842	0.745	1.006	1.067	0.605	-0.403	0.445	-0.590	0.887	1.185	0.397	-0.935	-0.683	-1.229	-1.165	-0.984	-1.008	-191.406
1.709	0.669	0.637	0.557	1.404	1.153	0.347	-0.513	-0.656	-0.700	-1.138	-0.984	0.664	1.013	1.220	0.627	-0.333	0.410	-0.500	0.879	1.165	0.276	-0.971	-0.731	-1.261	-1.267	-1.073	-1.124	-187.500
1.772	0.784	0.689	0.784	1.500	1.281	0.312	-0.550	-0.724	-0.932	-1.135	-1.077	0.593	1.006	1.325	0.637	-0.253	0.371	-0.422	0.861	1.133	0.195	-0.953	-0.737	-1.247	-1.329	-1.124	-1.202	-183.594
1.729	0.867	0.700	0.862	1.505	1.284	0.298	-0.581	-0.762	-1.086	-1.118	-1.114	0.535	0.987	1.373	0.634	-0.159	0.330	-0.359	0.835	1.090	0.155	-0.875	-0.699	-1.187	-1.345	-1.127	-1.239	-179.688
1.588	0.920	0.664	0.802	1.425	1.172	0.303	-0.602	-0.770	-1.157	-1.081	-1.098	0.493	0.961	1.361	0.621	-0.047	0.286	-0.317	0.800	1.041	0.155	-0.741	-0.618	-1.088	-1.314	-1.079	-1.234	-175.781
1.377	0.937	0.581	0.628	1.277	0.972	0.322	-0.607	-0.746	-1.152	-1.020	-1.036	0.470	0.934	1.292	0.595	0.082	0.240	-0.297	0.760	0.989	0.185	-0.559	-0.505	-0.960	-1.236	-0.981	-1.193	-171.875
1.132	0.910	0.456	0.380	1.083	0.719	0.349	-0.591	-0.696	-1.086	-0.935	-0.940	0.463	0.909	1.176	0.556	0.223	0.196	-0.298	0.713	0.937	0.237	-0.346	-0.372	-0.817	-1.118	-0.840	-1.120	-167.969
0.898	0.827	0.299	0.099	0.866	0.449	0.375	-0.549	-0.624	-0.981	-0.826	-0.824	0.467	0.889	1.025	0.504	0.363	0.157	-0.317	0.660	0.883	0.301	-0.120	-0.232	-0.672	-0.969	-0.667	-1.024	-164.062
0.713	0.681	0.126	-0.174	0.646	0.193	0.390	-0.482	-0.539	-0.859	-0.698	-0.702	0.473	0.870	0.859	0.436	0.486	0.131	-0.347	0.600	0.828	0.369	0.101	-0.099	-0.533	-0.799	-0.479	-0.912	-160.156
0.598	0.478	-0.044	-0.409	0.438	-0.025	0.386	-0.397	-0.451	-0.740	-0.559	-0.585	0.472	0.849	0.693	0.354	0.576	0.120	-0.380	0.533	0.769	0.433	0.301	0.012	-0.405	-0.619	-0.291	-0.791	-156.250
0.554	0.237	-0.194	-0.584	0.253	-0.195	0.357	-0.303	-0.368	-0.639	-0.420	-0.481	0.453	0.817	0.545	0.263	0.620	0.126	-0.407	0.460	0.702	0.490	0.468	0.094	-0.290	-0.439	-0.117	-0.666	-152.344
0.561	-0.011	-0.312	-0.691	0.098	-0.314	0.303	-0.211	-0.296	-0.558	-0.293	-0.392	0.410	0.768	0.429	0.169	0.614	0.145	-0.419	0.382	0.629	0.535	0.596	0.139	-0.189	-0.269	0.033	-0.541	-148.438
0.586	-0.232	-0.390	-0.729	-0.027	-0.386	0.227	-0.131	-0.237	-0.491	-0.185	-0.319	0.342	0.699	0.351	0.081	0.560	0.168	-0.411	0.300	0.549	0.566	0.682	0.144	-0.103	-0.115	0.157	-0.419	-144.531
0.593	-0.400	-0.424	-0.707	-0.121	-0.418	0.141	-0.066	-0.190	-0.425	-0.103	-0.255	0.252	0.605	0.314	0.005	0.471	0.186	-0.382	0.217	0.463	0.577	0.724	0.114	-0.032	0.016	0.253	-0.302	-140.625
0.555	-0.498	-0.417	-0.636	-0.189	-0.418	0.054	-0.017	-0.149	-0.346	-0.045	-0.196	0.147	0.488	0.310	-0.053	0.360	0.190	-0.339	0.133	0.373	0.561	0.724	0.052	0.024	0.122	0.324	-0.192	-136.719
0.463	-0.525	-0.371	-0.529	-0.235	-0.392	-0.021	0.021	-0.107	-0.239	-0.006	-0.136	0.035	0.350	0.330	-0.096	0.243	0.177	-0.289	0.047	0.279	0.515	0.684	-0.030	0.063	0.200	0.375	-0.091	-132.812
0.324	-0.493	-0.292	-0.395	-0.264	-0.340	-0.076	0.054	-0.058	-0.101	0.023	-0.072	-0.077	0.196	0.359	-0.127	0.132	0.150	-0.244	-0.042	0.179	0.432	0.604	-0.125	0.083	0.252	0.407	-0.001	-128.906
0.162	-0.420	-0.188	-0.243	-0.278	-0.263	-0.105	0.091	0.002	0.066	0.049	-0.006	-0.181	0.032	0.384	-0.156	0.036	0.117	-0.212	-0.137	0.072	0.312	0.491	-0.222	0.084	0.276	0.419	0.074	-125.000
0.007	-0.327	-0.067	-0.076	-0.278	-0.161	-0.107	0.136	0.073	0.248	0.080	0.058	-0.271	-0.134	0.396	-0.189	-0.041	0.091	-0.197	-0.238	-0.042	0.160	0.351	-0.312	0.063	0.273	0.408	0.130	-121.094
-0.112	-0.232	0.060	0.100	-0.263	-0.035	-0.086	0.190	0.152	0.426	0.116	0.112	-0.343	-0.293	0.393	-0.233	-0.101	0.084	-0.198	-0.344	-0.163	-0.015	0.195	-0.389	0.020	0.245	0.370	0.163	-117.188
-0.178	-0.149	0.181	0.280	-0.230	0.108	-0.048	0.251	0.231	0.580	0.155	0.147	-0.393	-0.434	0.379	-0.288	-0.146	0.104	-0.207	-0.451	-0.285	-0.197	0.037	-0.445	-0.042	0.192	0.300	0.170	-113.281
-0.188	-0.086	0.286	0.452	-0.182	0.257	-0.001	0.311	0.301	0.692	0.191	0.157	-0.418	-0.547	0.359	-0.349	-0.176	0.154	-0.216	-0.553	-0.400	-0.367	-0.107	-0.476	-0.119	0.119	0.199	0.150	-109.375
-0.153	-0.042	0.365	0.603	-0.124	0.396	0.046	0.362	0.354	0.749	0.217	0.140	-0.420	-0.624	0.340	-0.410	-0.191	0.230	-0.213	-0.642	-0.500	-0.508	-0.221	-0.474	-0.201	0.034	0.075	0.106	-105.469
-0.094	-0.018	0.408	0.716	-0.067	0.504	0.082	0.395	0.385	0.748	0.229	0.100	-0.401	-0.661	0.321	-0.460	-0.188	0.320	-0.190	-0.710	-0.575	-0.605	-0.291	-0.438	-0.272	-0.053	-0.063	0.046	-101.562
-0.037	-0.010	0.412	0.775	-0.026	0.562	0.097	0.406	0.393	0.690	0.227	0.044	-0.368	-0.658	0.299	-0.493	-0.164	0.410	-0.141	-0.750	-0.620	-0.647	-0.310	-0.363	-0.315	-0.125	-0.196	-0.016	-97.656
0.000	-0.020	0.373	0.769	-0.014	0.554	0.086	0.394	0.380	0.585	0.214	-0.016	-0.325	-0.621	0.264	-0.505	-0.120	0.483	-0.065	-0.762	-0.637	-0.635	-0.275	-0.252	-0.311	-0.165	-0.306	-0.066	-93.750
0.003	-0.049	0.295	0.693	-0.043	0.472	0.048	0.364	0.354	0.448	0.200	-0.068	-0.281	-0.561	0.205	-0.500	-0.061	0.525	0.033	-0.747	-0.628	-0.580	-0.192	-0.109	-0.248	-0.154	-0.373	-0.088	-89.844
-0.032	-0.098	0.186	0.554	-0.116	0.321	-0.012	0.324	0.324	0.298	0.192	-0.097	-0.241	-0.488	0.113	-0.484	0.003	0.525	0.143	-0.712	-0.605	-0.502	-0.074	0.057	-0.119	-0.083	-0.385	-0.069	-85.938
-0.105	-0.170	0.057	0.366	-0.228	0.118	-0.085	0.285	0.300	0.160	0.200	-0.096	-0.207	-0.419	-0.012	-0.465	0.056	0.476	0.252	-0.668	-0.579	-0.424	0.062	0.233	0.070	0.053	-0.335	-0.003	-82.031
-0.212	-0.260	-0.078	0.148	-0.367	-0.110	-0.158	0.255	0.290	0.056	0.230	-0.059	-0.183	-0.365	-0.164	-0.452	0.084	0.381	0.347	-0.625	-0.561	-0.369	0.192	0.403	0.301	0.244	-0.227	0.108	-78.125
-0.345	-0.360	-0.202	-0.076	-0.514	-0.328	-0.221	0.243	0.298	0.008	0.285	0.012	-0.168	-0.337	-0.328	-0.452	0.076	0.247	0.418	-0.594	-0.560	-0.352	0.298	0.548	0.549	0.472	-0.074	0.256	-74.219
-0.496	-0.461	-0.302	-0.287	-0.652	-0.505	-0.264	0.247	0.324	0.029	0.363	0.112	-0.163	-0.342	-0.487	-0.465	0.026	0.088	0.458	-0.580	-0.579	-0.377	0.364	0.655	0.784	0.712	0.106	0.424	-70.312
-0.651	-0.547	-0.365	-0.469	-0.765	-0.618	-0.284	0.265	0.360	0.126	0.459	0.233	-0.167	-0.382	-0.627	-0.491	-0.065	-0.077	0.469	-0.585	-0.619	-0.436	0.383	0.714	0.979	0.934	0.291	0.594	-66.406
-0.794	-0.605	-0.389	-0.616	-0.845	-0.660	-0.280	0.289	0.399	0.295	0.564	0.364	-0.178	-0.451	-0.740	-0.527	-0.188	-0.233	0.453	-0.605	-0.674	-0.512	0.355	0.722	1.114	1.114	0.461	0.750	-62.500
-0.907	-0.624	-0.377	-0.723	-0.889	-0.635	-0.258	0.313	0.432	0.517	0.667	0.498	-0.196	-0.541	-0.828	-0.566	-0.327	-0.364	0.419	-0.634	-0.735	-0.583	0.291	0.683	1.178	1.233	0.600	0.877	-58.594
-0.975	-0.597	-0.338	-0.792	-0.898	-0.561	-0.225	0.329	0.452	0.765	0.757	0.626	-0.219	-0.637	-0.898	-0.602	-0.462	-0.463	0.372	-0.660	-0.792	-0.631	0.204	0.608	1.175	1.281	0.698	0.968	-54.688
-0.994	-0.527	-0.286	-0.821	-0.881	-0.464	-0.190	0.334	0.455	1.002	0.827	0.743	-0.245	-0.726	-0.963	-0.625	-0.571	-0.527	0.323	-0.671	-0.834	-0.642	0.110	0.512	1.116	1.258	0.750	1.021	-50.781
-0.967	-0.424	-0.234	-0.813	-0.843	-0.370	-0.161	0.326	0.440	1.189	0.869	0.843	-0.272	-0.793	-1.033	-0.626	-0.634	-0.559	0.279	-0.655	-0.852	-0.610	0.026	0.413	1.019	1.173	0.757	1.036	-46.875
-0.913	-0.305	-0.194	-0.766	-0.792	-0.303	-0.146	0.307	0.409	1.290	0.883	0.920	-0.298	-0.828	-1.108	-0.596	-0.636	-0.566	0.247	-0.603	-0.842	-0.534	-0.039	0.325	0.905	1.040	0.725	1.021	-42.969
-0.858	-0.188	-0.173	-0.681	-0.734	-0.277	-0.149	0.277	0.367	1.281	0.869	0.971	-0.321	-0.825	-1.184	-0.525	-0.571	-0.559	0.235	-0.510	-0.801	-0.422	-0.077	0.259	0.790	0.876	0.665	0.980	-39.062
-0.829	-0.092	-0.172	-0.559	-0.673	-0.297	-0.173	0.240	0.318	1.156	0.830	0.993	-0.337	-0.785	-1.250	-0.410	-0.443	-0.549	0.247	-0.376	-0.732	-0.282	-0.086	0.222	0.686	0.700	0.590	0.923	-35.156
-0.845	-0.028	-0.189	-0.405	-0.612	-0.357	-0.213	0.196	0.270	0.924	0.769	0.984	-0.343	-0.713	-1.296	-0.252	-0.268	-0.546	0.288	-0.208	-0.640	-0.128	-0.069	0.216	0.600	0.530	0.512	0.857	-31.250
-0.908	0.001	-0.219	-0.231	-0.550	-0.439	-0.263	0.149	0.226	0.611	0.690	0.946	-0.337	-0.619	-1.318	-0.062	-0.071	-0.556	0.356	-0.023	-0.535	0.027	-0.033	0.235	0.533	0.380	0.444	0.790	-27.344
-1.002	-0.001	-0.253	-0.053	-0.490	-0.523	-0.315	0.099	0.190	0.254	0.597	0.885	-0.318	-0.516	-1.319	0.142	0.115	-0.582	0.448	0.161	-0.428	0.169	0.013	0.274	0.482	0.262	0.396	0.728	-23.438
-1.097	-0.020	-0.283	0.112	-0.435	-0.584	-0.359	0.048	0.163	-0.109	0.493	0.807	-0.288	-0.417	-1.310	0.339	0.263	-0.621	0.552	0.323	-0.332	0.285	0.058	0.324	0.442	0.186	0.374	0.677	-19.531
-1.158	-0.039	-0.302	0.246	-0.386	-0.607	-0.387	-0.005	0.142	-0.443	0.382	0.719	-0.251	-0.334	-1.304	0.506	0.349	-0.664	0.654	0.443	-0.260	0.365	0.095	0.374	0.410	0.156	0.378	0.641	-15.625
-1.155	-0.041	-0.304	0.338	-0.347	-0.585	-0.394	-0.057	0.125	-0.721	0.271	0.631	-0.215	-0.275	-1.312	0.625	0.361	-0.698	0.739	0.510	-0.218	0.402	0.114	0.419	0.383	0.170	0.403	0.619	-11.719
-1.073	-0.015	-0.287	0.390	-0.320	-0.525	-0.381	-0.107	0.107	-0.928	0.165	0.549	-0.185	-0.244	-1.342	0.687	0.302	-0.708	0.794	0.519	-0.211	0.396	0.113	0.454	0.360	0.222	0.440	0.608	-7.812
-0.915	0.043	-0.253	0.407	-0.303	-0.444	-0.350	-0.152	0.088	-1.061	0.073	0.477	-0.165	-0.240	-1.391	0.692	0.187	-0.682	0.812	0.475	-0.236	0.353	0.090	0.477	0.341	0.303	0.478	0.603	-3.906
-0.700	0.124	-0.207	0.406	-0.292	-0.363	-0.307	-0.188	0.065	-1.124	0.002	0.416	-0.162	-0.259	-1.452	0.649	0.041	-0.613	0.795	0.390	-0.289	0.282	0.049	0.489	0.328	0.397	0.505	0.599	0.000
-0.462	0.215	-0.157	0.400	-0.284	-0.303	-0.256	-0.210	0.044	-1.128	-0.042	0.368	-0.176	-0.296	-1.511	0.573	-0.107	-0.502	0.749	0.279	-0.360	0.196	-0.003	0.491	0.324	0.493	0.517	0.589	3.906
-0.240	0.296	-0.109	0.400	-0.273	-0.275	-0.200	-0.212	0.031	-1.082	-0.054	0.332	-0.209	-0.347	-1.556	0.479	-0.232	-0.359	0.687	0.155	-0.442	0.107	-0.059	0.483	0.330	0.577	0.509	0.572	7.812
-0.071	0.351	-0.071	0.408	-0.259	-0.282	-0.140	-0.188	0.036	-0.995	-0.029	0.309	-0.258	-0.410	-1.579	0.377	-0.319	-0.200	0.618	0.031	-0.528	0.024	-0.113	0.465	0.345	0.641	0.485	0.548	11.719
0.019	0.371	-0.045	0.420	-0.244	-0.313	-0.075	-0.133	0.069	-0.873	0.033	0.299	-0.323	-0.483	-1.580	0.278	-0.363	-0.043	0.549	-0.087	-0.618	-0.051	-0.159	0.433	0.367	0.680	0.452	0.523	15.625
0.019	0.357	-0.035	0.430	-0.230	-0.352	-0.005	-0.045	0.136	-0.726	0.133	0.307	-0.399	-0.567	-1.569	0.186	-0.370	0.093	0.476	-0.196	-0.711	-0.119	-0.198	0.386	0.392	0.695	0.419	0.505	19.531
-0.068	0.320	-0.037	0.430	-0.222	-0.379	0.069	0.072	0.236	-0.564	0.266	0.338	-0.482	-0.661	-1.562	0.102	-0.354	0.195	0.395	-0.296	-0.807	-0.186	-0.232	0.320	0.415	0.689	0.396	0.505	23.438
-0.224	0.275	-0.050	0.419	-0.223	-0.377	0.141	0.209	0.362	-0.403	0.425	0.395	-0.565	-0.763	-1.575	0.026	-0.333	0.256	0.295	-0.387	-0.907	-0.258	-0.263	0.238	0.430	0.669	0.388	0.531	27.344
-0.423	0.239	-0.067	0.400	-0.238	-0.339	0.206	0.349	0.497	-0.258	0.597	0.479	-0.644	-0.867	-1.621	-0.040	-0.320	0.275	0.171	-0.469	-1.008	-0.340	-0.293	0.146	0.432	0.643	0.404	0.588	31.250
-0.634	0.218	-0.087	0.378	-0.268	-0.267	0.253	0.475	0.623	-0.144	0.767	0.589	-0.712	-0.965	-1.703	-0.099	-0.325	0.260	0.026	-0.539	-1.107	-0.430	-0.322	0.054	0.423	0.624	0.449	0.678	35.156
-0.831	0.209	-0.108	0.354	-0.318	-0.182	0.273	0.571	0.721	-0.066	0.919	0.719	-0.766	-1.049	-1.817	-0.153	-0.351	0.220	-0.132	-0.599	-1.198	-0.520	-0.343	-0.020	0.410	0.626	0.530	0.797	39.062
-0.993	0.195	-0.134	0.322	-0.393	-0.112	0.259	0.626	0.782	-0.022	1.039	0.864	-0.802	-1.113	-1.953	-0.208	-0.394	0.167	-0.286	-0.651	-1.280	-0.600	-0.348	-0.058	0.409	0.671	0.658	0.942	42.969
-1.115	0.148	-0.174	0.268	-0.503	-0.090	0.210	0.639	0.808	0.004	1.126	1.012	-0.821	-1.157	-2.106	-0.273	-0.446	0.109	-0.416	-0.699	-1.354	-0.655	-0.329	-0.038	0.443	0.787	0.844	1.108	46.875
-1.204	0.043	-0.241	0.169	-0.656	-0.146	0.129	0.615	0.815	0.040	1.186	1.156	-0.826	-1.185	-2.275	-0.359	-0.501	0.049	-0.509	-0.757	-1.428	-0.676	-0.280	0.056	0.542	1.006	1.101	1.292	50.781
-1.279	-0.140	-0.348	0.003	-0.860	-0.297	0.029	0.571	0.830	0.119	1.241	1.288	-0.820	-1.208	-2.467	-0.478	-0.555	-0.014	-0.558	-0.836	-1.511	-0.663	-0.202	0.236	0.738	1.357	1.438	1.489	54.688
-1.371	-0.408	-0.508	-0.245	-1.120	-0.544	-0.074	0.525	0.887	0.276	1.323	1.401	-0.807	-1.240	-2.689	-0.639	-0.613	-0.089	-0.570	-0.953	-1.616	-0.622	-0.103	0.505	1.055	1.862	1.857	1.692	58.594
-1.509	-0.751	-0.726	-0.572	-1.428	-0.870	-0.158	0.499	1.017	0.537	1.464	1.490	-0.791	-1.292	-2.948	-0.845	-0.683	-0.183	-0.561	-1.118	-1.753	-0.571	0.002	0.851	1.500	2.522	2.345	1.894	62.500
-1.712	-1.142	-0.999	-0.957	-1.769	-1.239	-0.203	0.511	1.241	0.914	1.695	1.555	-0.770	-1.373	-3.240	-1.092	-0.775	-0.307	-0.554	-1.334	-1.926	-0.531	0.093	1.250	2.061	3.309	2.873	2.081	66.406
-1.985	-1.545	-1.310	-1.360	-2.114	-1.601	-0.188	0.569	1.563	1.400	2.027	1.594	-0.743	-1.479	-3.554	-1.363	-0.899	-0.465	-0.574	-1.594	-2.127	-0.521	0.150	1.667	2.698	4.167	3.397	2.236	70.312
-2.310	-1.921	-1.632	-1.731	-2.429	-1.906	-0.104	0.677	1.966	1.965	2.455	1.613	-0.703	-1.600	-3.866	-1.636	-1.054	-0.655	-0.637	-1.880	-2.341	-0.557	0.154	2.056	3.347	5.010	3.863	2.339	74.219
-2.651	-2.231	-1.932	-2.016	-2.672	-2.108	0.053	0.824	2.414	2.562	2.945	1.619	-0.642	-1.714	-4.145	-1.882	-1.230	-0.865	-0.748	-2.162	-2.541	-0.642	0.097	2.370	3.930	5.731	4.208	2.375	78.125
-2.959	-2.443	-2.171	-2.176	-2.810	-2.177	0.273	0.992	2.855	3.133	3.444	1.619	-0.554	-1.798	-4.359	-2.071	-1.407	-1.075	-0.896	-2.407	-2.697	-0.766	-0.019	2.568	4.362	6.220	4.381	2.329	82.031
-3.178	-2.531	-2.319	-2.189	-2.816	-2.105	0.537	1.158	3.227	3.613	3.885	1.623	-0.433	-1.823	-4.476	-2.176	-1.554	-1.255	-1.051	-2.581	-2.778	-0.908	-0.176	2.622	4.569	6.380	4.339	2.196	85.938
-3.258	-2.480	-2.351	-2.053	-2.679	-1.908	0.816	1.292	3.468	3.942	4.195	1.632	-0.278	-1.766	-4.471	-2.173	-1.635	-1.375	-1.174	-2.651	-2.755	-1.033	-0.342	2.525	4.496	6.139	4.066	1.975	89.844
-3.164	-2.283	-2.257	-1.787	-2.403	-1.614	1.075	1.365	3.523	4.071	4.307	1.643	-0.091	-1.612	-4.326	-2.049	-1.617	-1.405	-1.220	-2.591	-2.608	-1.104	-0.478	2.290	4.119	5.466	3.570	1.673	93.750
-2.874	-1.941	-2.041	-1.422	-2.010	-1.263	1.281	1.347	3.352	3.971	4.168	1.641	0.123	-1.351	-4.032	-1.794	-1.473	-1.325	-1.146	-2.385	-2.325	-1.080	-0.540	1.949	3.444	4.372	2.883	1.300	97.656
-2.391	-1.468	-1.716	-0.993	-1.529	-0.891	1.402	1.215	2.936	3.633	3.749	1.607	0.356	-0.983	-3.589	-1.408	-1.193	-1.123	-0.925	-2.026	-1.903	-0.933	-0.490	1.550	2.505	2.915	2.061	0.870	101.562
-1.736	-0.887	-1.305	-0.530	-1.000	-0.527	1.416	0.953	2.276	3.071	3.049	1.518	0.601	-0.517	-3.008	-0.898	-0.781	-0.801	-0.548	-1.518	-1.352	-0.644	-0.309	1.140	1.358	1.184	1.168	0.398	105.469
-0.952	-0.233	-0.835	-0.056	-0.463	-0.188	1.315	0.554	1.398	2.320	2.096	1.360	0.853	0.032	-2.312	-0.278	-0.264	-0.375	-0.031	-0.877	-0.690	-0.217	0.002	0.764	0.071	-0.701	0.275	-0.095	109.375
-0.097	0.450	-0.336	0.412	0.043	0.114	1.101	0.029	0.351	1.434	0.951	1.134	1.106	0.641	-1.537	0.428	0.318	0.127	0.586	-0.133	0.052	0.326	0.418	0.453	-1.278	-2.605	-0.550	-0.579	113.281
0.753	1.111	0.164	0.863	0.486	0.373	0.792	-0.596	-0.793	0.479	-0.297	0.861	1.355	1.279	-0.736	1.181	0.913	0.667	1.244	0.671	0.834	0.942	0.890	0.220	-2.612	-4.393	-1.254	-1.018	117.188
1.519	1.698	0.634	1.284	0.839	0.582	0.415	-1.279	-1.951	-0.472	-1.540	0.582	1.591	1.904	0.028	1.934	1.462	1.201	1.873	1.478	1.604	1.571	1.357	0.059	-3.852	-5.935	-1.797	-1.365	121.094
2.120	2.164	1.047	1.664	1.082	0.736	0.002	-1.963	-3.028	-1.344	-2.664	0.354	1.801	2.472	0.683	2.627	1.914	1.683	2.399	2.222	2.302	2.146	1.755	-0.049	-4.925	-7.125	-2.159	-1.573	125.000
2.488	2.477	1.382	1.984	1.206	0.830	-0.411	-2.582	-3.933	-2.070	-3.557	0.238	1.962	2.929	1.158	3.199	2.226	2.072	2.759	2.837	2.866	2.595	2.026	-0.133	-5.765	-7.882	-2.338	-1.599	128.906
2.578	2.622	1.621	2.229	1.209	0.859	-0.792	-3.072	-4.587	-2.594	-4.131	0.284	2.049	3.225	1.396	3.592	2.372	2.335	2.907	3.261	3.237	2.857	2.132	-0.226	-6.319	-8.163	-2.348	-1.414	132.812
2.372	2.601	1.754	2.380	1.095	0.823	-1.111	-3.377	-4.930	-2.883	-4.326	0.522	2.032	3.316	1.360	3.760	2.345	2.451	2.824	3.446	3.369	2.884	2.054	-0.353	-6.550	-7.961	-2.214	-1.014	136.719
1.890	2.433	1.782	2.425	0.877	0.730	-1.346	-3.457	-4.929	-2.927	-4.122	0.952	1.887	3.174	1.044	3.676	2.152	2.415	2.513	3.366	3.235	2.656	1.801	-0.528	-6.443	-7.307	-1.970	-0.415	140.625
1.182	2.142	1.714	2.353	0.571	0.590	-1.481	-3.296	-4.584	-2.737	-3.538	1.543	1.599	2.790	0.473	3.337	1.815	2.235	2.006	3.019	2.832	2.178	1.402	-0.750	-6.005	-6.262	-1.648	0.338	144.531
0.328	1.761	1.569	2.165	0.201	0.420	-1.512	-2.903	-3.927	-2.346	-2.631	2.240	1.166	2.182	-0.295	2.763	1.362	1.932	1.348	2.427	2.182	1.485	0.902	-1.007	-5.271	-4.915	-1.283	1.182	148.438
-0.576	1.318	1.371	1.874	-0.206	0.242	-1.436	-2.311	-3.015	-1.797	-1.487	2.968	0.605	1.388	-1.180	1.996	0.829	1.535	0.602	1.639	1.332	0.636	0.354	-1.276	-4.298	-3.372	-0.903	2.043	152.344
-1.430	0.846	1.148	1.502	-0.620	0.078	-1.263	-1.573	-1.929	-1.140	-0.210	3.650	-0.053	0.470	-2.094	1.098	0.249	1.081	-0.171	0.718	0.350	-0.296	-0.193	-1.535	-3.163	-1.749	-0.534	2.846	156.250
-2.146	0.376	0.926	1.087	-1.004	-0.050	-1.003	-0.754	-0.760	-0.423	1.088	4.215	-0.764	-0.502	-2.949	0.143	-0.345	0.611	-0.910	-0.258	-0.686	-1.233	-0.697	-1.762	-1.956	-0.159	-0.195	3.524	160.156
-2.662	-0.057	0.731	0.678	-1.324	-0.127	-0.674	0.074	0.400	0.312	2.297	4.609	-1.480	-1.454	-3.670	-0.788	-0.921	0.161	-1.565	-1.209	-1.695	-2.104	-1.130	-1.947	-0.775	1.298	0.099	4.025	164.062
-2.949	-0.415	0.580	0.331	-1.545	-0.145	-0.292	0.846	1.463	1.031	3.325	4.802	-2.152	-2.319	-4.204	-1.616	-1.450	-0.236	-2.100	-2.059	-2.600	-2.851	-1.479	-2.087	0.290	2.540	0.340	4.321	167.969
-3.014	-0.661	0.486	0.101	-1.640	-0.102	0.123	1.505	2.359	1.708	4.098	4.787	-2.739	-3.046	-4.521	-2.271	-1.907	-0.557	-2.496	-2.745	-3.342	-3.438	-1.743	-2.189	1.159	3.511	0.521	4.402	171.875
-2.896	-0.763	0.454	0.036	-1.595	-0.005	0.553	2.006	3.039	2.320	4.575	4.578	-3.213	-3.603	-4.618	-2.703	-2.265	-0.791	-2.747	-3.221	-3.878	-3.848	-1.930	-2.262	1.782	4.189	0.643	4.283	175.781
-2.654	-0.701	0.480	0.166	-1.407	0.137	0.978	2.325	3.474	2.851	4.746	4.208	-3.557	-3.979	-4.516	-2.882	-2.506	-0.939	-2.863	-3.461	-4.192	-4.084	-2.054	-2.320	2.132	4.575	0.710	3.994	179.688
-2.351	-0.472	0.556	0.498	-1.094	0.314	1.377	2.454	3.661	3.283	4.631	3.720	-3.770	-4.180	-4.252	-2.808	-2.616	-1.014	-2.859	-3.464	-4.285	-4.165	-2.129	-2.370	2.221	4.700	0.733	3.577	183.594
-2.047	-0.091	0.666	1.010	-0.686	0.514	1.731	2.400	3.616	3.598	4.277	3.165	-3.861	-4.227	-3.879	-2.508	-2.591	-1.034	-2.758	-3.253	-4.183	-4.117	-2.168	-2.418	2.085	4.613	0.723	3.082	187.500
-1.782	0.405	0.795	1.654	-0.226	0.723	2.020	2.189	3.371	3.782	3.745	2.593	-3.852	-4.151	-3.452	-2.034	-2.436	-1.022	-2.584	-2.871	-3.926	-3.973	-2.179	-2.463	1.786	4.377	0.695	2.561	191.406
-1.575	0.967	0.929	2.360	0.238	0.926	2.224	1.854	2.969	3.823	3.107	2.049	-3.768	-3.990	-3.022	-1.452	-2.167	-0.995	-2.359	-2.375	-3.565	-3.765	-2.169	-2.500	1.396	4.057	0.663	2.059	195.312
-1.426	1.534	1.059	3.048	0.660	1.107	2.329	1.439	2.460	3.716	2.428	1.568	-3.640	-3.780	-2.632	-0.837	-1.809	-0.966	-2.105	-1.831	-3.157	-3.523	-2.138	-2.521	0.990	3.716	0.637	1.615	199.219
-1.316	2.049	1.179	3.639	0.999	1.252	2.323	0.987	1.894	3.467	1.765	1.175	-3.498	-3.554	-2.307	-0.261	-1.394	-0.941	-1.841	-1.306	-2.756	-3.270	-2.084	-2.521	0.634	3.405	0.621	1.257	203.125
-1.221	2.460	1.289	4.068	1.229	1.350	2.203	0.540	1.316	3.088	1.159	0.877	-3.370	-3.341	-2.062	0.220	-0.955	-0.917	-1.582	-0.855	-2.408	-3.024	-2.005	-2.495	0.375	3.163	0.616	1.000	207.031
-1.115	2.734	1.390	4.294	1.336	1.393	1.970	0.132	0.762	2.604	0.635	0.674	-3.276	-3.159	-1.897	0.568	-0.529	-0.887	-1.342	-0.521	-2.144	-2.793	-1.898	-2.441	0.244	3.012	0.620	0.848	210.938
-0.982	2.861	1.482	4.304	1.321	1.377	1.636	-0.214	0.262	2.045	0.204	0.551	-3.225	-3.019	-1.799	0.768	-0.145	-0.846	-1.133	-0.325	-1.982	-2.582	-1.762	-2.358	0.247	2.960	0.628	0.797	214.844
-0.817	2.849	1.567	4.114	1.192	1.302	1.219	-0.482	-0.165	1.446	-0.134	0.490	-3.217	-2.923	-1.755	0.825	0.168	-0.789	-0.963	-0.269	-1.922	-2.392	-1.602	-2.250	0.375	3.000	0.641	0.832	218.750
-0.630	2.722	1.641	3.767	0.969	1.167	0.745	-0.666	-0.504	0.845	-0.384	0.470	-3.242	-2.867	-1.744	0.760	0.395	-0.718	-0.838	-0.338	-1.952	-2.223	-1.425	-2.120	0.605	3.118	0.660	0.935	222.656
-0.443	2.511	1.698	3.320	0.673	0.978	0.245	-0.764	-0.748	0.279	-0.550	0.473	-3.284	-2.844	-1.751	0.605	0.525	-0.637	-0.761	-0.506	-2.054	-2.078	-1.246	-1.971	0.907	3.294	0.692	1.087	226.562
-0.284	2.247	1.733	2.839	0.330	0.740	-0.249	-0.781	-0.888	-0.219	-0.638	0.485	-3.326	-2.843	-1.764	0.391	0.558	-0.553	-0.730	-0.741	-2.208	-1.960	-1.080	-1.810	1.249	3.505	0.741	1.267	230.469
-0.178	1.951	1.739	2.380	-0.034	0.466	-0.703	-0.718	-0.919	-0.617	-0.647	0.501	-3.355	-2.859	-1.778	0.145	0.501	-0.473	-0.739	-1.015	-2.394	-1.879	-0.944	-1.645	1.603	3.731	0.811	1.458	234.375
-0.146	1.634	1.712	1.983	-0.398	0.171	-1.090	-0.580	-0.834	-0.894	-0.575	0.521	-3.367	-2.888	-1.797	-0.115	0.365	-0.402	-0.779	-1.308	-2.603	-1.839	-0.849	-1.486	1.948	3.958	0.899	1.649	238.281
-0.198	1.299	1.650	1.665	-0.743	-0.126	-1.387	-0.368	-0.629	-1.034	-0.414	0.552	-3.367	-2.934	-1.832	-0.379	0.165	-0.344	-0.836	-1.607	-2.831	-1.847	-0.801	-1.343	2.271	4.175	0.998	1.830	242.188
-0.333	0.946	1.555	1.417	-1.057	-0.408	-1.582	-0.087	-0.299	-1.029	-0.156	0.607	-3.366	-3.006	-1.899	-0.647	-0.082	-0.300	-0.899	-1.910	-3.079	-1.905	-0.798	-1.226	2.565	4.380	1.092	1.998	246.094
-0.544	0.579	1.428	1.212	-1.332	-0.655	-1.669	0.262	0.154	-0.877	0.205	0.696	-3.382	-3.114	-2.014	-0.924	-0.358	-0.274	-0.955	-2.221	-3.352	-2.008	-0.830	-1.143	2.834	4.572	1.167	2.150	250.000
-0.820	0.205	1.271	1.016	-1.566	-0.857	-1.649	0.670	0.721	-0.581	0.672	0.829	-3.431	-3.271	-2.190	-1.213	-0.646	-0.268	-0.994	-2.545	-3.652	-2.149	-0.880	-1.101	3.083	4.755	1.208	2.283	253.906
-1.149	-0.159	1.084	0.798	-1.760	-1.007	-1.530	1.129	1.390	-0.151	1.239	1.012	-3.522	-3.480	-2.432	-1.518	-0.928	-0.289	-1.014	-2.884	-3.980	-2.315	-0.931	-1.103	3.321	4.935	1.208	2.397	257.812
-1.519	-0.492	0.864	0.540	-1.922	-1.110	-1.320	1.624	2.137	0.398	1.892	1.244	-3.655	-3.740	-2.737	-1.841	-1.188	-0.341	-1.015	-3.238	-4.330	-2.489	-0.964	-1.146	3.557	5.114	1.168	2.493	261.719
-1.922	-0.777	0.610	0.237	-2.057	-1.176	-1.033	2.139	2.934	1.043	2.608	1.522	-3.818	-4.039	-3.093	-2.177	-1.418	-0.430	-1.003	-3.604	-4.693	-2.655	-0.967	-1.223	3.798	5.297	1.098	2.573	265.625
-2.348	-1.001	0.320	-0.099	-2.176	-1.221	-0.685	2.652	3.745	1.754	3.356	1.838	-3.991	-4.359	-3.482	-2.524	-1.613	-0.558	-0.991	-3.975	-5.057	-2.797	-0.931	-1.319	4.051	5.484	1.020	2.641	269.531
-2.787	-1.166	-0.007	-0.446	-2.289	-1.264	-0.295	3.140	4.533	2.490	4.099	2.184	-4.144	-4.672	-3.887	-2.874	-1.776	-0.721	-0.993	-4.340	-5.404	-2.899	-0.858	-1.416	4.316	5.675	0.960	2.710	273.438
-3.231	-1.285	-0.372	-0.782	-2.405	-1.321	0.116	3.577	5.258	3.210	4.800	2.548	-4.241	-4.947	-4.289	-3.220	-1.915	-0.916	-1.019	-4.687	-5.719	-2.951	-0.751	-1.485	4.592	5.868	0.952	2.791	277.344
-3.673	-1.385	-0.773	-1.084	-2.527	-1.401	0.525	3.942	5.886	3.871	5.425	2.922	-4.250	-5.152	-4.678	-3.552	-2.041	-1.134	-1.077	-5.000	-5.980	-2.947	-0.620	-1.500	4.874	6.060	1.026	2.903	281.250
-4.107	-1.499	-1.206	-1.339	-2.658	-1.514	0.910	4.216	6.389	4.435	5.944	3.299	-4.142	-5.259	-5.048	-3.856	-2.166	-1.369	-1.168	-5.264	-6.166	-2.885	-0.478	-1.434	5.151	6.245	1.204	3.059	285.156
-4.522	-1.662	-1.669	-1.538	-2.792	-1.662	1.254	4.386	6.749	4.877	6.338	3.669	-3.895	-5.241	-5.399	-4.118	-2.297	-1.613	-1.284	-5.458	-6.257	-2.767	-0.337	-1.267	5.410	6.414	1.500	3.268	289.062
-4.908	-1.898	-2.152	-1.685	-2.922	-1.845	1.543	4.450	6.961	5.184	6.600	4.024	-3.501	-5.084	-5.731	-4.323	-2.437	-1.860	-1.407	-5.565	-6.237	-2.601	-0.209	-0.993	5.638	6.557	1.906	3.530	292.969
-5.249	-2.222	-2.646	-1.787	-3.036	-2.059	1.770	4.415	7.032	5.359	6.731	4.354	-2.968	-4.785	-6.046	-4.457	-2.577	-2.105	-1.517	-5.570	-6.093	-2.396	-0.104	-0.617	5.817	6.660	2.403	3.833	296.875
-5.529	-2.627	-3.135	-1.851	-3.125	-2.297	1.930	4.294	6.979	5.417	6.741	4.646	-2.318	-4.351	-6.338	-4.509	-2.704	-2.345	-1.592	-5.465	-5.824	-2.161	-0.027	-0.163	5.935	6.710	2.951	4.152	300.781
-5.733	-3.090	-3.602	-1.888	-3.178	-2.548	2.024	4.108	6.826	5.380	6.647	4.883	-1.590	-3.806	-6.595	-4.475	-2.801	-2.573	-1.610	-5.248	-5.438	-1.907	0.019	0.337	5.982	6.695	3.507	4.457	304.688
-5.854	-3.567	-4.028	-1.904	-3.189	-2.796	2.055	3.877	6.599	5.276	6.467	5.050	-0.834	-3.182	-6.801	-4.355	-2.848	-2.784	-1.556	-4.926	-4.953	-1.644	0.036	0.842	5.956	6.613	4.020	4.711	308.594
-5.891	-4.005	-4.396	-1.899	-3.154	-3.023	2.024	3.618	6.322	5.128	6.222	5.131	-0.109	-2.521	-6.937	-4.152	-2.830	-2.968	-1.424	-4.511	-4.393	-1.378	0.030	1.312	5.860	6.467	4.447	4.883	312.500
-5.858	-4.344	-4.696	-1.870	-3.074	-3.211	1.934	3.346	6.016	4.954	5.930	5.112	0.526	-1.867	-6.988	-3.873	-2.736	-3.114	-1.216	-4.023	-3.791	-1.116	0.013	1.711	5.706	6.268	4.752	4.950	316.406
-5.773	-4.533	-4.921	-1.811	-2.947	-3.339	1.792	3.072	5.696	4.766	5.611	4.987	1.020	-1.261	-6.944	-3.529	-2.562	-3.211	-0.940	-3.483	-3.176	-0.861	-0.005	2.010	5.508	6.031	4.911	4.896	320.312
-5.659	-4.536	-5.073	-1.715	-2.778	-3.393	1.607	2.803	5.377	4.566	5.285	4.756	1.334	-0.737	-6.803	-3.131	-2.314	-3.249	-0.613	-2.912	-2.577	-0.615	-0.011	2.194	5.284	5.774	4.916	4.722	324.219
-5.537	-4.345	-5.160	-1.576	-2.572	-3.364	1.397	2.549	5.071	4.358	4.973	4.429	1.454	-0.317	-6.574	-2.692	-2.001	-3.226	-0.252	-2.332	-2.016	-0.380	0.007	2.258	5.055	5.514	4.769	4.437	328.125
-5.421	-3.979	-5.196	-1.396	-2.335	-3.252	1.185	2.316	4.788	4.144	4.692	4.026	1.388	-0.010	-6.276	-2.228	-1.644	-3.147	0.122	-1.762	-1.511	-0.156	0.055	2.207	4.834	5.261	4.485	4.061	332.031
-5.313	-3.484	-5.197	-1.178	-2.080	-3.065	0.999	2.112	4.542	3.936	4.463	3.577	1.167	0.186	-5.938	-1.755	-1.266	-3.024	0.491	-1.220	-1.071	0.052	0.136	2.056	4.633	5.025	4.087	3.619	335.938
-5.212	-2.928	-5.178	-0.935	-1.819	-2.820	0.869	1.949	4.342	3.752	4.301	3.119	0.841	0.285	-5.595	-1.294	-0.894	-2.879	0.835	-0.722	-0.701	0.241	0.243	1.827	4.459	4.808	3.608	3.143	339.844
-5.111	-2.384	-5.152	-0.683	-1.564	-2.540	0.820	1.834	4.201	3.617	4.217	2.693	0.468	0.307	-5.282	-0.866	-0.555	-2.733	1.137	-0.283	-0.403	0.406	0.365	1.545	4.313	4.608	3.082	2.668	343.750
-5.008	-1.919	-5.129	-0.441	-1.330	-2.251	0.868	1.773	4.125	3.560	4.217	2.341	0.106	0.270	-5.032	-0.496	-0.275	-2.606	1.379	0.081	-0.182	0.540	0.487	1.235	4.193	4.421	2.549	2.228	347.656
-4.909	-1.582	-5.113	-0.228	-1.128	-1.979	1.016	1.770	4.117	3.607	4.297	2.098	-0.194	0.195	-4.866	-0.207	-0.076	-2.513	1.544	0.352	-0.040	0.637	0.591	0.924	4.096	4.244	2.047	1.857	351.562
-4.824	-1.401	-5.103	-0.063	-0.967	-1.748	1.254	1.822	4.176	3.778	4.450	1.987	-0.398	0.097	-4.795	-0.020	0.029	-2.458	1.619	0.516	0.018	0.692	0.660	0.635	4.016	4.073	1.611	1.582	355.469
-4.769	-1.379	-5.093	0.041	-0.853	-1.572	1.559	1.920	4.293	4.078	4.658	2.019	-0.488	-0.010	-4.813	0.048	0.030	-2.438	1.593	0.561	-0.010	0.702	0.684	0.386	3.953	3.908	1.269	1.424	359.375
-4.755	-1.497	-5.075	0.077	-0.790	-1.458	1.899	2.052	4.455	4.493	4.900	2.184	-0.461	-0.117	-4.904	-0.010	-0.070	-2.441	1.463	0.481	-0.123	0.663	0.659	0.192	3.902	3.754	1.043	1.391	363.281
-4.786	-1.725	-5.043	0.042	-0.778	-1.406	2.239	2.202	4.644	4.992	5.155	2.457	-0.330	-0.213	-5.042	-0.190	-0.259	-2.455	1.233	0.279	-0.314	0.575	0.589	0.062	3.865	3.617	0.948	1.478	367.188
-4.858	-2.021	-4.990	-0.061	-0.814	-1.409	2.547	2.354	4.840	5.527	5.399	2.794	-0.113	-0.292	-5.196	-0.476	-0.516	-2.465	0.920	-0.030	-0.570	0.443	0.484	-0.003	3.842	3.508	0.987	1.667	371.094
-4.954	-2.341	-4.914	-0.225	-0.894	-1.455	2.796	2.493	5.021	6.036	5.611	3.145	0.168	-0.345	-5.335	-0.842	-0.811	-2.457	0.549	-0.422	-0.870	0.272	0.359	-0.006	3.832	3.434	1.155	1.926	375.000
-5.048	-2.644	-4.814	-0.437	-1.005	-1.529	2.970	2.605	5.166	6.457	5.774	3.455	0.490	-0.365	-5.430	-1.254	-1.110	-2.423	0.154	-0.864	-1.189	0.073	0.232	0.043	3.833	3.396	1.431	2.218	378.906
-5.113	-2.895	-4.690	-0.681	-1.134	-1.613	3.064	2.679	5.259	6.735	5.875	3.681	0.833	-0.349	-5.459	-1.673	-1.379	-2.359	-0.229	-1.320	-1.500	-0.139	0.120	0.127	3.840	3.389	1.784	2.500	382.812
-5.125	-3.071	-4.542	-0.937	-1.263	-1.689	3.082	2.712	5.289	6.828	5.903	3.792	1.176	-0.297	-5.410	-2.062	-1.589	-2.263	-0.566	-1.752	-1.779	-0.350	0.033	0.224	3.845	3.398	2.170	2.734	386.719
-5.069	-3.162	-4.369	-1.182	-1.376	-1.738	3.034	2.703	5.251	6.718	5.856	3.780	1.496	-0.216	-5.279	-2.390	-1.718	-2.138	-0.831	-2.132	-2.010	-0.544	-0.021	0.310	3.837	3.399	2.535	2.893	390.625
-4.941	-3.171	-4.170	-1.391	-1.460	-1.741	2.933	2.658	5.151	6.414	5.735	3.658	1.770	-0.119	-5.073	-2.636	-1.757	-1.986	-1.007	-2.439	-2.183	-0.711	-0.043	0.358	3.805	3.367	2.823	2.963	394.531
-4.749	-3.109	-3.940	-1.545	-1.507	-1.688	2.788	2.590	5.001	5.944	5.550	3.457	1.970	-0.027	-4.807	-2.793	-1.705	-1.811	-1.088	-2.668	-2.301	-0.841	-0.037	0.344	3.740	3.276	2.982	2.946	398.438
-4.510	-2.992	-3.677	-1.629	-1.518	-1.573	2.607	2.514	4.822	5.354	5.318	3.219	2.069	0.037	-4.506	-2.865	-1.576	-1.614	-1.079	-2.823	-2.377	-0.932	-0.010	0.251	3.635	3.105	2.971	2.856	402.344
-4.245	-2.833	-3.376	-1.641	-1.504	-1.399	2.393	2.449	4.640	4.700	5.063	2.987	2.041	0.048	-4.191	-2.868	-1.392	-1.398	-0.996	-2.921	-2.433	-0.983	0.029	0.067	3.490	2.846	2.767	2.713	406.250
-3.972	-2.641	-3.034	-1.588	-1.478	-1.176	2.145	2.413	4.481	4.036	4.815	2.791	1.870	-0.016	-3.881	-2.825	-1.180	-1.162	-0.857	-2.982	-2.492	-1.001	0.071	-0.209	3.309	2.504	2.369	2.539	410.156
-3.705	-2.424	-2.653	-1.485	-1.455	-0.923	1.866	2.422	4.369	3.407	4.598	2.646	1.549	-0.168	-3.585	-2.757	-0.969	-0.908	-0.684	-3.027	-2.576	-0.993	0.111	-0.569	3.098	2.093	1.799	2.350	414.062
-3.442	-2.188	-2.235	-1.352	-1.447	-0.662	1.562	2.482	4.317	2.842	4.434	2.547	1.085	-0.409	-3.299	-2.684	-0.783	-0.636	-0.499	-3.071	-2.697	-0.964	0.143	-0.996	2.867	1.640	1.096	2.153	417.969
-3.173	-1.936	-1.787	-1.206	-1.458	-0.413	1.244	2.594	4.328	2.357	4.327	2.466	0.504	-0.723	-3.006	-2.617	-0.637	-0.349	-0.314	-3.120	-2.853	-0.924	0.166	-1.466	2.625	1.174	0.315	1.943	421.875
-2.880	-1.673	-1.318	-1.059	-1.482	-0.195	0.927	2.746	4.388	1.948	4.267	2.366	-0.150	-1.083	-2.681	-2.557	-0.535	-0.053	-0.139	-3.167	-3.028	-0.876	0.180	-1.954	2.375	0.720	-0.488	1.709	425.781
-2.543	-1.401	-0.842	-0.915	-1.507	-0.019	0.631	2.916	4.472	1.604	4.229	2.202	-0.821	-1.446	-2.298	-2.496	-0.473	0.243	0.023	-3.199	-3.196	-0.823	0.187	-2.433	2.120	0.301	-1.255	1.437	429.688
-2.149	-1.118	-0.375	-0.770	-1.513	0.112	0.380	3.072	4.544	1.312	4.177	1.939	-1.446	-1.768	-1.835	-2.423	-0.438	0.526	0.174	-3.194	-3.321	-0.770	0.189	-2.879	1.853	-0.073	-1.938	1.115	433.594
-1.695	-0.822	0.066	-0.612	-1.478	0.201	0.195	3.184	4.569	1.062	4.077	1.557	-1.958	-2.006	-1.284	-2.324	-0.415	0.781	0.315	-3.133	-3.369	-0.718	0.185	-3.273	1.569	-0.403	-2.499	0.739	437.500
-1.193	-0.510	0.470	-0.429	-1.383	0.258	0.093	3.222	4.518	0.851	3.901	1.057	-2.304	-2.124	-0.655	-2.186	-0.389	0.992	0.449	-3.000	-3.315	-0.672	0.170	-3.605	1.261	-0.696	-2.916	0.314	441.406
-0.663	-0.182	0.824	-0.209	-1.219	0.296	0.086	3.166	4.374	0.686	3.634	0.461	-2.448	-2.103	0.024	-2.002	-0.349	1.146	0.572	-2.792	-3.143	-0.638	0.138	-3.866	0.921	-0.967	-3.180	-0.146	445.312
-0.135	0.157	1.124	0.052	-0.982	0.332	0.175	3.008	4.132	0.577	3.277	-0.190	-2.376	-1.941	0.713	-1.774	-0.289	1.234	0.677	-2.514	-2.858	-0.618	0.081	-4.055	0.550	-1.228	-3.296	-0.620	449.219
0.364	0.495	1.366	0.352	-0.680	0.379	0.353	2.753	3.804	0.532	2.851	-0.840	-2.101	-1.652	1.364	-1.510	-0.211	1.256	0.757	-2.182	-2.476	-0.616	-0.010	-4.174	0.151	-1.489	-3.280	-1.080	453.125
0.807	0.817	1.551	0.682	-0.330	0.449	0.602	2.417	3.411	0.557	2.384	-1.434	-1.659	-1.265	1.928	-1.223	-0.121	1.217	0.797	-1.821	-2.027	-0.631	-0.137	-4.224	-0.267	-1.750	-3.151	-1.501	457.031
1.174	1.107	1.679	1.029	0.045	0.544	0.898	2.027	2.983	0.647	1.914	-1.919	-1.103	-0.818	2.369	-0.935	-0.031	1.132	0.787	-1.458	-1.549	-0.661	-0.300	-4.207	-0.691	-2.004	-2.933	-1.854	460.938
1.450	1.349	1.753	1.375	0.420	0.657	1.208	1.612	2.546	0.792	1.480	-2.257	-0.497	-0.353	2.662	-0.667	0.049	1.017	0.721	-1.117	-1.077	-0.702	-0.491	-4.127	-1.101	-2.234	-2.647	-2.118	464.844
1.630	1.534	1.775	1.704	0.767	0.776	1.500	1.203	2.129	0.972	1.114	-2.429	0.097	0.088	2.802	-0.438	0.109	0.890	0.599	-0.819	-0.647	-0.752	-0.699	-3.989	-1.478	-2.421	-2.316	-2.278	468.750
1.713	1.659	1.754	2.001	1.064	0.884	1.740	0.826	1.750	1.159	0.837	-2.436	0.623	0.471	2.800	-0.263	0.149	0.766	0.432	-0.575	-0.282	-0.805	-0.909	-3.806	-1.804	-2.549	-1.960	-2.327	472.656
1.707	1.730	1.697	2.254	1.291	0.963	1.900	0.499	1.421	1.326	0.656	-2.297	1.037	0.768	2.679	-0.147	0.169	0.658	0.238	-0.389	0.003	-0.862	-1.106	-3.592	-2.061	-2.605	-1.600	-2.271	476.562
1.629	1.758	1.619	2.457	1.438	0.998	1.960	0.233	1.145	1.442	0.561	-2.050	1.314	0.965	2.474	-0.087	0.181	0.575	0.043	-0.255	0.205	-0.918	-1.279	-3.369	-2.237	-2.587	-1.256	-2.126	480.469
1.500	1.758	1.537	2.611	1.502	0.985	1.908	0.028	0.915	1.482	0.530	-1.740	1.444	1.057	2.223	-0.069	0.196	0.525	-0.126	-0.163	0.332	-0.971	-1.417	-3.160	-2.326	-2.502	-0.951	-1.917	484.375
1.349	1.746	1.469	2.718	1.492	0.925	1.743	-0.124	0.720	1.428	0.533	-1.420	1.430	1.053	1.963	-0.073	0.227	0.517	-0.247	-0.099	0.400	-1.018	-1.515	-2.987	-2.329	-2.366	-0.706	-1.676	488.281
1.207	1.740	1.433	2.785	1.419	0.829	1.473	-0.237	0.545	1.273	0.538	-1.136	1.287	0.967	1.726	-0.076	0.284	0.563	-0.299	-0.046	0.428	-1.054	-1.571	-2.868	-2.257	-2.202	-0.541	-1.437	492.188
1.104	1.752	1.445	2.820	1.303	0.714	1.118	-0.326	0.376	1.024	0.514	-0.927	1.034	0.819	1.539	-0.058	0.374	0.672	-0.273	0.010	0.436	-1.074	-1.586	-2.816	-2.130	-2.038	-0.472	-1.234	496.094
1.069	1.795	1.515	2.828	1.165	0.595	0.702	-0.402	0.204	0.702	0.443	-0.819	0.695	0.632	1.419	-0.001	0.498	0.855	-0.169	0.084	0.442	-1.074	-1.565	-2.840	-1.974	-1.904	-0.511	-1.095	500.000
1.125	1.874	1.647	2.815	1.026	0.492	0.259	-0.473	0.025	0.334	0.313	-0.826	0.292	0.426	1.377	0.104	0.650	1.111	0.006	0.183	0.458	-1.050	-1.514	-2.939	-1.821	-1.826	-0.663	-1.043	503.906
1.288	1.992	1.840	2.788	0.905	0.418	-0.180	-0.539	-0.159	-0.044	0.127	-0.946	-0.155	0.219	1.414	0.257	0.823	1.432	0.236	0.313	0.491	-1.001	-1.438	-3.109	-1.701	-1.826	-0.926	-1.089	507.812
1.561	2.150	2.085	2.752	0.818	0.387	-0.581	-0.597	-0.340	-0.396	-0.104	-1.165	-0.624	0.025	1.524	0.453	1.005	1.793	0.500	0.474	0.543	-0.927	-1.345	-3.339	-1.639	-1.913	-1.289	-1.237	511.719
1.939	2.342	2.363	2.714	0.775	0.409	-0.916	-0.640	-0.506	-0.690	-0.358	-1.458	-1.093	-0.146	1.690	0.681	1.185	2.158	0.773	0.662	0.611	-0.834	-1.241	-3.616	-1.648	-2.085	-1.732	-1.477	515.625
2.403	2.561	2.653	2.679	0.779	0.485	-1.162	-0.662	-0.642	-0.900	-0.609	-1.794	-1.540	-0.286	1.888	0.922	1.352	2.482	1.032	0.867	0.689	-0.729	-1.131	-3.922	-1.728	-2.328	-2.223	-1.792	519.531
2.924	2.793	2.927	2.653	0.824	0.608	-1.304	-0.656	-0.735	-1.011	-0.832	-2.135	-1.939	-0.391	2.086	1.159	1.494	2.721	1.253	1.074	0.769	-0.625	-1.022	-4.235	-1.867	-2.613	-2.724	-2.150	523.438
3.467	3.017	3.158	2.638	0.898	0.759	-1.338	-0.617	-0.775	-1.023	-1.003	-2.446	-2.266	-0.457	2.254	1.370	1.603	2.842	1.421	1.265	0.841	-0.533	-0.918	-4.531	-2.040	-2.904	-3.193	-2.518	527.344
3.989	3.210	3.324	2.633	0.982	0.911	-1.271	-0.546	-0.759	-0.944	-1.105	-2.695	-2.500	-0.486	2.369	1.539	1.673	2.829	1.529	1.421	0.896	-0.462	-0.820	-4.785	-2.215	-3.162	-3.585	-2.858	531.250
4.449	3.349	3.408	2.636	1.058	1.031	-1.119	-0.450	-0.693	-0.798	-1.133	-2.860	-2.627	-0.482	2.418	1.649	1.700	2.685	1.578	1.522	0.922	-0.414	-0.726	-4.969	-2.363	-3.352	-3.859	-3.136	535.156
4.814	3.414	3.406	2.640	1.106	1.093	-0.908	-0.343	-0.594	-0.614	-1.093	-2.932	-2.642	-0.448	2.404	1.691	1.684	2.438	1.580	1.554	0.913	-0.387	-0.632	-5.059	-2.456	-3.450	-3.984	-3.330	539.062
5.063	3.395	3.323	2.634	1.115	1.080	-0.671	-0.243	-0.484	-0.420	-1.004	-2.916	-2.549	-0.393	2.343	1.658	1.627	2.126	1.556	1.509	0.864	-0.373	-0.528	-5.036	-2.481	-3.443	-3.940	-3.425	542.969
5.189	3.293	3.174	2.604	1.076	0.989	-0.441	-0.171	-0.390	-0.242	-0.891	-2.829	-2.360	-0.319	2.255	1.554	1.533	1.795	1.526	1.388	0.775	-0.360	-0.408	-4.892	-2.431	-3.332	-3.724	-3.422	546.875
5.198	3.123	2.978	2.539	0.990	0.828	-0.247	-0.147	-0.339	-0.094	-0.788	-2.695	-2.094	-0.233	2.164	1.389	1.410	1.489	1.511	1.200	0.651	-0.340	-0.267	-4.626	-2.313	-3.132	-3.346	-3.329	550.781
5.109	2.910	2.758	2.431	0.864	0.622	-0.114	-0.183	-0.351	0.019	-0.726	-2.546	-1.773	-0.136	2.086	1.179	1.267	1.243	1.525	0.966	0.503	-0.306	-0.105	-4.255	-2.142	-2.867	-2.838	-3.165	554.688
4.951	2.686	2.536	2.279	0.711	0.397	-0.052	-0.286	-0.439	0.104	-0.730	-2.409	-1.420	-0.031	2.029	0.948	1.115	1.073	1.573	0.711	0.348	-0.258	0.072	-3.806	-1.937	-2.568	-2.243	-2.952	558.594
4.762	2.481	2.332	2.096	0.548	0.182	-0.061	-0.448	-0.601	0.171	-0.817	-2.307	-1.058	0.081	1.992	0.719	0.965	0.983	1.652	0.464	0.200	-0.197	0.253	-3.315	-1.722	-2.268	-1.617	-2.715	562.500
4.582	2.321	2.158	1.896	0.391	0.003	-0.128	-0.652	-0.827	0.232	-0.987	-2.252	-0.705	0.197	1.966	0.516	0.828	0.960	1.751	0.249	0.078	-0.129	0.425	-2.826	-1.518	-2.000	-1.020	-2.478	566.406
4.455	2.218	2.025	1.703	0.259	-0.128	-0.234	-0.873	-1.096	0.295	-1.228	-2.249	-0.381	0.310	1.940	0.357	0.717	0.982	1.856	0.088	-0.009	-0.057	0.576	-2.381	-1.345	-1.791	-0.509	-2.267	570.312
4.416	2.175	1.938	1.539	0.163	-0.205	-0.357	-1.082	-1.381	0.356	-1.513	-2.298	-0.102	0.414	1.908	0.255	0.643	1.026	1.955	-0.010	-0.055	0.015	0.697	-2.018	-1.219	-1.661	-0.130	-2.100	574.219
4.484	2.186	1.897	1.424	0.113	-0.233	-0.478	-1.255	-1.657	0.401	-1.814	-2.394	0.116	0.503	1.872	0.215	0.618	1.074	2.037	-0.042	-0.059	0.090	0.787	-1.763	-1.147	-1.620	0.087	-1.997	578.125
4.664	2.241	1.902	1.372	0.109	-0.221	-0.585	-1.374	-1.905	0.407	-2.100	-2.535	0.259	0.568	1.842	0.239	0.652	1.115	2.099	-0.014	-0.027	0.172	0.850	-1.627	-1.131	-1.666	0.136	-1.970	582.031
4.937	2.331	1.947	1.393	0.147	-0.178	-0.675	-1.433	-2.111	0.346	-2.351	-2.721	0.315	0.604	1.835	0.323	0.752	1.152	2.144	0.065	0.031	0.268	0.896	-1.607	-1.166	-1.792	0.027	-2.027	585.938
5.273	2.450	2.029	1.487	0.217	-0.111	-0.751	-1.438	-2.271	0.195	-2.555	-2.954	0.277	0.609	1.872	0.464	0.920	1.193	2.183	0.180	0.105	0.381	0.939	-1.687	-1.241	-1.980	-0.212	-2.170	589.844
5.636	2.597	2.143	1.647	0.308	-0.022	-0.821	-1.401	-2.385	-0.055	-2.709	-3.237	0.143	0.584	1.971	0.653	1.147	1.255	2.230	0.321	0.188	0.515	0.993	-1.844	-1.346	-2.212	-0.546	-2.396	593.750
5.992	2.772	2.282	1.859	0.405	0.085	-0.895	-1.342	-2.458	-0.398	-2.821	-3.568	-0.079	0.533	2.142	0.882	1.415	1.351	2.301	0.476	0.272	0.665	1.068	-2.051	-1.469	-2.469	-0.938	-2.693	597.656
6.320	2.972	2.444	2.104	0.499	0.207	-0.978	-1.277	-2.494	-0.806	-2.899	-3.943	-0.376	0.464	2.388	1.139	1.700	1.491	2.405	0.635	0.352	0.823	1.169	-2.279	-1.603	-2.732	-1.355	-3.048	601.562
6.612	3.191	2.622	2.360	0.583	0.340	-1.073	-1.221	-2.499	-1.236	-2.955	-4.347	-0.726	0.387	2.698	1.408	1.969	1.675	2.547	0.796	0.429	0.976	1.296	-2.508	-1.744	-2.985	-1.775	-3.441	605.469
6.877	3.420	2.808	2.604	0.655	0.474	-1.175	-1.184	-2.479	-1.639	-3.000	-4.760	-1.099	0.315	3.048	1.677	2.194	1.891	2.721	0.957	0.504	1.107	1.439	-2.717	-1.886	-3.218	-2.180	-3.851	609.375
7.131	3.648	2.993	2.817	0.719	0.602	-1.276	-1.168	-2.441	-1.961	-3.042	-5.158	-1.461	0.262	3.406	1.929	2.352	2.121	2.912	1.120	0.583	1.203	1.585	-2.894	-2.027	-3.422	-2.557	-4.256	613.281
7.389	3.862	3.162	2.982	0.780	0.718	-1.360	-1.172	-2.393	-2.156	-3.087	-5.515	-1.777	0.242	3.734	2.154	2.430	2.338	3.100	1.288	0.672	1.256	1.716	-3.028	-2.163	-3.592	-2.894	-4.636	617.188
7.662	4.053	3.295	3.092	0.842	0.816	-1.414	-1.192	-2.341	-2.190	-3.137	-5.810	-2.013	0.268	3.990	2.342	2.434	2.513	3.262	1.465	0.779	1.265	1.814	-3.114	-2.286	-3.723	-3.177	-4.970	621.094
7.947	4.212	3.369	3.144	0.907	0.891	-1.422	-1.221	-2.294	-2.046	-3.193	-6.025	-2.142	0.349	4.139	2.490	2.379	2.618	3.376	1.651	0.907	1.238	1.866	-3.147	-2.390	-3.813	-3.389	-5.242	625.000
8.230	4.332	3.367	3.144	0.974	0.935	-1.374	-1.253	-2.258	-1.727	-3.254	-6.149	-2.148	0.488	4.157	2.595	2.292	2.634	3.430	1.839	1.060	1.193	1.866	-3.126	-2.465	-3.858	-3.515	-5.439	628.906
8.487	4.405	3.272	3.104	1.041	0.940	-1.264	-1.284	-2.237	-1.259	-3.317	-6.178	-2.026	0.682	4.037	2.658	2.199	2.553	3.418	2.019	1.232	1.146	1.820	-3.054	-2.505	-3.854	-3.539	-5.552	632.812
8.690	4.423	3.082	3.037	1.103	0.902	-1.097	-1.314	-2.235	-0.683	-3.375	-6.117	-1.786	0.920	3.792	2.681	2.123	2.379	3.345	2.178	1.417	1.118	1.740	-2.933	-2.504	-3.798	-3.457	-5.578	636.719
8.813	4.384	2.806	2.960	1.158	0.820	-0.884	-1.350	-2.253	-0.053	-3.427	-5.977	-1.450	1.187	3.453	2.666	2.075	2.133	3.224	2.301	1.604	1.120	1.647	-2.772	-2.460	-3.690	-3.273	-5.522	640.625
8.836	4.289	2.465	2.889	1.207	0.704	-0.643	-1.398	-2.290	0.571	-3.468	-5.778	-1.050	1.464	3.065	2.621	2.059	1.847	3.072	2.378	1.779	1.160	1.562	-2.581	-2.378	-3.537	-3.003	-5.396	644.531
8.752	4.153	2.091	2.836	1.249	0.572	-0.398	-1.468	-2.347	1.133	-3.500	-5.546	-0.620	1.730	2.680	2.554	2.068	1.558	2.912	2.404	1.932	1.234	1.501	-2.376	-2.270	-3.353	-2.675	-5.218	648.438
8.571	3.996	1.723	2.812	1.288	0.444	-0.175	-1.565	-2.425	1.582	-3.529	-5.309	-0.195	1.969	2.346	2.477	2.090	1.307	2.763	2.385	2.057	1.331	1.475	-2.172	-2.154	-3.156	-2.321	-5.013	652.344
8.324	3.841	1.400	2.819	1.324	0.343	0.001	-1.694	-2.524	1.879	-3.563	-5.100	0.194	2.170	2.100	2.404	2.116	1.125	2.644	2.333	2.153	1.437	1.487	-1.986	-2.050	-2.969	-1.979	-4.805	656.250
8.056	3.714	1.158	2.859	1.354	0.281	0.110	-1.850	-2.649	2.001	-3.616	-4.949	0.524	2.324	1.966	2.352	2.140	1.037	2.571	2.268	2.223	1.535	1.531	-1.834	-1.978	-2.816	-1.682	-4.619	660.156
7.827	3.631	1.022	2.928	1.373	0.261	0.137	-2.027	-2.805	1.938	-3.703	-4.878	0.778	2.432	1.950	2.335	2.162	1.052	2.554	2.214	2.276	1.614	1.598	-1.727	-1.953	-2.717	-1.458	-4.478	664.062
7.692	3.607	1.007	3.018	1.378	0.276	0.080	-2.211	-2.992	1.696	-3.835	-4.904	0.948	2.498	2.045	2.365	2.186	1.165	2.597	2.190	2.323	1.667	1.677	-1.670	-1.983	-2.686	-1.327	-4.400	667.969
7.693	3.643	1.110	3.122	1.366	0.315	-0.054	-2.388	-3.211	1.296	-4.019	-5.031	1.031	2.527	2.235	2.448	2.219	1.360	2.699	2.213	2.373	1.694	1.760	-1.663	-2.066	-2.732	-1.297	-4.396	671.875
7.850	3.741	1.315	3.234	1.336	0.362	-0.248	-2.544	-3.455	0.774	-4.256	-5.255	1.030	2.529	2.499	2.583	2.269	1.609	2.851	2.288	2.432	1.703	1.839	-1.700	-2.192	-2.856	-1.372	-4.472	675.781
8.156	3.893	1.595	3.352	1.297	0.412	-0.473	-2.665	-3.710	0.174	-4.534	-5.557	0.953	2.513	2.816	2.760	2.338	1.880	3.042	2.414	2.503	1.702	1.912	-1.773	-2.348	-3.051	-1.545	-4.628	679.688
8.579	4.091	1.916	3.472	1.257	0.462	-0.699	-2.745	-3.958	-0.449	-4.834	-5.914	0.810	2.487	3.166	2.966	2.426	2.144	3.256	2.577	2.581	1.702	1.974	-1.871	-2.519	-3.309	-1.808	-4.858	683.594
9.070	4.326	2.242	3.596	1.232	0.524	-0.894	-2.776	-4.180	-1.039	-5.135	-6.299	0.616	2.457	3.534	3.179	2.529	2.374	3.473	2.759	2.658	1.713	2.022	-1.987	-2.693	-3.615	-2.143	-5.150	687.500
9.576	4.587	2.544	3.723	1.232	0.610	-1.036	-2.757	-4.355	-1.548	-5.410	-6.685	0.384	2.426	3.905	3.379	2.638	2.555	3.677	2.940	2.724	1.739	2.056	-2.114	-2.859	-3.951	-2.533	-5.489	691.406
10.041	4.857	2.799	3.852	1.262	0.734	-1.110	-2.690	-4.468	-1.938	-5.639	-7.047	0.129	2.394	4.268	3.547	2.745	2.679	3.848	3.098	2.768	1.780	2.071	-2.248	-3.014	-4.298	-2.952	-5.854	695.312
10.425	5.116	2.995	3.976	1.321	0.903	-1.114	-2.577	-4.509	-2.187	-5.806	-7.365	-0.133	2.358	4.613	3.667	2.843	2.748	3.971	3.215	2.781	1.831	2.066	-2.385	-3.155	-4.632	-3.368	-6.219	699.219
10.697	5.338	3.130	4.084	1.401	1.111	-1.054	-2.426	-4.476	-2.293	-5.903	-7.623	-0.387	2.318	4.929	3.729	2.923	2.772	4.036	3.277	2.757	1.882	2.040	-2.519	-3.279	-4.931	-3.747	-6.558	703.125
10.844	5.492	3.207	4.165	1.486	1.343	-0.944	-2.248	-4.376	-2.269	-5.930	-7.812	-0.616	2.269	5.202	3.727	2.978	2.760	4.033	3.279	2.698	1.920	1.991	-2.642	-3.382	-5.170	-4.056	-6.843	707.031
10.864	5.550	3.235	4.208	1.563	1.573	-0.798	-2.054	-4.218	-2.144	-5.891	-7.923	-0.806	2.214	5.418	3.663	2.999	2.726	3.960	3.219	2.606	1.932	1.920	-2.743	-3.457	-5.332	-4.264	-7.050	710.938
10.766	5.493	3.223	4.207	1.619	1.770	-0.632	-1.857	-4.018	-1.947	-5.794	-7.951	-0.942	2.153	5.566	3.540	2.979	2.679	3.818	3.101	2.487	1.906	1.825	-2.811	-3.498	-5.404	-4.353	-7.160	714.844
10.565	5.317	3.180	4.159	1.647	1.907	-0.458	-1.667	-3.790	-1.709	-5.644	-7.895	-1.012	2.093	5.634	3.369	2.911	2.621	3.612	2.933	2.351	1.834	1.708	-2.837	-3.495	-5.380	-4.315	-7.164	718.750
10.286	5.036	3.109	4.070	1.644	1.960	-0.285	-1.493	-3.546	-1.456	-5.450	-7.756	-1.007	2.038	5.613	3.161	2.790	2.556	3.355	2.726	2.206	1.713	1.570	-2.815	-3.443	-5.268	-4.156	-7.063	722.656
9.958	4.682	3.016	3.944	1.610	1.922	-0.118	-1.341	-3.300	-1.206	-5.219	-7.538	-0.922	1.998	5.499	2.929	2.619	2.479	3.061	2.492	2.060	1.545	1.418	-2.741	-3.343	-5.079	-3.896	-6.868	726.562
9.610	4.297	2.904	3.788	1.547	1.793	0.037	-1.218	-3.063	-0.972	-4.963	-7.250	-0.756	1.979	5.293	2.686	2.406	2.388	2.748	2.247	1.921	1.341	1.258	-2.619	-3.200	-4.832	-3.559	-6.599	730.469
9.270	3.925	2.775	3.607	1.458	1.591	0.176	-1.131	-2.850	-0.762	-4.695	-6.907	-0.512	1.989	5.007	2.445	2.168	2.280	2.434	2.007	1.799	1.118	1.100	-2.452	-3.027	-4.551	-3.174	-6.277	734.375
8.955	3.601	2.636	3.406	1.349	1.343	0.297	-1.088	-2.674	-0.586	-4.433	-6.525	-0.203	2.035	4.663	2.217	1.924	2.156	2.139	1.787	1.703	0.895	0.956	-2.248	-2.841	-4.259	-2.768	-5.928	738.281
8.674	3.345	2.492	3.191	1.226	1.079	0.395	-1.098	-2.548	-0.449	-4.196	-6.129	0.158	2.118	4.292	2.014	1.696	2.020	1.876	1.604	1.640	0.697	0.835	-2.017	-2.662	-3.978	-2.363	-5.573	742.188
8.426	3.164	2.354	2.970	1.098	0.830	0.469	-1.162	-2.484	-0.360	-4.002	-5.741	0.549	2.237	3.934	1.844	1.504	1.881	1.656	1.469	1.619	0.542	0.745	-1.769	-2.511	-3.728	-1.976	-5.231	746.094
8.202	3.048	2.232	2.753	0.976	0.618	0.515	-1.280	-2.490	-0.327	-3.868	-5.386	0.944	2.388	3.627	1.715	1.363	1.753	1.483	1.391	1.640	0.446	0.691	-1.517	-2.407	-3.525	-1.619	-4.915	750.000
7.992	2.986	2.134	2.553	0.868	0.458	0.532	-1.445	-2.567	-0.356	-3.806	-5.083	1.319	2.559	3.404	1.634	1.281	1.650	1.358	1.373	1.703	0.416	0.672	-1.274	-2.363	-3.384	-1.301	-4.636	753.906
7.785	2.965	2.067	2.382	0.782	0.356	0.521	-1.642	-2.707	-0.449	-3.819	-4.850	1.649	2.741	3.283	1.603	1.259	1.585	1.276	1.412	1.801	0.448	0.686	-1.054	-2.386	-3.314	-1.033	-4.398	757.812
7.576	2.977	2.034	2.256	0.727	0.311	0.486	-1.853	-2.897	-0.604	-3.903	-4.692	1.917	2.919	3.267	1.622	1.293	1.566	1.230	1.501	1.924	0.531	0.723	-0.871	-2.471	-3.318	-0.825	-4.209	761.719
7.371	3.018	2.031	2.186	0.706	0.318	0.434	-2.055	-3.113	-0.806	-4.043	-4.610	2.112	3.084	3.341	1.684	1.368	1.591	1.213	1.625	2.059	0.646	0.773	-0.739	-2.606	-3.394	-0.689	-4.069	765.625
7.184	3.086	2.049	2.182	0.720	0.369	0.376	-2.226	-3.326	-1.028	-4.216	-4.594	2.232	3.225	3.476	1.777	1.467	1.648	1.216	1.766	2.191	0.769	0.821	-0.669	-2.774	-3.532	-0.636	-3.983	769.531
7.038	3.182	2.075	2.247	0.766	0.454	0.329	-2.342	-3.503	-1.231	-4.393	-4.625	2.285	3.337	3.633	1.882	1.563	1.715	1.230	1.903	2.306	0.878	0.854	-0.667	-2.955	-3.718	-0.673	-3.950	773.438
6.959	3.303	2.093	2.374	0.836	0.562	0.308	-2.383	-3.614	-1.375	-4.546	-4.679	2.283	3.417	3.772	1.978	1.632	1.762	1.249	2.016	2.393	0.955	0.858	-0.737	-3.130	-3.932	-0.806	-3.967	777.344
6.970	3.446	2.087	2.554	0.920	0.680	0.327	-2.336	-3.636	-1.421	-4.648	-4.732	2.243	3.466	3.858	2.044	1.652	1.764	1.267	2.087	2.443	0.988	0.824	-0.873	-3.286	-4.153	-1.029	-4.025	781.250
7.083	3.603	2.047	2.772	1.007	0.796	0.394	-2.198	-3.556	-1.346	-4.683	-4.762	2.183	3.489	3.867	2.067	1.611	1.698	1.282	2.108	2.455	0.973	0.748	-1.068	-3.414	-4.365	-1.331	-4.116	785.156
7.293	3.769	1.968	3.014	1.089	0.904	0.509	-1.979	-3.382	-1.150	-4.650	-4.756	2.116	3.494	3.790	2.040	1.506	1.560	1.292	2.077	2.434	0.916	0.634	-1.305	-3.513	-4.556	-1.696	-4.228	789.062
7.580	3.940	1.854	3.265	1.161	1.000	0.662	-1.700	-3.134	-0.856	-4.560	-4.715	2.053	3.488	3.640	1.972	1.350	1.359	1.297	2.006	2.389	0.826	0.491	-1.570	-3.589	-4.726	-2.102	-4.350	792.969
7.909	4.111	1.720	3.517	1.224	1.087	0.838	-1.392	-2.849	-0.506	-4.439	-4.647	2.001	3.480	3.444	1.878	1.165	1.119	1.300	1.913	2.332	0.720	0.332	-1.843	-3.651	-4.881	-2.523	-4.473	796.875
