FP1	F3	F7	FC3	C3	C5	P3	P7	PO7	PO3	O1	Oz	Pz	CPz	FP2	Fz	F4	F8	FC4	FCz	Cz	C4	C6	P4	P8	PO8	PO4	O2	time
0.028	-0.879	0.208	0.265	1.009	-0.054	0.811	-0.461	-0.299	1.114	-0.083	-0.678	1.317	1.173	1.565	0.714	0.477	-0.655	-0.094	1.082	1.433	0.760	-0.174	-0.113	-0.962	-1.302	-0.656	-0.820	-199.219
0.345	-0.109	0.290	0.419	0.859	0.084	0.511	-0.551	-0.471	0.702	-0.461	-0.779	1.069	1.036	1.362	0.757	0.462	-0.478	0.006	1.059	1.335	0.699	-0.218	-0.033	-0.856	-1.250	-0.615	-0.898	-195.312
0.631	0.565	0.354	0.555	0.720	0.195	0.242	-0.618	-0.612	0.327	-0.797	-0.867	0.842	0.910	1.178	0.789	0.446	-0.326	0.106	1.033	1.240	0.644	-0.251	0.042	-0.753	-1.200	-0.576	-0.965	-191.406
0.855	1.080	0.388	0.654	0.599	0.267	0.031	-0.643	-0.700	0.018	-1.052	-0.930	0.653	0.806	1.030	0.800	0.425	-0.220	0.201	1.003	1.149	0.598	-0.267	0.101	-0.656	-1.153	-0.544	-1.011	-187.500
0.997	1.399	0.385	0.708	0.502	0.299	-0.103	-0.617	-0.722	-0.203	-1.202	-0.958	0.515	0.730	0.927	0.786	0.397	-0.171	0.285	0.965	1.065	0.558	-0.266	0.138	-0.573	-1.110	-0.520	-1.029	-183.594
1.049	1.511	0.345	0.714	0.434	0.301	-0.152	-0.541	-0.680	-0.327	-1.239	-0.948	0.431	0.685	0.867	0.746	0.362	-0.176	0.347	0.915	0.990	0.523	-0.249	0.148	-0.508	-1.069	-0.505	-1.016	-179.688
1.016	1.434	0.274	0.677	0.396	0.285	-0.121	-0.429	-0.585	-0.352	-1.169	-0.897	0.396	0.669	0.842	0.684	0.322	-0.223	0.379	0.853	0.923	0.489	-0.222	0.130	-0.465	-1.028	-0.498	-0.972	-175.781
0.918	1.208	0.182	0.607	0.383	0.264	-0.023	-0.298	-0.459	-0.290	-1.011	-0.809	0.400	0.676	0.835	0.605	0.283	-0.294	0.376	0.776	0.866	0.452	-0.188	0.085	-0.444	-0.978	-0.492	-0.897	-171.875
0.776	0.887	0.083	0.517	0.384	0.245	0.118	-0.172	-0.326	-0.163	-0.791	-0.691	0.428	0.696	0.830	0.514	0.251	-0.365	0.337	0.685	0.815	0.412	-0.155	0.022	-0.439	-0.912	-0.479	-0.797	-167.969
0.616	0.533	-0.011	0.417	0.387	0.229	0.277	-0.070	-0.212	0.002	-0.539	-0.555	0.466	0.718	0.811	0.418	0.231	-0.421	0.265	0.581	0.768	0.368	-0.126	-0.051	-0.440	-0.822	-0.450	-0.678	-164.062
0.456	0.203	-0.093	0.315	0.377	0.210	0.425	-0.008	-0.134	0.174	-0.283	-0.412	0.501	0.730	0.768	0.319	0.223	-0.450	0.169	0.469	0.722	0.323	-0.104	-0.120	-0.435	-0.701	-0.396	-0.547	-160.156
0.310	-0.056	-0.159	0.215	0.345	0.187	0.542	0.006	-0.104	0.329	-0.049	-0.274	0.524	0.726	0.699	0.222	0.223	-0.448	0.058	0.353	0.674	0.282	-0.088	-0.171	-0.409	-0.547	-0.309	-0.413	-156.250
0.184	-0.219	-0.211	0.120	0.287	0.155	0.612	-0.028	-0.121	0.445	0.143	-0.152	0.530	0.702	0.605	0.128	0.221	-0.421	-0.054	0.241	0.620	0.249	-0.078	-0.190	-0.353	-0.363	-0.187	-0.282	-152.344
0.081	-0.285	-0.254	0.029	0.204	0.116	0.629	-0.102	-0.177	0.515	0.282	-0.051	0.517	0.659	0.494	0.038	0.206	-0.376	-0.154	0.139	0.561	0.230	-0.066	-0.168	-0.258	-0.158	-0.034	-0.162	-148.438
-0.002	-0.273	-0.295	-0.058	0.102	0.071	0.597	-0.201	-0.255	0.537	0.364	0.027	0.486	0.600	0.377	-0.046	0.167	-0.323	-0.232	0.052	0.494	0.228	-0.047	-0.098	-0.126	0.056	0.140	-0.055	-144.531
-0.069	-0.214	-0.338	-0.143	-0.010	0.021	0.525	-0.305	-0.338	0.514	0.391	0.084	0.439	0.530	0.265	-0.121	0.101	-0.273	-0.279	-0.017	0.422	0.244	-0.012	0.017	0.036	0.264	0.323	0.036	-140.625
-0.127	-0.143	-0.386	-0.221	-0.120	-0.032	0.427	-0.396	-0.405	0.452	0.373	0.123	0.376	0.456	0.167	-0.182	0.014	-0.231	-0.288	-0.067	0.346	0.278	0.043	0.170	0.213	0.449	0.496	0.112	-136.719
-0.180	-0.087	-0.438	-0.285	-0.217	-0.084	0.319	-0.458	-0.445	0.356	0.322	0.148	0.301	0.382	0.090	-0.224	-0.084	-0.200	-0.259	-0.099	0.271	0.323	0.117	0.345	0.383	0.594	0.644	0.173	-132.812
-0.231	-0.064	-0.490	-0.326	-0.288	-0.132	0.214	-0.481	-0.451	0.230	0.252	0.164	0.218	0.314	0.037	-0.245	-0.176	-0.181	-0.197	-0.113	0.202	0.375	0.206	0.520	0.523	0.685	0.750	0.220	-128.906
-0.279	-0.073	-0.535	-0.331	-0.324	-0.171	0.122	-0.465	-0.425	0.079	0.175	0.172	0.132	0.252	0.006	-0.239	-0.246	-0.168	-0.108	-0.110	0.143	0.424	0.301	0.673	0.607	0.715	0.803	0.251	-125.000
-0.317	-0.105	-0.567	-0.292	-0.322	-0.197	0.050	-0.415	-0.376	-0.091	0.101	0.172	0.050	0.201	-0.005	-0.206	-0.281	-0.157	-0.004	-0.090	0.101	0.463	0.389	0.783	0.618	0.681	0.797	0.266	-121.094
-0.337	-0.142	-0.577	-0.207	-0.282	-0.210	-0.001	-0.345	-0.317	-0.270	0.036	0.160	-0.024	0.158	0.000	-0.150	-0.274	-0.139	0.101	-0.053	0.077	0.488	0.462	0.833	0.547	0.587	0.735	0.261	-117.188
-0.327	-0.162	-0.559	-0.084	-0.213	-0.207	-0.035	-0.271	-0.261	-0.447	-0.021	0.134	-0.082	0.125	0.016	-0.075	-0.228	-0.108	0.195	-0.003	0.073	0.495	0.512	0.814	0.403	0.446	0.623	0.236	-113.281
-0.276	-0.151	-0.509	0.061	-0.128	-0.190	-0.057	-0.205	-0.219	-0.608	-0.070	0.090	-0.124	0.098	0.037	0.009	-0.151	-0.063	0.266	0.058	0.086	0.481	0.537	0.728	0.203	0.271	0.475	0.188	-109.375
-0.176	-0.100	-0.425	0.205	-0.043	-0.162	-0.074	-0.158	-0.196	-0.740	-0.114	0.026	-0.148	0.074	0.060	0.093	-0.059	-0.002	0.308	0.123	0.112	0.442	0.539	0.583	-0.021	0.081	0.305	0.118	-105.469
-0.028	-0.015	-0.307	0.322	0.027	-0.128	-0.093	-0.132	-0.190	-0.831	-0.157	-0.055	-0.160	0.049	0.078	0.166	0.033	0.071	0.318	0.184	0.141	0.379	0.522	0.395	-0.236	-0.106	0.128	0.030	-101.562
0.158	0.091	-0.164	0.391	0.069	-0.092	-0.116	-0.123	-0.191	-0.875	-0.197	-0.147	-0.163	0.019	0.090	0.219	0.105	0.148	0.299	0.231	0.165	0.290	0.493	0.187	-0.405	-0.273	-0.042	-0.068	-97.656
0.358	0.201	-0.005	0.398	0.078	-0.060	-0.143	-0.123	-0.187	-0.866	-0.230	-0.237	-0.163	-0.020	0.092	0.242	0.144	0.221	0.257	0.254	0.173	0.174	0.455	-0.021	-0.504	-0.405	-0.193	-0.165	-93.750
0.537	0.297	0.154	0.338	0.053	-0.036	-0.169	-0.119	-0.164	-0.803	-0.251	-0.313	-0.167	-0.070	0.084	0.232	0.142	0.280	0.196	0.247	0.157	0.033	0.412	-0.209	-0.519	-0.490	-0.316	-0.248	-89.844
0.659	0.364	0.296	0.222	0.002	-0.021	-0.189	-0.100	-0.110	-0.691	-0.250	-0.360	-0.177	-0.129	0.067	0.190	0.096	0.316	0.123	0.210	0.113	-0.126	0.365	-0.361	-0.451	-0.524	-0.403	-0.302	-85.938
0.692	0.393	0.404	0.068	-0.062	-0.016	-0.200	-0.057	-0.020	-0.538	-0.218	-0.368	-0.196	-0.196	0.042	0.120	0.011	0.323	0.044	0.145	0.042	-0.298	0.313	-0.469	-0.316	-0.505	-0.451	-0.316	-82.031
0.622	0.379	0.465	-0.094	-0.124	-0.016	-0.197	0.015	0.105	-0.357	-0.148	-0.331	-0.222	-0.264	0.009	0.032	-0.104	0.295	-0.039	0.062	-0.053	-0.471	0.255	-0.529	-0.142	-0.438	-0.460	-0.284	-78.125
0.450	0.320	0.471	-0.237	-0.169	-0.016	-0.181	0.115	0.255	-0.164	-0.038	-0.250	-0.253	-0.329	-0.033	-0.061	-0.234	0.232	-0.124	-0.027	-0.162	-0.634	0.188	-0.547	0.038	-0.332	-0.434	-0.209	-74.219
0.200	0.220	0.425	-0.338	-0.187	-0.012	-0.156	0.237	0.417	0.025	0.111	-0.134	-0.288	-0.386	-0.088	-0.150	-0.362	0.139	-0.207	-0.110	-0.276	-0.773	0.110	-0.531	0.195	-0.201	-0.380	-0.096	-70.312
-0.092	0.083	0.336	-0.385	-0.177	0.001	-0.127	0.369	0.575	0.195	0.287	0.007	-0.321	-0.430	-0.159	-0.225	-0.472	0.027	-0.287	-0.180	-0.386	-0.877	0.023	-0.494	0.304	-0.056	-0.308	0.041	-66.406
-0.380	-0.083	0.221	-0.381	-0.145	0.024	-0.097	0.499	0.715	0.333	0.475	0.158	-0.350	-0.463	-0.250	-0.284	-0.550	-0.090	-0.358	-0.234	-0.485	-0.936	-0.074	-0.447	0.354	0.091	-0.225	0.187	-62.500
-0.624	-0.264	0.102	-0.343	-0.106	0.052	-0.072	0.613	0.824	0.429	0.656	0.307	-0.374	-0.489	-0.361	-0.327	-0.586	-0.192	-0.414	-0.274	-0.572	-0.946	-0.174	-0.401	0.346	0.230	-0.141	0.331	-58.594
-0.791	-0.447	-0.001	-0.294	-0.075	0.075	-0.057	0.701	0.894	0.476	0.812	0.443	-0.393	-0.512	-0.490	-0.361	-0.574	-0.262	-0.445	-0.310	-0.646	-0.909	-0.272	-0.360	0.294	0.357	-0.063	0.460	-54.688
-0.869	-0.613	-0.071	-0.259	-0.067	0.082	-0.055	0.756	0.920	0.470	0.926	0.557	-0.408	-0.540	-0.632	-0.390	-0.515	-0.285	-0.445	-0.351	-0.713	-0.833	-0.357	-0.327	0.220	0.472	0.006	0.569	-50.781
-0.862	-0.745	-0.101	-0.253	-0.090	0.062	-0.069	0.772	0.903	0.411	0.985	0.647	-0.422	-0.579	-0.776	-0.419	-0.415	-0.255	-0.407	-0.405	-0.778	-0.731	-0.420	-0.297	0.148	0.574	0.064	0.657	-46.875
-0.792	-0.829	-0.091	-0.281	-0.145	0.012	-0.100	0.752	0.847	0.308	0.984	0.710	-0.439	-0.632	-0.913	-0.449	-0.286	-0.171	-0.330	-0.476	-0.845	-0.617	-0.452	-0.268	0.102	0.667	0.112	0.724	-42.969
-0.690	-0.859	-0.049	-0.334	-0.224	-0.066	-0.149	0.697	0.757	0.173	0.925	0.748	-0.459	-0.697	-1.030	-0.478	-0.144	-0.044	-0.221	-0.561	-0.915	-0.505	-0.448	-0.232	0.097	0.752	0.153	0.772	-39.062
-0.586	-0.839	0.011	-0.393	-0.314	-0.158	-0.213	0.617	0.645	0.027	0.813	0.763	-0.484	-0.771	-1.113	-0.501	-0.007	0.114	-0.093	-0.655	-0.987	-0.404	-0.407	-0.188	0.138	0.827	0.191	0.802	-35.156
-0.504	-0.784	0.075	-0.438	-0.399	-0.245	-0.286	0.523	0.523	-0.104	0.662	0.759	-0.513	-0.847	-1.153	-0.513	0.108	0.284	0.037	-0.749	-1.058	-0.322	-0.336	-0.134	0.220	0.890	0.229	0.814	-31.250
-0.458	-0.716	0.133	-0.451	-0.464	-0.306	-0.359	0.431	0.407	-0.194	0.490	0.740	-0.544	-0.919	-1.147	-0.515	0.183	0.447	0.148	-0.836	-1.123	-0.263	-0.246	-0.075	0.330	0.934	0.270	0.808	-27.344
-0.450	-0.655	0.177	-0.428	-0.497	-0.323	-0.421	0.357	0.315	-0.219	0.315	0.711	-0.573	-0.979	-1.094	-0.508	0.209	0.584	0.220	-0.913	-1.182	-0.229	-0.154	-0.017	0.450	0.955	0.312	0.786	-23.438
-0.475	-0.620	0.206	-0.373	-0.493	-0.288	-0.463	0.316	0.263	-0.166	0.158	0.678	-0.597	-1.025	-1.005	-0.501	0.182	0.685	0.239	-0.980	-1.234	-0.222	-0.077	0.030	0.559	0.948	0.354	0.751	-19.531
-0.526	-0.615	0.223	-0.300	-0.454	-0.205	-0.478	0.318	0.259	-0.034	0.035	0.649	-0.615	-1.054	-0.890	-0.501	0.105	0.743	0.200	-1.042	-1.281	-0.245	-0.030	0.056	0.640	0.912	0.393	0.710	-15.625
-0.591	-0.638	0.235	-0.227	-0.386	-0.092	-0.461	0.366	0.308	0.165	-0.040	0.627	-0.624	-1.068	-0.765	-0.515	-0.009	0.761	0.106	-1.102	-1.324	-0.300	-0.024	0.052	0.682	0.851	0.426	0.669	-11.719
-0.663	-0.679	0.247	-0.169	-0.302	0.024	-0.416	0.454	0.403	0.406	-0.061	0.617	-0.624	-1.067	-0.645	-0.547	-0.144	0.752	-0.031	-1.162	-1.364	-0.387	-0.061	0.014	0.681	0.771	0.450	0.637	-7.812
-0.732	-0.722	0.266	-0.137	-0.217	0.114	-0.348	0.574	0.532	0.658	-0.029	0.619	-0.613	-1.054	-0.546	-0.595	-0.280	0.731	-0.192	-1.219	-1.400	-0.503	-0.138	-0.059	0.637	0.681	0.462	0.619	-3.906
-0.792	-0.754	0.294	-0.135	-0.146	0.151	-0.266	0.710	0.677	0.891	0.048	0.631	-0.591	-1.031	-0.478	-0.648	-0.394	0.718	-0.353	-1.269	-1.426	-0.641	-0.246	-0.164	0.559	0.589	0.462	0.617	0.000
-0.840	-0.761	0.330	-0.160	-0.101	0.125	-0.179	0.845	0.819	1.086	0.154	0.649	-0.558	-0.996	-0.447	-0.698	-0.470	0.727	-0.495	-1.303	-1.440	-0.789	-0.372	-0.291	0.456	0.501	0.450	0.628	3.906
-0.874	-0.739	0.369	-0.201	-0.087	0.041	-0.097	0.964	0.938	1.233	0.273	0.667	-0.516	-0.952	-0.452	-0.731	-0.496	0.767	-0.598	-1.314	-1.436	-0.933	-0.498	-0.428	0.335	0.419	0.428	0.647	7.812
-0.897	-0.690	0.405	-0.246	-0.103	-0.077	-0.025	1.051	1.020	1.332	0.388	0.681	-0.465	-0.897	-0.484	-0.739	-0.471	0.839	-0.655	-1.301	-1.413	-1.055	-0.609	-0.559	0.208	0.342	0.399	0.663	11.719
-0.915	-0.624	0.431	-0.279	-0.141	-0.197	0.029	1.097	1.055	1.391	0.486	0.686	-0.407	-0.832	-0.530	-0.720	-0.401	0.931	-0.661	-1.263	-1.372	-1.140	-0.690	-0.668	0.081	0.266	0.369	0.670	15.625
-0.928	-0.557	0.440	-0.289	-0.190	-0.283	0.062	1.093	1.036	1.418	0.560	0.678	-0.343	-0.759	-0.576	-0.676	-0.300	1.027	-0.623	-1.204	-1.317	-1.170	-0.728	-0.740	-0.038	0.190	0.346	0.662	19.531
-0.936	-0.502	0.427	-0.269	-0.240	-0.310	0.072	1.037	0.965	1.418	0.605	0.658	-0.274	-0.678	-0.609	-0.615	-0.186	1.107	-0.551	-1.134	-1.254	-1.133	-0.717	-0.764	-0.140	0.112	0.336	0.638	23.438
-0.936	-0.474	0.392	-0.222	-0.283	-0.268	0.056	0.932	0.847	1.394	0.624	0.625	-0.203	-0.594	-0.623	-0.547	-0.078	1.152	-0.458	-1.057	-1.188	-1.025	-0.657	-0.736	-0.216	0.040	0.349	0.602	27.344
-0.920	-0.478	0.335	-0.156	-0.317	-0.168	0.015	0.786	0.692	1.344	0.620	0.584	-0.129	-0.511	-0.620	-0.481	0.013	1.148	-0.355	-0.982	-1.122	-0.851	-0.554	-0.655	-0.257	-0.017	0.392	0.564	31.250
-0.884	-0.514	0.261	-0.087	-0.347	-0.035	-0.050	0.613	0.516	1.268	0.598	0.540	-0.057	-0.435	-0.608	-0.427	0.077	1.092	-0.253	-0.912	-1.060	-0.624	-0.419	-0.530	-0.254	-0.042	0.471	0.534	35.156
-0.832	-0.581	0.174	-0.035	-0.381	0.092	-0.134	0.434	0.339	1.170	0.565	0.502	0.010	-0.375	-0.602	-0.389	0.112	0.987	-0.163	-0.853	-1.007	-0.368	-0.267	-0.371	-0.200	-0.018	0.591	0.529	39.062
-0.776	-0.670	0.077	-0.020	-0.435	0.169	-0.230	0.272	0.187	1.063	0.530	0.482	0.065	-0.341	-0.623	-0.375	0.116	0.846	-0.094	-0.811	-0.969	-0.114	-0.113	-0.189	-0.088	0.079	0.755	0.562	42.969
-0.743	-0.777	-0.032	-0.062	-0.520	0.159	-0.330	0.152	0.088	0.968	0.507	0.495	0.101	-0.343	-0.689	-0.391	0.087	0.683	-0.055	-0.794	-0.957	0.106	0.026	0.006	0.087	0.268	0.965	0.648	46.875
-0.767	-0.899	-0.158	-0.172	-0.650	0.038	-0.423	0.097	0.072	0.913	0.518	0.557	0.110	-0.395	-0.819	-0.444	0.020	0.512	-0.057	-0.815	-0.986	0.263	0.137	0.207	0.330	0.571	1.224	0.800	50.781
-0.888	-1.040	-0.310	-0.358	-0.829	-0.196	-0.499	0.123	0.162	0.932	0.592	0.685	0.086	-0.506	-1.027	-0.547	-0.093	0.346	-0.109	-0.889	-1.070	0.332	0.211	0.414	0.644	1.002	1.532	1.027	54.688
-1.138	-1.211	-0.497	-0.618	-1.057	-0.524	-0.548	0.239	0.377	1.056	0.762	0.889	0.028	-0.683	-1.325	-0.713	-0.259	0.187	-0.217	-1.033	-1.228	0.299	0.241	0.628	1.029	1.570	1.892	1.335	58.594
-1.537	-1.430	-0.729	-0.945	-1.326	-0.908	-0.561	0.441	0.721	1.308	1.058	1.175	-0.062	-0.927	-1.714	-0.954	-0.486	0.031	-0.382	-1.258	-1.468	0.165	0.223	0.853	1.481	2.268	2.302	1.721	62.500
-2.077	-1.717	-1.005	-1.326	-1.621	-1.299	-0.534	0.718	1.190	1.696	1.499	1.534	-0.176	-1.227	-2.189	-1.278	-0.774	-0.129	-0.597	-1.573	-1.792	-0.063	0.159	1.092	1.987	3.074	2.755	2.173	66.406
-2.729	-2.081	-1.319	-1.739	-1.923	-1.646	-0.464	1.049	1.762	2.211	2.087	1.946	-0.300	-1.565	-2.730	-1.680	-1.114	-0.302	-0.849	-1.972	-2.189	-0.363	0.051	1.342	2.528	3.948	3.235	2.666	70.312
-3.437	-2.520	-1.652	-2.160	-2.209	-1.906	-0.350	1.408	2.401	2.823	2.798	2.379	-0.417	-1.913	-3.305	-2.145	-1.488	-0.494	-1.118	-2.435	-2.634	-0.709	-0.096	1.597	3.074	4.832	3.718	3.166	74.219
-4.132	-3.005	-1.981	-2.558	-2.456	-2.053	-0.198	1.769	3.061	3.486	3.581	2.794	-0.506	-2.238	-3.870	-2.641	-1.871	-0.705	-1.381	-2.931	-3.091	-1.071	-0.271	1.839	3.588	5.653	4.171	3.628	78.125
-4.744	-3.491	-2.278	-2.902	-2.642	-2.083	-0.014	2.106	3.690	4.144	4.369	3.151	-0.551	-2.507	-4.374	-3.124	-2.230	-0.929	-1.616	-3.416	-3.516	-1.416	-0.466	2.052	4.030	6.336	4.556	4.007	82.031
-5.213	-3.913	-2.517	-3.159	-2.749	-2.012	0.193	2.397	4.237	4.744	5.080	3.420	-0.536	-2.688	-4.764	-3.548	-2.539	-1.154	-1.803	-3.842	-3.863	-1.716	-0.666	2.213	4.361	6.809	4.835	4.262	85.938
-5.495	-4.211	-2.677	-3.302	-2.763	-1.871	0.412	2.622	4.654	5.237	5.639	3.581	-0.450	-2.756	-5.001	-3.867	-2.773	-1.365	-1.930	-4.163	-4.094	-1.949	-0.858	2.305	4.547	7.017	4.980	4.368	89.844
-5.567	-4.335	-2.748	-3.315	-2.682	-1.702	0.628	2.766	4.908	5.589	5.983	3.633	-0.291	-2.699	-5.063	-4.046	-2.922	-1.544	-1.990	-4.345	-4.176	-2.098	-1.030	2.317	4.566	6.935	4.975	4.317	93.750
-5.424	-4.266	-2.727	-3.197	-2.512	-1.542	0.827	2.816	4.977	5.779	6.075	3.589	-0.061	-2.514	-4.954	-4.065	-2.984	-1.674	-1.981	-4.364	-4.096	-2.154	-1.166	2.247	4.410	6.563	4.822	4.123	97.656
-5.079	-4.010	-2.620	-2.959	-2.267	-1.419	0.988	2.760	4.850	5.797	5.907	3.471	0.232	-2.209	-4.693	-3.924	-2.967	-1.743	-1.905	-4.215	-3.852	-2.113	-1.253	2.103	4.083	5.934	4.542	3.817	101.562
-4.560	-3.604	-2.440	-2.627	-1.969	-1.340	1.093	2.591	4.528	5.640	5.496	3.304	0.574	-1.801	-4.318	-3.632	-2.881	-1.740	-1.766	-3.907	-3.458	-1.974	-1.279	1.904	3.604	5.101	4.167	3.442	105.469
-3.908	-3.096	-2.201	-2.236	-1.646	-1.299	1.122	2.301	4.020	5.312	4.879	3.113	0.947	-1.316	-3.868	-3.215	-2.737	-1.661	-1.567	-3.463	-2.938	-1.741	-1.236	1.670	3.001	4.132	3.736	3.044	109.375
-3.179	-2.539	-1.918	-1.821	-1.324	-1.274	1.060	1.891	3.346	4.825	4.107	2.915	1.331	-0.781	-3.383	-2.703	-2.541	-1.508	-1.312	-2.912	-2.329	-1.420	-1.120	1.427	2.310	3.103	3.289	2.670	113.281
-2.437	-1.979	-1.610	-1.417	-1.028	-1.238	0.898	1.371	2.535	4.200	3.234	2.725	1.701	-0.228	-2.897	-2.131	-2.299	-1.290	-1.006	-2.292	-1.671	-1.021	-0.937	1.196	1.572	2.085	2.860	2.356	117.188
-1.752	-1.452	-1.294	-1.052	-0.780	-1.168	0.641	0.763	1.629	3.469	2.320	2.559	2.033	0.308	-2.440	-1.535	-2.018	-1.020	-0.660	-1.645	-1.010	-0.565	-0.700	0.993	0.831	1.144	2.477	2.133	121.094
-1.196	-0.984	-0.987	-0.742	-0.594	-1.051	0.304	0.104	0.686	2.676	1.424	2.434	2.300	0.792	-2.037	-0.955	-1.707	-0.723	-0.287	-1.016	-0.395	-0.082	-0.430	0.825	0.132	0.339	2.157	2.022	125.000
-0.828	-0.594	-0.711	-0.495	-0.478	-0.891	-0.089	-0.553	-0.225	1.879	0.608	2.374	2.481	1.186	-1.714	-0.428	-1.387	-0.425	0.091	-0.448	0.127	0.387	-0.156	0.689	-0.478	-0.281	1.912	2.034	128.906
-0.692	-0.301	-0.486	-0.311	-0.434	-0.704	-0.504	-1.149	-1.026	1.140	-0.065	2.407	2.554	1.453	-1.501	0.005	-1.083	-0.159	0.446	0.013	0.513	0.792	0.088	0.574	-0.957	-0.675	1.744	2.177	132.812
-0.810	-0.121	-0.329	-0.191	-0.457	-0.518	-0.902	-1.621	-1.640	0.521	-0.531	2.560	2.506	1.562	-1.428	0.309	-0.833	0.044	0.744	0.325	0.726	1.081	0.267	0.466	-1.267	-0.811	1.656	2.451	136.719
-1.178	-0.070	-0.258	-0.138	-0.541	-0.366	-1.245	-1.911	-1.995	0.078	-0.732	2.859	2.330	1.488	-1.526	0.449	-0.676	0.156	0.949	0.453	0.739	1.204	0.351	0.349	-1.376	-0.666	1.647	2.854	140.625
-1.769	-0.162	-0.283	-0.158	-0.680	-0.279	-1.500	-1.975	-2.039	-0.147	-0.624	3.318	2.026	1.221	-1.824	0.399	-0.653	0.153	1.024	0.373	0.538	1.125	0.318	0.215	-1.261	-0.227	1.718	3.380	144.531
-2.540	-0.403	-0.411	-0.260	-0.866	-0.281	-1.641	-1.788	-1.743	-0.129	-0.180	3.938	1.605	0.763	-2.338	0.145	-0.793	0.022	0.941	0.074	0.124	0.826	0.158	0.062	-0.910	0.503	1.869	4.017	148.438
-3.439	-0.790	-0.644	-0.448	-1.093	-0.381	-1.652	-1.352	-1.106	0.137	0.598	4.707	1.083	0.132	-3.071	-0.314	-1.114	-0.241	0.683	-0.439	-0.487	0.310	-0.128	-0.105	-0.329	1.506	2.099	4.750	152.344
-4.417	-1.307	-0.976	-0.723	-1.353	-0.575	-1.530	-0.691	-0.160	0.643	1.681	5.593	0.486	-0.641	-4.003	-0.965	-1.614	-0.628	0.249	-1.143	-1.266	-0.394	-0.523	-0.269	0.463	2.747	2.407	5.558	156.250
-5.430	-1.928	-1.395	-1.077	-1.638	-0.844	-1.279	0.148	1.040	1.365	3.014	6.559	-0.158	-1.512	-5.097	-1.776	-2.270	-1.120	-0.347	-1.999	-2.172	-1.242	-1.000	-0.413	1.426	4.172	2.786	6.414	160.156
-6.448	-2.616	-1.886	-1.491	-1.937	-1.157	-0.915	1.103	2.416	2.270	4.520	7.556	-0.811	-2.433	-6.299	-2.707	-3.042	-1.690	-1.075	-2.961	-3.154	-2.175	-1.528	-0.514	2.507	5.716	3.227	7.288	164.062
-7.457	-3.326	-2.426	-1.939	-2.236	-1.481	-0.461	2.104	3.884	3.322	6.111	8.537	-1.434	-3.355	-7.542	-3.706	-3.880	-2.306	-1.893	-3.973	-4.162	-3.130	-2.070	-0.556	3.639	7.303	3.717	8.148	167.969
-8.447	-4.012	-2.994	-2.388	-2.519	-1.781	0.058	3.085	5.357	4.476	7.700	9.460	-1.991	-4.231	-8.757	-4.718	-4.724	-2.931	-2.754	-4.983	-5.145	-4.048	-2.593	-0.527	4.756	8.859	4.240	8.964	171.875
-9.417	-4.635	-3.565	-2.805	-2.773	-2.030	0.618	3.990	6.757	5.688	9.205	10.285	-2.444	-5.023	-9.881	-5.688	-5.518	-3.530	-3.605	-5.940	-6.059	-4.879	-3.070	-0.422	5.793	10.311	4.779	9.706	175.781
-10.356	-5.165	-4.116	-3.158	-2.981	-2.207	1.193	4.776	8.021	6.908	10.559	10.984	-2.766	-5.702	-10.861	-6.569	-6.215	-4.075	-4.400	-6.803	-6.867	-5.587	-3.479	-0.246	6.698	11.601	5.314	10.348	179.688
-11.249	-5.584	-4.630	-3.427	-3.135	-2.307	1.762	5.418	9.104	8.088	11.714	11.535	-2.941	-6.247	-11.659	-7.322	-6.782	-4.543	-5.099	-7.542	-7.544	-6.149	-3.809	-0.011	7.435	12.683	5.828	10.870	183.594
-12.064	-5.887	-5.090	-3.602	-3.227	-2.332	2.304	5.906	9.976	9.175	12.642	11.922	-2.963	-6.647	-12.252	-7.921	-7.200	-4.920	-5.669	-8.137	-8.075	-6.555	-4.054	0.268	7.986	13.532	6.304	11.256	187.500
-12.765	-6.075	-5.481	-3.686	-3.257	-2.297	2.797	6.242	10.626	10.121	13.328	12.138	-2.844	-6.898	-12.632	-8.354	-7.469	-5.200	-6.089	-8.577	-8.452	-6.802	-4.214	0.573	8.347	14.136	6.726	11.496	191.406
-13.309	-6.155	-5.789	-3.694	-3.231	-2.221	3.222	6.433	11.049	10.882	13.771	12.179	-2.609	-7.003	-12.799	-8.619	-7.595	-5.382	-6.343	-8.861	-8.676	-6.895	-4.294	0.885	8.526	14.495	7.080	11.585	195.312
-13.655	-6.132	-6.002	-3.645	-3.155	-2.124	3.561	6.491	11.253	11.423	13.976	12.049	-2.295	-6.973	-12.760	-8.722	-7.595	-5.469	-6.425	-8.994	-8.756	-6.844	-4.301	1.184	8.539	14.621	7.348	11.523	199.219
-13.768	-6.014	-6.107	-3.559	-3.041	-2.024	3.796	6.428	11.245	11.723	13.950	11.751	-1.945	-6.823	-12.528	-8.676	-7.485	-5.463	-6.338	-8.985	-8.700	-6.661	-4.241	1.451	8.404	14.528	7.513	11.311	203.125
-13.629	-5.806	-6.093	-3.449	-2.898	-1.931	3.916	6.254	11.038	11.774	13.702	11.296	-1.603	-6.575	-12.116	-8.495	-7.276	-5.368	-6.091	-8.844	-8.526	-6.364	-4.120	1.669	8.141	14.239	7.559	10.957	207.031
-13.235	-5.515	-5.953	-3.318	-2.736	-1.847	3.914	5.978	10.642	11.579	13.241	10.695	-1.310	-6.254	-11.541	-8.195	-6.978	-5.185	-5.706	-8.585	-8.249	-5.973	-3.941	1.823	7.772	13.775	7.473	10.473	210.938
-12.602	-5.148	-5.687	-3.162	-2.565	-1.769	3.791	5.610	10.073	11.155	12.581	9.964	-1.095	-5.886	-10.822	-7.792	-6.596	-4.920	-5.211	-8.221	-7.887	-5.510	-3.708	1.901	7.316	13.164	7.248	9.873	214.844
-11.766	-4.718	-5.299	-2.969	-2.393	-1.689	3.553	5.161	9.350	10.529	11.741	9.125	-0.978	-5.498	-9.983	-7.300	-6.134	-4.576	-4.643	-7.769	-7.460	-5.002	-3.426	1.903	6.798	12.435	6.888	9.180	218.750
-10.779	-4.243	-4.806	-2.731	-2.227	-1.598	3.214	4.647	8.503	9.735	10.753	8.203	-0.963	-5.111	-9.055	-6.736	-5.599	-4.162	-4.041	-7.245	-6.988	-4.473	-3.102	1.833	6.241	11.621	6.408	8.418	222.656
-9.706	-3.743	-4.233	-2.441	-2.075	-1.492	2.794	4.090	7.570	8.816	9.661	7.231	-1.041	-4.743	-8.081	-6.117	-5.004	-3.687	-3.441	-6.670	-6.493	-3.951	-2.749	1.705	5.670	10.758	5.837	7.620	226.562
-8.615	-3.245	-3.613	-2.106	-1.945	-1.369	2.318	3.515	6.596	7.820	8.521	6.247	-1.196	-4.407	-7.108	-5.467	-4.371	-3.171	-2.876	-6.069	-5.997	-3.459	-2.384	1.544	5.112	9.887	5.214	6.822	230.469
-7.575	-2.771	-2.988	-1.744	-1.845	-1.236	1.814	2.949	5.636	6.801	7.397	5.292	-1.402	-4.108	-6.195	-4.814	-3.728	-2.636	-2.371	-5.470	-5.521	-3.014	-2.028	1.375	4.591	9.050	4.585	6.063	234.375
-6.647	-2.344	-2.398	-1.381	-1.780	-1.103	1.315	2.422	4.745	5.814	6.355	4.410	-1.633	-3.849	-5.394	-4.188	-3.111	-2.110	-1.943	-4.903	-5.085	-2.631	-1.702	1.225	4.133	8.286	3.996	5.380	238.281
-5.878	-1.980	-1.884	-1.052	-1.754	-0.982	0.850	1.960	3.976	4.912	5.452	3.642	-1.863	-3.632	-4.753	-3.624	-2.558	-1.627	-1.602	-4.396	-4.709	-2.316	-1.421	1.118	3.761	7.634	3.487	4.806	242.188
-5.296	-1.695	-1.482	-0.790	-1.767	-0.888	0.452	1.589	3.373	4.142	4.734	3.022	-2.069	-3.455	-4.302	-3.153	-2.101	-1.220	-1.351	-3.976	-4.406	-2.071	-1.199	1.067	3.495	7.123	3.089	4.365	246.094
-4.912	-1.501	-1.214	-0.619	-1.814	-0.830	0.145	1.324	2.966	3.540	4.229	2.575	-2.236	-3.318	-4.054	-2.802	-1.768	-0.918	-1.189	-3.663	-4.184	-1.895	-1.037	1.075	3.345	6.772	2.816	4.070	250.000
-4.716	-1.407	-1.093	-0.555	-1.886	-0.814	-0.050	1.178	2.769	3.134	3.948	2.315	-2.353	-3.221	-4.001	-2.588	-1.571	-0.741	-1.110	-3.465	-4.048	-1.782	-0.934	1.134	3.316	6.587	2.668	3.920	253.906
-4.681	-1.419	-1.118	-0.598	-1.971	-0.838	-0.124	1.153	2.780	2.933	3.882	2.241	-2.419	-3.163	-4.119	-2.517	-1.513	-0.697	-1.105	-3.386	-3.997	-1.725	-0.880	1.226	3.403	6.561	2.631	3.901	257.812
-4.775	-1.538	-1.278	-0.740	-2.057	-0.902	-0.078	1.245	2.981	2.934	4.010	2.337	-2.439	-3.144	-4.371	-2.584	-1.584	-0.778	-1.163	-3.418	-4.024	-1.720	-0.859	1.332	3.595	6.677	2.682	3.990	261.719
-4.965	-1.753	-1.548	-0.962	-2.138	-1.000	0.076	1.442	3.339	3.116	4.300	2.578	-2.422	-3.162	-4.710	-2.772	-1.761	-0.964	-1.272	-3.547	-4.120	-1.757	-0.857	1.432	3.875	6.909	2.795	4.158	265.625
-5.222	-2.043	-1.901	-1.242	-2.208	-1.131	0.314	1.725	3.809	3.444	4.714	2.924	-2.379	-3.217	-5.087	-3.056	-2.020	-1.223	-1.418	-3.756	-4.274	-1.832	-0.860	1.513	4.224	7.225	2.948	4.375	269.531
-5.523	-2.378	-2.302	-1.555	-2.271	-1.292	0.606	2.069	4.343	3.873	5.207	3.334	-2.323	-3.304	-5.458	-3.403	-2.329	-1.517	-1.586	-4.024	-4.472	-1.936	-0.857	1.567	4.623	7.592	3.122	4.614	273.438
-5.857	-2.720	-2.719	-1.879	-2.330	-1.477	0.920	2.446	4.891	4.356	5.737	3.764	-2.260	-3.418	-5.785	-3.783	-2.663	-1.813	-1.764	-4.331	-4.701	-2.060	-0.844	1.596	5.051	7.980	3.306	4.851	277.344
-6.216	-3.038	-3.123	-2.195	-2.394	-1.677	1.225	2.825	5.407	4.849	6.264	4.176	-2.194	-3.551	-6.046	-4.164	-2.999	-2.085	-1.940	-4.655	-4.945	-2.195	-0.825	1.605	5.492	8.363	3.496	5.072	281.250
-6.595	-3.308	-3.493	-2.491	-2.469	-1.879	1.494	3.175	5.858	5.317	6.754	4.540	-2.123	-3.688	-6.236	-4.522	-3.319	-2.315	-2.107	-4.978	-5.190	-2.330	-0.804	1.609	5.930	8.724	3.696	5.273	285.156
-6.988	-3.522	-3.818	-2.761	-2.561	-2.069	1.708	3.470	6.219	5.737	7.180	4.840	-2.037	-3.815	-6.362	-4.843	-3.612	-2.502	-2.258	-5.285	-5.420	-2.451	-0.787	1.620	6.352	9.053	3.910	5.455	289.062
-7.386	-3.690	-4.098	-3.005	-2.668	-2.233	1.859	3.691	6.483	6.097	7.523	5.072	-1.925	-3.913	-6.446	-5.118	-3.869	-2.650	-2.392	-5.559	-5.621	-2.546	-0.780	1.653	6.746	9.345	4.144	5.626	292.969
-7.773	-3.834	-4.340	-3.223	-2.789	-2.365	1.947	3.829	6.653	6.394	7.775	5.240	-1.777	-3.963	-6.515	-5.344	-4.083	-2.768	-2.501	-5.788	-5.778	-2.605	-0.780	1.717	7.100	9.600	4.399	5.793	296.875
-8.133	-3.985	-4.558	-3.417	-2.915	-2.461	1.982	3.883	6.744	6.630	7.932	5.354	-1.586	-3.952	-6.595	-5.521	-4.246	-2.868	-2.578	-5.960	-5.879	-2.619	-0.783	1.817	7.399	9.815	4.666	5.960	300.781
-8.447	-4.171	-4.766	-3.584	-3.038	-2.526	1.978	3.865	6.776	6.808	7.997	5.422	-1.354	-3.873	-6.702	-5.649	-4.350	-2.958	-2.611	-6.065	-5.913	-2.584	-0.781	1.952	7.634	9.990	4.933	6.126	304.688
-8.697	-4.406	-4.975	-3.720	-3.145	-2.569	1.952	3.793	6.771	6.930	7.977	5.449	-1.092	-3.726	-6.843	-5.725	-4.386	-3.040	-2.585	-6.095	-5.874	-2.500	-0.767	2.113	7.795	10.121	5.181	6.282	308.594
-8.873	-4.689	-5.188	-3.818	-3.229	-2.600	1.916	3.687	6.745	6.993	7.880	5.432	-0.819	-3.523	-7.007	-5.745	-4.347	-3.113	-2.486	-6.043	-5.760	-2.367	-0.734	2.289	7.878	10.205	5.387	6.414	312.500
-8.967	-4.995	-5.402	-3.874	-3.280	-2.629	1.878	3.564	6.706	6.986	7.714	5.364	-0.560	-3.281	-7.171	-5.700	-4.226	-3.171	-2.305	-5.909	-5.573	-2.188	-0.674	2.469	7.885	10.238	5.535	6.501	316.406
-8.983	-5.285	-5.606	-3.883	-3.295	-2.663	1.841	3.432	6.653	6.899	7.486	5.234	-0.342	-3.020	-7.305	-5.583	-4.022	-3.207	-2.036	-5.693	-5.317	-1.965	-0.585	2.643	7.826	10.218	5.609	6.525	320.312
-8.930	-5.510	-5.787	-3.845	-3.273	-2.704	1.800	3.296	6.577	6.720	7.208	5.034	-0.189	-2.760	-7.378	-5.387	-3.740	-3.212	-1.690	-5.400	-5.004	-1.701	-0.463	2.803	7.717	10.144	5.605	6.470	324.219
-8.825	-5.626	-5.933	-3.761	-3.218	-2.751	1.748	3.154	6.468	6.449	6.893	4.763	-0.117	-2.518	-7.363	-5.110	-3.393	-3.181	-1.282	-5.039	-4.646	-1.396	-0.306	2.943	7.577	10.019	5.523	6.328	328.125
-8.685	-5.599	-6.035	-3.634	-3.135	-2.801	1.677	3.004	6.319	6.094	6.558	4.428	-0.131	-2.305	-7.245	-4.756	-2.999	-3.113	-0.842	-4.622	-4.257	-1.057	-0.117	3.062	7.421	9.842	5.370	6.096	332.031
-8.528	-5.420	-6.092	-3.469	-3.032	-2.847	1.583	2.848	6.131	5.682	6.227	4.049	-0.224	-2.125	-7.025	-4.340	-2.586	-3.014	-0.402	-4.168	-3.856	-0.693	0.100	3.154	7.263	9.620	5.157	5.784	335.938
-8.367	-5.106	-6.109	-3.276	-2.917	-2.883	1.471	2.694	5.917	5.251	5.929	3.658	-0.380	-1.980	-6.718	-3.884	-2.182	-2.893	0.006	-3.698	-3.461	-0.322	0.333	3.213	7.110	9.354	4.894	5.408	339.844
-8.213	-4.696	-6.093	-3.064	-2.795	-2.901	1.352	2.555	5.698	4.846	5.687	3.291	-0.573	-1.863	-6.355	-3.417	-1.816	-2.761	0.353	-3.237	-3.089	0.033	0.566	3.232	6.960	9.050	4.592	4.994	343.750
-8.071	-4.247	-6.054	-2.848	-2.670	-2.893	1.244	2.443	5.500	4.516	5.523	2.986	-0.774	-1.770	-5.973	-2.974	-1.508	-2.632	0.623	-2.812	-2.759	0.347	0.781	3.204	6.809	8.713	4.260	4.568	347.656
-7.942	-3.822	-5.999	-2.644	-2.544	-2.852	1.166	2.371	5.346	4.297	5.443	2.774	-0.956	-1.691	-5.613	-2.585	-1.272	-2.517	0.809	-2.447	-2.483	0.594	0.957	3.121	6.648	8.350	3.908	4.157	351.562
-7.825	-3.474	-5.931	-2.466	-2.416	-2.772	1.136	2.342	5.255	4.217	5.445	2.673	-1.092	-1.620	-5.307	-2.277	-1.112	-2.425	0.915	-2.162	-2.270	0.756	1.077	2.982	6.472	7.968	3.546	3.786	355.469
-7.718	-3.242	-5.852	-2.326	-2.283	-2.651	1.166	2.355	5.232	4.279	5.513	2.687	-1.164	-1.549	-5.080	-2.063	-1.024	-2.361	0.952	-1.970	-2.125	0.824	1.130	2.793	6.276	7.578	3.187	3.471	359.375
-7.621	-3.141	-5.761	-2.231	-2.146	-2.492	1.256	2.400	5.272	4.471	5.621	2.800	-1.159	-1.473	-4.937	-1.947	-0.997	-2.328	0.936	-1.874	-2.043	0.803	1.110	2.565	6.059	7.187	2.849	3.222	363.281
-7.536	-3.161	-5.655	-2.182	-2.010	-2.305	1.398	2.460	5.357	4.762	5.743	2.983	-1.074	-1.388	-4.870	-1.918	-1.017	-2.324	0.884	-1.865	-2.015	0.709	1.024	2.317	5.829	6.806	2.551	3.040	367.188
-7.465	-3.273	-5.531	-2.176	-1.885	-2.104	1.573	2.519	5.463	5.109	5.850	3.195	-0.912	-1.291	-4.854	-1.959	-1.067	-2.349	0.811	-1.928	-2.029	0.566	0.885	2.072	5.594	6.444	2.313	2.921	371.094
-7.405	-3.434	-5.386	-2.206	-1.782	-1.906	1.753	2.559	5.559	5.459	5.915	3.396	-0.685	-1.183	-4.855	-2.045	-1.133	-2.397	0.731	-2.041	-2.068	0.406	0.714	1.853	5.368	6.108	2.147	2.853	375.000
-7.351	-3.598	-5.219	-2.264	-1.715	-1.729	1.911	2.564	5.614	5.761	5.919	3.547	-0.413	-1.066	-4.839	-2.153	-1.202	-2.459	0.655	-2.181	-2.117	0.258	0.536	1.678	5.163	5.805	2.059	2.825	378.906
-7.295	-3.726	-5.029	-2.341	-1.695	-1.588	2.018	2.525	5.605	5.966	5.850	3.622	-0.123	-0.948	-4.773	-2.263	-1.263	-2.522	0.591	-2.325	-2.163	0.148	0.374	1.558	4.993	5.539	2.042	2.822	382.812
-7.223	-3.793	-4.815	-2.431	-1.726	-1.491	2.054	2.438	5.517	6.038	5.704	3.606	0.154	-0.839	-4.634	-2.363	-1.307	-2.569	0.544	-2.455	-2.198	0.092	0.249	1.493	4.865	5.312	2.078	2.830	386.719
-7.126	-3.788	-4.580	-2.524	-1.803	-1.440	2.004	2.309	5.348	5.954	5.488	3.499	0.385	-0.750	-4.412	-2.443	-1.330	-2.580	0.518	-2.560	-2.217	0.097	0.177	1.473	4.782	5.120	2.137	2.838	390.625
-6.992	-3.717	-4.324	-2.611	-1.917	-1.428	1.869	2.148	5.110	5.710	5.216	3.315	0.539	-0.690	-4.106	-2.498	-1.325	-2.535	0.511	-2.632	-2.222	0.159	0.163	1.477	4.736	4.956	2.182	2.833	394.531
-6.816	-3.598	-4.045	-2.683	-2.053	-1.444	1.660	1.976	4.828	5.318	4.909	3.070	0.593	-0.668	-3.725	-2.525	-1.290	-2.418	0.522	-2.670	-2.215	0.264	0.204	1.478	4.713	4.808	2.172	2.800	398.438
-6.592	-3.453	-3.744	-2.730	-2.191	-1.474	1.394	1.815	4.533	4.806	4.590	2.788	0.534	-0.689	-3.287	-2.522	-1.222	-2.220	0.543	-2.676	-2.204	0.392	0.290	1.447	4.693	4.659	2.072	2.726	402.344
-6.319	-3.303	-3.417	-2.747	-2.316	-1.503	1.095	1.690	4.262	4.213	4.282	2.489	0.357	-0.756	-2.809	-2.491	-1.121	-1.944	0.570	-2.658	-2.196	0.521	0.403	1.361	4.657	4.494	1.856	2.602	406.250
-5.996	-3.166	-3.065	-2.732	-2.414	-1.518	0.788	1.624	4.044	3.580	4.007	2.191	0.071	-0.867	-2.313	-2.437	-0.993	-1.602	0.595	-2.626	-2.200	0.630	0.524	1.202	4.587	4.301	1.514	2.420	410.156
-5.627	-3.051	-2.689	-2.687	-2.476	-1.509	0.491	1.634	3.904	2.949	3.781	1.906	-0.307	-1.021	-1.817	-2.369	-0.846	-1.217	0.612	-2.593	-2.225	0.701	0.633	0.963	4.472	4.071	1.055	2.182	414.062
-5.215	-2.962	-2.294	-2.617	-2.501	-1.472	0.217	1.728	3.851	2.352	3.614	1.644	-0.754	-1.213	-1.335	-2.299	-0.692	-0.815	0.617	-2.570	-2.277	0.721	0.712	0.651	4.308	3.805	0.505	1.899	417.969
-4.772	-2.889	-1.884	-2.528	-2.493	-1.402	-0.027	1.903	3.880	1.808	3.508	1.404	-1.242	-1.439	-0.878	-2.238	-0.546	-0.424	0.607	-2.567	-2.359	0.685	0.747	0.277	4.096	3.509	-0.094	1.585	421.875
-4.312	-2.819	-1.468	-2.426	-2.455	-1.300	-0.240	2.145	3.974	1.328	3.461	1.185	-1.737	-1.688	-0.446	-2.197	-0.421	-0.070	0.579	-2.585	-2.469	0.596	0.730	-0.136	3.843	3.192	-0.697	1.261	425.781
-3.855	-2.730	-1.052	-2.309	-2.393	-1.169	-0.423	2.428	4.103	0.915	3.458	0.977	-2.208	-1.949	-0.037	-2.177	-0.327	0.231	0.533	-2.621	-2.597	0.461	0.658	-0.566	3.555	2.862	-1.261	0.944	429.688
-3.423	-2.597	-0.646	-2.177	-2.308	-1.013	-0.575	2.718	4.233	0.568	3.478	0.771	-2.622	-2.202	0.359	-2.175	-0.271	0.469	0.472	-2.662	-2.731	0.294	0.532	-0.988	3.237	2.527	-1.752	0.648	433.594
-3.037	-2.401	-0.258	-2.024	-2.199	-0.837	-0.688	2.979	4.328	0.291	3.493	0.557	-2.947	-2.424	0.755	-2.179	-0.251	0.642	0.400	-2.691	-2.849	0.113	0.361	-1.379	2.896	2.193	-2.144	0.380	437.500
-2.711	-2.127	0.103	-1.844	-2.063	-0.645	-0.753	3.174	4.358	0.090	3.474	0.328	-3.158	-2.591	1.157	-2.174	-0.264	0.754	0.325	-2.689	-2.931	-0.066	0.156	-1.721	2.533	1.860	-2.427	0.137	441.406
-2.449	-1.777	0.424	-1.636	-1.896	-0.442	-0.759	3.276	4.304	-0.025	3.397	0.084	-3.235	-2.677	1.563	-2.146	-0.299	0.811	0.251	-2.640	-2.956	-0.227	-0.068	-1.995	2.153	1.532	-2.600	-0.085	445.312
-2.244	-1.367	0.695	-1.402	-1.697	-0.233	-0.696	3.266	4.161	-0.041	3.249	-0.168	-3.166	-2.664	1.959	-2.086	-0.347	0.822	0.184	-2.537	-2.911	-0.362	-0.299	-2.188	1.760	1.214	-2.666	-0.291	449.219
-2.081	-0.930	0.906	-1.149	-1.471	-0.027	-0.560	3.142	3.937	0.051	3.030	-0.410	-2.954	-2.543	2.316	-1.992	-0.396	0.794	0.126	-2.378	-2.790	-0.466	-0.523	-2.294	1.360	0.916	-2.634	-0.482	453.125
-1.936	-0.515	1.050	-0.889	-1.230	0.166	-0.354	2.919	3.651	0.253	2.758	-0.622	-2.609	-2.316	2.599	-1.868	-0.439	0.730	0.076	-2.174	-2.596	-0.541	-0.734	-2.310	0.963	0.650	-2.511	-0.654	457.031
-1.793	-0.169	1.122	-0.639	-0.990	0.329	-0.090	2.621	3.335	0.563	2.462	-0.778	-2.158	-1.997	2.773	-1.729	-0.472	0.635	0.029	-1.944	-2.344	-0.592	-0.928	-2.240	0.585	0.433	-2.308	-0.794	460.938
-1.643	0.063	1.122	-0.418	-0.770	0.449	0.214	2.286	3.020	0.963	2.175	-0.855	-1.634	-1.614	2.812	-1.590	-0.495	0.510	-0.018	-1.710	-2.053	-0.626	-1.103	-2.096	0.242	0.280	-2.034	-0.885	464.844
-1.487	0.156	1.054	-0.242	-0.589	0.511	0.531	1.950	2.734	1.426	1.930	-0.840	-1.078	-1.199	2.708	-1.468	-0.512	0.354	-0.067	-1.494	-1.748	-0.647	-1.259	-1.895	-0.048	0.205	-1.701	-0.911	468.750
-1.341	0.109	0.929	-0.123	-0.461	0.509	0.829	1.644	2.498	1.912	1.749	-0.729	-0.533	-0.787	2.476	-1.375	-0.527	0.169	-0.119	-1.313	-1.453	-0.659	-1.395	-1.660	-0.266	0.211	-1.328	-0.859	472.656
-1.231	-0.056	0.761	-0.070	-0.392	0.444	1.079	1.390	2.317	2.376	1.639	-0.534	-0.038	-0.410	2.151	-1.313	-0.546	-0.039	-0.168	-1.175	-1.188	-0.661	-1.507	-1.413	-0.401	0.296	-0.936	-0.727	476.562
-1.180	-0.295	0.568	-0.081	-0.379	0.323	1.252	1.194	2.181	2.768	1.590	-0.279	0.372	-0.094	1.783	-1.277	-0.569	-0.264	-0.205	-1.076	-0.964	-0.648	-1.591	-1.175	-0.447	0.449	-0.552	-0.524	480.469
-1.207	-0.558	0.369	-0.146	-0.415	0.158	1.326	1.047	2.070	3.044	1.579	-0.001	0.674	0.146	1.431	-1.255	-0.593	-0.493	-0.218	-1.004	-0.785	-0.614	-1.637	-0.962	-0.405	0.652	-0.201	-0.270	484.375
-1.315	-0.790	0.184	-0.249	-0.482	-0.037	1.289	0.931	1.954	3.169	1.573	0.262	0.854	0.308	1.145	-1.229	-0.609	-0.712	-0.196	-0.941	-0.647	-0.552	-1.637	-0.786	-0.286	0.885	0.094	0.008	488.281
-1.485	-0.949	0.028	-0.369	-0.562	-0.248	1.137	0.823	1.806	3.122	1.537	0.470	0.909	0.396	0.962	-1.184	-0.609	-0.902	-0.133	-0.868	-0.541	-0.454	-1.583	-0.650	-0.108	1.124	0.312	0.277	492.188
-1.679	-1.010	-0.087	-0.482	-0.639	-0.459	0.878	0.700	1.607	2.900	1.443	0.589	0.844	0.419	0.900	-1.111	-0.582	-1.051	-0.028	-0.771	-0.456	-0.315	-1.470	-0.550	0.106	1.346	0.444	0.509	496.094
-1.846	-0.967	-0.154	-0.564	-0.698	-0.657	0.531	0.549	1.347	2.516	1.273	0.600	0.669	0.390	0.954	-1.006	-0.522	-1.146	0.111	-0.644	-0.380	-0.136	-1.297	-0.483	0.334	1.534	0.484	0.675	500.000
-1.930	-0.836	-0.167	-0.595	-0.729	-0.826	0.122	0.364	1.033	2.000	1.022	0.496	0.401	0.320	1.103	-0.874	-0.425	-1.183	0.273	-0.488	-0.307	0.079	-1.072	-0.444	0.553	1.674	0.435	0.759	503.906
-1.884	-0.647	-0.129	-0.564	-0.730	-0.955	-0.317	0.154	0.684	1.398	0.704	0.289	0.056	0.219	1.314	-0.724	-0.296	-1.165	0.443	-0.311	-0.234	0.321	-0.808	-0.431	0.748	1.759	0.307	0.751	507.812
-1.678	-0.437	-0.044	-0.469	-0.701	-1.032	-0.750	-0.064	0.328	0.765	0.346	0.006	-0.344	0.096	1.551	-0.569	-0.144	-1.102	0.607	-0.126	-0.163	0.573	-0.525	-0.446	0.906	1.787	0.113	0.656	511.719
-1.308	-0.240	0.083	-0.321	-0.649	-1.051	-1.146	-0.268	-0.001	0.160	-0.017	-0.315	-0.775	-0.043	1.777	-0.421	0.011	-1.007	0.757	0.052	-0.099	0.818	-0.246	-0.492	1.020	1.761	-0.129	0.486	515.625
-0.793	-0.082	0.243	-0.144	-0.582	-1.014	-1.473	-0.437	-0.275	-0.362	-0.347	-0.633	-1.211	-0.190	1.967	-0.291	0.148	-0.899	0.884	0.210	-0.045	1.037	0.007	-0.574	1.088	1.688	-0.401	0.262	519.531
-0.175	0.031	0.428	0.034	-0.509	-0.924	-1.712	-0.554	-0.470	-0.757	-0.610	-0.907	-1.623	-0.336	2.106	-0.183	0.246	-0.794	0.986	0.338	-0.006	1.216	0.212	-0.695	1.107	1.575	-0.682	0.006	523.438
0.487	0.106	0.631	0.183	-0.439	-0.796	-1.853	-0.612	-0.575	-1.000	-0.785	-1.113	-1.984	-0.472	2.196	-0.100	0.290	-0.707	1.059	0.430	0.016	1.340	0.355	-0.853	1.079	1.430	-0.953	-0.259	527.344
1.130	0.166	0.844	0.282	-0.378	-0.647	-1.894	-0.612	-0.596	-1.081	-0.866	-1.240	-2.267	-0.585	2.251	-0.036	0.274	-0.646	1.101	0.485	0.024	1.403	0.428	-1.041	1.002	1.259	-1.197	-0.519	531.250
1.694	0.242	1.062	0.323	-0.327	-0.495	-1.844	-0.567	-0.550	-1.010	-0.864	-1.297	-2.451	-0.664	2.297	0.016	0.204	-0.613	1.111	0.508	0.023	1.407	0.427	-1.242	0.878	1.065	-1.404	-0.764	535.156
2.139	0.361	1.277	0.313	-0.285	-0.361	-1.720	-0.492	-0.466	-0.806	-0.807	-1.308	-2.517	-0.695	2.360	0.063	0.092	-0.607	1.089	0.507	0.023	1.357	0.355	-1.439	0.705	0.846	-1.563	-0.993	539.062
2.450	0.542	1.480	0.270	-0.249	-0.256	-1.541	-0.409	-0.373	-0.504	-0.731	-1.304	-2.454	-0.664	2.464	0.115	-0.041	-0.623	1.040	0.495	0.036	1.268	0.224	-1.614	0.483	0.602	-1.670	-1.211	542.969
2.642	0.783	1.662	0.220	-0.211	-0.186	-1.327	-0.339	-0.305	-0.139	-0.679	-1.321	-2.256	-0.560	2.622	0.176	-0.175	-0.657	0.975	0.488	0.074	1.158	0.046	-1.749	0.212	0.329	-1.727	-1.426	546.875
2.752	1.068	1.813	0.189	-0.161	-0.147	-1.097	-0.297	-0.283	0.248	-0.687	-1.387	-1.930	-0.377	2.835	0.249	-0.293	-0.703	0.910	0.499	0.149	1.049	-0.156	-1.831	-0.106	0.026	-1.736	-1.646	550.781
2.831	1.366	1.925	0.199	-0.089	-0.128	-0.866	-0.299	-0.326	0.615	-0.785	-1.519	-1.490	-0.115	3.094	0.337	-0.380	-0.761	0.863	0.543	0.267	0.962	-0.360	-1.853	-0.466	-0.307	-1.707	-1.878	554.688
2.929	1.640	1.993	0.266	0.010	-0.114	-0.646	-0.354	-0.440	0.928	-0.989	-1.723	-0.965	0.220	3.383	0.439	-0.429	-0.826	0.850	0.627	0.433	0.915	-0.539	-1.813	-0.856	-0.661	-1.650	-2.124	558.594
3.085	1.858	2.020	0.392	0.139	-0.096	-0.448	-0.466	-0.627	1.158	-1.299	-1.989	-0.392	0.609	3.682	0.555	-0.433	-0.898	0.887	0.753	0.642	0.919	-0.669	-1.714	-1.259	-1.024	-1.576	-2.382	562.500
3.316	1.999	2.009	0.567	0.292	-0.073	-0.280	-0.638	-0.881	1.286	-1.702	-2.295	0.185	1.029	3.971	0.685	-0.390	-0.970	0.983	0.916	0.884	0.981	-0.727	-1.561	-1.646	-1.376	-1.497	-2.643	566.406
3.617	2.061	1.969	0.773	0.453	-0.053	-0.149	-0.865	-1.195	1.305	-2.173	-2.617	0.717	1.451	4.232	0.824	-0.300	-1.034	1.141	1.104	1.143	1.101	-0.698	-1.366	-1.987	-1.694	-1.421	-2.894	570.312
3.965	2.053	1.912	0.984	0.605	-0.052	-0.062	-1.139	-1.557	1.219	-2.679	-2.928	1.163	1.842	4.453	0.968	-0.162	-1.080	1.354	1.301	1.399	1.272	-0.580	-1.141	-2.251	-1.955	-1.354	-3.120	574.219
4.326	1.997	1.851	1.172	0.726	-0.088	-0.025	-1.445	-1.950	1.039	-3.186	-3.205	1.488	2.173	4.625	1.109	0.022	-1.095	1.612	1.489	1.630	1.481	-0.377	-0.904	-2.412	-2.140	-1.301	-3.306	578.125
4.663	1.924	1.797	1.308	0.795	-0.172	-0.041	-1.764	-2.355	0.781	-3.662	-3.434	1.669	2.418	4.744	1.239	0.247	-1.068	1.900	1.652	1.816	1.714	-0.105	-0.675	-2.455	-2.236	-1.265	-3.441	582.031
4.943	1.858	1.762	1.375	0.804	-0.307	-0.111	-2.073	-2.753	0.464	-4.081	-3.610	1.696	2.562	4.815	1.350	0.506	-0.991	2.198	1.775	1.941	1.951	0.211	-0.473	-2.383	-2.241	-1.249	-3.519	585.938
5.146	1.822	1.755	1.364	0.752	-0.482	-0.230	-2.352	-3.121	0.109	-4.425	-3.737	1.573	2.598	4.848	1.436	0.786	-0.861	2.492	1.851	1.997	2.174	0.544	-0.314	-2.211	-2.165	-1.255	-3.542	589.844
5.261	1.830	1.779	1.284	0.654	-0.671	-0.391	-2.581	-3.439	-0.264	-4.686	-3.827	1.314	2.531	4.858	1.495	1.067	-0.680	2.765	1.877	1.985	2.366	0.867	-0.213	-1.967	-2.028	-1.289	-3.520	593.750
5.291	1.887	1.835	1.157	0.534	-0.841	-0.582	-2.747	-3.690	-0.634	-4.862	-3.894	0.943	2.375	4.865	1.528	1.331	-0.459	3.006	1.858	1.914	2.512	1.154	-0.176	-1.687	-1.855	-1.352	-3.470	597.656
5.245	1.995	1.920	1.016	0.422	-0.957	-0.787	-2.845	-3.864	-0.981	-4.960	-3.954	0.490	2.149	4.888	1.543	1.557	-0.210	3.204	1.805	1.799	2.604	1.390	-0.201	-1.407	-1.677	-1.445	-3.413	601.562
5.145	2.147	2.026	0.902	0.347	-0.988	-0.992	-2.877	-3.958	-1.284	-4.993	-4.023	-0.013	1.879	4.946	1.550	1.730	0.044	3.353	1.730	1.660	2.641	1.564	-0.283	-1.157	-1.523	-1.567	-3.373	605.469
5.018	2.331	2.145	0.851	0.332	-0.913	-1.182	-2.851	-3.973	-1.528	-4.976	-4.112	-0.528	1.592	5.048	1.562	1.842	0.281	3.447	1.649	1.518	2.628	1.676	-0.409	-0.963	-1.418	-1.715	-3.376	609.375
4.896	2.532	2.267	0.887	0.391	-0.728	-1.341	-2.778	-3.920	-1.696	-4.923	-4.226	-1.020	1.317	5.192	1.590	1.895	0.478	3.487	1.579	1.393	2.575	1.728	-0.560	-0.838	-1.381	-1.879	-3.439	613.281
4.813	2.730	2.382	1.019	0.522	-0.449	-1.458	-2.671	-3.807	-1.778	-4.847	-4.363	-1.449	1.077	5.365	1.638	1.900	0.612	3.476	1.532	1.300	2.496	1.731	-0.717	-0.786	-1.420	-2.050	-3.572	617.188
4.795	2.906	2.482	1.231	0.710	-0.105	-1.523	-2.540	-3.649	-1.767	-4.755	-4.514	-1.780	0.894	5.544	1.706	1.870	0.666	3.418	1.514	1.248	2.403	1.692	-0.857	-0.805	-1.534	-2.213	-3.774	621.094
4.854	3.041	2.556	1.490	0.931	0.255	-1.528	-2.395	-3.455	-1.661	-4.650	-4.665	-1.980	0.784	5.702	1.786	1.819	0.632	3.323	1.526	1.239	2.310	1.621	-0.960	-0.880	-1.707	-2.353	-4.031	625.000
4.984	3.121	2.597	1.751	1.154	0.581	-1.468	-2.245	-3.235	-1.466	-4.531	-4.797	-2.027	0.755	5.816	1.861	1.757	0.512	3.199	1.560	1.270	2.221	1.524	-1.009	-0.990	-1.918	-2.450	-4.314	628.906
5.158	3.138	2.600	1.964	1.348	0.821	-1.343	-2.094	-2.998	-1.196	-4.393	-4.891	-1.908	0.808	5.869	1.915	1.683	0.318	3.053	1.606	1.331	2.138	1.406	-0.992	-1.114	-2.137	-2.489	-4.589	632.812
5.336	3.091	2.560	2.090	1.489	0.937	-1.158	-1.947	-2.753	-0.870	-4.236	-4.932	-1.625	0.936	5.860	1.929	1.596	0.073	2.892	1.648	1.411	2.059	1.271	-0.908	-1.230	-2.337	-2.459	-4.820	636.719
5.470	2.987	2.479	2.107	1.562	0.915	-0.922	-1.810	-2.508	-0.512	-4.059	-4.911	-1.200	1.127	5.796	1.891	1.491	-0.196	2.720	1.672	1.498	1.978	1.122	-0.767	-1.320	-2.496	-2.357	-4.975	640.625
5.514	2.842	2.363	2.018	1.568	0.764	-0.653	-1.689	-2.276	-0.150	-3.874	-4.831	-0.664	1.363	5.696	1.802	1.365	-0.459	2.544	1.672	1.582	1.891	0.966	-0.584	-1.379	-2.604	-2.189	-5.035	644.531
5.443	2.681	2.218	1.846	1.519	0.521	-0.370	-1.594	-2.071	0.188	-3.698	-4.704	-0.062	1.623	5.582	1.671	1.222	-0.691	2.373	1.646	1.659	1.797	0.809	-0.383	-1.410	-2.662	-1.970	-4.996	648.438
5.257	2.528	2.057	1.635	1.438	0.243	-0.095	-1.533	-1.910	0.474	-3.558	-4.553	0.557	1.891	5.474	1.519	1.075	-0.874	2.218	1.604	1.732	1.701	0.661	-0.187	-1.428	-2.686	-1.724	-4.873	652.344
4.989	2.407	1.892	1.433	1.354	-0.011	0.150	-1.516	-1.812	0.684	-3.485	-4.407	1.145	2.153	5.386	1.374	0.940	-1.000	2.098	1.563	1.807	1.610	0.535	-0.014	-1.452	-2.701	-1.479	-4.697	656.250
4.691	2.333	1.738	1.285	1.296	-0.185	0.344	-1.551	-1.793	0.798	-3.507	-4.298	1.661	2.398	5.327	1.265	0.840	-1.068	2.029	1.542	1.895	1.540	0.442	0.123	-1.498	-2.733	-1.263	-4.503	660.156
4.432	2.311	1.609	1.222	1.282	-0.247	0.471	-1.640	-1.867	0.803	-3.643	-4.252	2.071	2.621	5.301	1.218	0.796	-1.085	2.028	1.564	2.005	1.504	0.392	0.220	-1.580	-2.803	-1.101	-4.333	664.062
4.269	2.340	1.516	1.255	1.320	-0.190	0.517	-1.782	-2.039	0.693	-3.898	-4.288	2.355	2.820	5.308	1.251	0.823	-1.058	2.108	1.643	2.146	1.518	0.395	0.280	-1.700	-2.925	-1.009	-4.217	667.969
4.240	2.419	1.469	1.380	1.403	-0.035	0.479	-1.972	-2.304	0.470	-4.257	-4.412	2.502	2.994	5.347	1.370	0.930	-0.998	2.269	1.786	2.316	1.589	0.450	0.312	-1.851	-3.098	-0.996	-4.178	671.875
4.347	2.544	1.469	1.573	1.517	0.179	0.359	-2.196	-2.642	0.146	-4.689	-4.615	2.516	3.138	5.418	1.566	1.112	-0.916	2.502	1.989	2.508	1.722	0.553	0.327	-2.015	-3.308	-1.062	-4.219	675.781
4.559	2.713	1.513	1.804	1.636	0.405	0.168	-2.435	-3.021	-0.256	-5.150	-4.876	2.411	3.249	5.520	1.821	1.351	-0.822	2.786	2.237	2.709	1.909	0.694	0.332	-2.173	-3.533	-1.200	-4.332	679.688
4.818	2.922	1.589	2.041	1.739	0.596	-0.072	-2.665	-3.400	-0.705	-5.588	-5.163	2.208	3.320	5.649	2.110	1.623	-0.725	3.092	2.504	2.900	2.137	0.855	0.333	-2.300	-3.746	-1.392	-4.493	683.594
5.054	3.158	1.679	2.255	1.806	0.719	-0.333	-2.860	-3.733	-1.158	-5.954	-5.438	1.938	3.345	5.795	2.401	1.893	-0.637	3.385	2.765	3.060	2.384	1.018	0.332	-2.381	-3.918	-1.621	-4.671	687.500
5.202	3.399	1.764	2.424	1.827	0.756	-0.583	-2.994	-3.977	-1.569	-6.205	-5.664	1.636	3.320	5.941	2.666	2.128	-0.568	3.630	2.990	3.172	2.626	1.167	0.328	-2.403	-4.030	-1.860	-4.833	691.406
5.221	3.614	1.822	2.539	1.803	0.709	-0.790	-3.049	-4.100	-1.890	-6.313	-5.808	1.337	3.250	6.066	2.877	2.299	-0.529	3.804	3.158	3.225	2.837	1.286	0.319	-2.367	-4.072	-2.084	-4.946	695.312
5.094	3.769	1.837	2.599	1.744	0.595	-0.926	-3.014	-4.084	-2.083	-6.267	-5.849	1.073	3.140	6.145	3.016	2.385	-0.531	3.889	3.253	3.216	2.997	1.366	0.305	-2.284	-4.047	-2.267	-4.991	699.219
4.839	3.832	1.797	2.610	1.665	0.445	-0.973	-2.891	-3.931	-2.120	-6.076	-5.778	0.871	3.007	6.157	3.073	2.375	-0.582	3.885	3.273	3.152	3.093	1.401	0.289	-2.174	-3.966	-2.386	-4.956	703.125
4.490	3.780	1.696	2.580	1.585	0.288	-0.921	-2.691	-3.658	-1.992	-5.763	-5.601	0.753	2.869	6.084	3.048	2.273	-0.688	3.802	3.222	3.045	3.121	1.390	0.275	-2.063	-3.850	-2.421	-4.842	707.031
4.094	3.610	1.536	2.517	1.518	0.152	-0.776	-2.436	-3.294	-1.708	-5.364	-5.332	0.731	2.749	5.921	2.947	2.093	-0.849	3.660	3.113	2.914	3.088	1.339	0.270	-1.974	-3.718	-2.360	-4.658	710.938
3.694	3.336	1.323	2.427	1.471	0.056	-0.553	-2.152	-2.877	-1.296	-4.921	-4.996	0.809	2.663	5.666	2.785	1.857	-1.063	3.483	2.963	2.777	3.007	1.254	0.284	-1.925	-3.585	-2.199	-4.423	714.844
3.319	2.993	1.066	2.309	1.443	0.005	-0.274	-1.866	-2.446	-0.796	-4.474	-4.619	0.981	2.627	5.332	2.582	1.590	-1.321	3.293	2.790	2.650	2.894	1.142	0.327	-1.920	-3.460	-1.943	-4.153	718.750
2.980	2.628	0.775	2.160	1.425	-0.009	0.032	-1.603	-2.035	-0.253	-4.058	-4.227	1.237	2.648	4.934	2.358	1.314	-1.608	3.108	2.610	2.546	2.767	1.012	0.405	-1.953	-3.346	-1.609	-3.868	722.656
2.673	2.291	0.465	1.975	1.407	0.002	0.336	-1.379	-1.671	0.286	-3.698	-3.839	1.559	2.723	4.496	2.129	1.049	-1.906	2.940	2.432	2.468	2.639	0.870	0.521	-2.006	-3.238	-1.220	-3.580	726.562
2.384	2.025	0.146	1.757	1.377	0.017	0.612	-1.208	-1.370	0.787	-3.409	-3.469	1.927	2.845	4.042	1.909	0.805	-2.196	2.791	2.262	2.418	2.519	0.723	0.674	-2.058	-3.133	-0.807	-3.300	730.469
2.097	1.854	-0.165	1.511	1.328	0.020	0.841	-1.092	-1.138	1.220	-3.193	-3.123	2.318	3.000	3.597	1.706	0.586	-2.457	2.661	2.100	2.388	2.413	0.578	0.855	-2.092	-3.027	-0.403	-3.033	734.375
1.803	1.776	-0.456	1.255	1.257	-0.005	1.011	-1.029	-0.973	1.570	-3.045	-2.802	2.708	3.173	3.182	1.524	0.393	-2.672	2.547	1.945	2.372	2.322	0.441	1.049	-2.095	-2.919	-0.037	-2.778	738.281
1.507	1.765	-0.713	1.007	1.165	-0.067	1.120	-1.014	-0.867	1.827	-2.955	-2.502	3.074	3.348	2.814	1.361	0.224	-2.831	2.444	1.794	2.362	2.250	0.319	1.240	-2.063	-2.811	0.266	-2.535	742.188
1.225	1.778	-0.925	0.788	1.056	-0.167	1.173	-1.034	-0.809	1.988	-2.909	-2.221	3.396	3.510	2.504	1.214	0.076	-2.929	2.353	1.648	2.351	2.196	0.219	1.410	-2.002	-2.708	0.495	-2.302	746.094
0.982	1.768	-1.083	0.616	0.937	-0.298	1.181	-1.079	-0.786	2.056	-2.899	-1.962	3.661	3.650	2.261	1.081	-0.050	-2.969	2.276	1.509	2.333	2.163	0.147	1.542	-1.923	-2.613	0.645	-2.080	750.000
0.802	1.701	-1.182	0.499	0.815	-0.449	1.155	-1.138	-0.791	2.038	-2.917	-1.731	3.859	3.761	2.085	0.961	-0.151	-2.964	2.217	1.382	2.307	2.155	0.105	1.626	-1.837	-2.533	0.722	-1.872	753.906
0.706	1.559	-1.226	0.439	0.696	-0.601	1.109	-1.202	-0.815	1.948	-2.959	-1.536	3.988	3.842	1.974	0.854	-0.222	-2.927	2.181	1.273	2.274	2.174	0.096	1.657	-1.758	-2.470	0.742	-1.684	757.812
0.698	1.351	-1.220	0.428	0.585	-0.736	1.054	-1.262	-0.855	1.805	-3.020	-1.389	4.051	3.893	1.921	0.762	-0.260	-2.877	2.169	1.185	2.235	2.220	0.116	1.640	-1.693	-2.425	0.723	-1.523	761.719
0.766	1.106	-1.177	0.448	0.485	-0.841	1.000	-1.316	-0.906	1.634	-3.097	-1.295	4.059	3.915	1.918	0.685	-0.264	-2.830	2.180	1.120	2.194	2.290	0.159	1.586	-1.645	-2.393	0.687	-1.393	765.625
0.886	0.869	-1.109	0.478	0.396	-0.908	0.952	-1.359	-0.965	1.462	-3.180	-1.254	4.024	3.914	1.955	0.623	-0.241	-2.800	2.205	1.076	2.153	2.376	0.216	1.511	-1.612	-2.368	0.655	-1.295	769.531
1.022	0.687	-1.033	0.495	0.318	-0.938	0.914	-1.390	-1.023	1.311	-3.254	-1.258	3.959	3.893	2.024	0.570	-0.208	-2.793	2.233	1.043	2.113	2.465	0.275	1.434	-1.589	-2.342	0.644	-1.227	773.438
1.135	0.601	-0.959	0.480	0.250	-0.939	0.889	-1.406	-1.073	1.198	-3.302	-1.289	3.879	3.856	2.119	0.517	-0.183	-2.809	2.248	1.012	2.072	2.544	0.323	1.371	-1.571	-2.305	0.666	-1.181	777.344
1.197	0.638	-0.897	0.420	0.188	-0.923	0.876	-1.406	-1.106	1.132	-3.308	-1.330	3.792	3.806	2.236	0.453	-0.188	-2.842	2.236	0.969	2.028	2.598	0.350	1.332	-1.551	-2.252	0.724	-1.149	781.250
1.189	0.804	-0.852	0.307	0.134	-0.902	0.876	-1.388	-1.114	1.110	-3.261	-1.362	3.704	3.748	2.372	0.369	-0.238	-2.886	2.188	0.906	1.978	2.618	0.347	1.323	-1.526	-2.179	0.819	-1.122	785.156
1.109	1.085	-0.824	0.147	0.083	-0.886	0.886	-1.355	-1.095	1.125	-3.159	-1.375	3.620	3.682	2.521	0.261	-0.339	-2.933	2.103	0.817	1.918	2.602	0.315	1.342	-1.493	-2.087	0.943	-1.094	789.062
0.970	1.451	-0.808	-0.051	0.035	-0.879	0.903	-1.309	-1.055	1.163	-3.014	-1.365	3.540	3.613	2.680	0.130	-0.485	-2.978	1.988	0.705	1.850	2.555	0.259	1.383	-1.453	-1.981	1.087	-1.061	792.969
0.795	1.860	-0.799	-0.269	-0.014	-0.882	0.921	-1.258	-1.002	1.211	-2.843	-1.336	3.463	3.543	2.842	-0.016	-0.660	-3.018	1.853	0.577	1.776	2.491	0.188	1.437	-1.407	-1.865	1.241	-1.019	796.875
