FP1	F3	F7	FC3	C3	C5	P3	P7	PO7	PO3	O1	Oz	Pz	CPz	FP2	Fz	F4	F8	FC4	FCz	Cz	C4	C6	P4	P8	PO8	PO4	O2	time
0.484	1.858	-0.618	0.263	0.990	1.492	0.975	-0.576	-0.481	0.946	-0.759	-0.132	1.487	1.458	-0.540	0.878	0.462	-1.049	0.810	1.043	1.105	-0.208	-0.592	-0.279	-1.487	-0.574	-0.392	-0.831	-199.219
0.348	1.436	-0.319	0.438	0.836	1.175	0.758	-0.593	-0.635	0.415	-0.618	-0.317	1.169	1.291	-0.040	0.977	0.569	-0.852	0.817	1.067	1.035	-0.174	-0.536	-0.240	-1.330	-0.589	-0.469	-0.893	-195.312
0.216	1.067	-0.053	0.591	0.691	0.886	0.561	-0.598	-0.762	-0.072	-0.489	-0.490	0.859	1.127	0.425	1.056	0.654	-0.664	0.822	1.072	0.961	-0.137	-0.471	-0.202	-1.172	-0.605	-0.550	-0.952	-191.406
0.096	0.787	0.156	0.702	0.563	0.646	0.397	-0.583	-0.844	-0.477	-0.380	-0.640	0.566	0.969	0.830	1.097	0.700	-0.495	0.827	1.045	0.879	-0.094	-0.391	-0.168	-1.018	-0.620	-0.637	-1.003	-187.500
0.001	0.612	0.298	0.760	0.461	0.471	0.273	-0.546	-0.872	-0.778	-0.301	-0.759	0.297	0.819	1.156	1.090	0.700	-0.351	0.831	0.977	0.790	-0.043	-0.295	-0.141	-0.871	-0.636	-0.729	-1.042	-183.594
-0.053	0.535	0.371	0.767	0.390	0.368	0.189	-0.493	-0.847	-0.969	-0.254	-0.843	0.063	0.683	1.388	1.031	0.656	-0.240	0.840	0.869	0.698	0.015	-0.186	-0.126	-0.738	-0.653	-0.826	-1.069	-179.688
-0.048	0.527	0.387	0.733	0.351	0.338	0.137	-0.432	-0.781	-1.060	-0.240	-0.893	-0.130	0.564	1.519	0.926	0.576	-0.166	0.854	0.729	0.607	0.076	-0.075	-0.126	-0.622	-0.671	-0.925	-1.080	-175.781
0.023	0.552	0.364	0.670	0.343	0.373	0.107	-0.374	-0.691	-1.068	-0.254	-0.910	-0.276	0.467	1.555	0.787	0.473	-0.130	0.873	0.569	0.523	0.133	0.026	-0.140	-0.528	-0.685	-1.016	-1.075	-171.875
0.155	0.571	0.322	0.595	0.360	0.457	0.089	-0.327	-0.594	-1.014	-0.288	-0.898	-0.369	0.393	1.512	0.627	0.360	-0.133	0.893	0.404	0.450	0.179	0.104	-0.166	-0.454	-0.690	-1.086	-1.051	-167.969
0.325	0.557	0.280	0.517	0.392	0.566	0.075	-0.297	-0.507	-0.917	-0.333	-0.860	-0.408	0.338	1.413	0.461	0.244	-0.170	0.907	0.249	0.389	0.206	0.148	-0.198	-0.397	-0.677	-1.118	-1.005	-164.062
0.498	0.499	0.250	0.444	0.426	0.672	0.061	-0.283	-0.439	-0.795	-0.377	-0.802	-0.397	0.298	1.290	0.304	0.132	-0.236	0.905	0.115	0.338	0.208	0.153	-0.228	-0.352	-0.637	-1.094	-0.934	-160.156
0.635	0.406	0.237	0.378	0.451	0.745	0.044	-0.279	-0.395	-0.658	-0.411	-0.729	-0.343	0.268	1.166	0.166	0.026	-0.322	0.879	0.009	0.295	0.182	0.121	-0.249	-0.311	-0.565	-1.004	-0.836	-156.250
0.702	0.301	0.241	0.321	0.455	0.763	0.026	-0.281	-0.373	-0.513	-0.429	-0.645	-0.255	0.241	1.061	0.055	-0.070	-0.417	0.820	-0.066	0.254	0.129	0.060	-0.252	-0.269	-0.460	-0.845	-0.710	-152.344
0.680	0.214	0.254	0.270	0.431	0.712	0.009	-0.282	-0.368	-0.368	-0.429	-0.556	-0.147	0.213	0.979	-0.025	-0.155	-0.508	0.729	-0.112	0.212	0.057	-0.013	-0.235	-0.223	-0.328	-0.627	-0.562	-148.438
0.572	0.166	0.264	0.225	0.376	0.592	-0.004	-0.278	-0.372	-0.229	-0.413	-0.466	-0.034	0.184	0.911	-0.074	-0.222	-0.580	0.610	-0.134	0.170	-0.025	-0.082	-0.197	-0.172	-0.181	-0.368	-0.398	-144.531
0.402	0.168	0.262	0.184	0.291	0.415	-0.012	-0.267	-0.376	-0.103	-0.388	-0.382	0.072	0.154	0.843	-0.096	-0.267	-0.620	0.473	-0.137	0.128	-0.102	-0.129	-0.141	-0.119	-0.037	-0.098	-0.230	-140.625
0.208	0.214	0.239	0.149	0.183	0.207	-0.016	-0.250	-0.376	0.004	-0.359	-0.307	0.160	0.128	0.759	-0.098	-0.284	-0.615	0.335	-0.128	0.089	-0.159	-0.139	-0.077	-0.066	0.087	0.153	-0.073	-136.719
0.033	0.281	0.191	0.120	0.065	-0.003	-0.019	-0.229	-0.367	0.084	-0.332	-0.244	0.222	0.108	0.653	-0.089	-0.271	-0.561	0.212	-0.115	0.056	-0.181	-0.102	-0.014	-0.018	0.173	0.355	0.061	-132.812
-0.087	0.340	0.121	0.097	-0.049	-0.184	-0.024	-0.207	-0.349	0.138	-0.313	-0.196	0.255	0.096	0.525	-0.078	-0.232	-0.458	0.122	-0.101	0.031	-0.159	-0.019	0.036	0.023	0.213	0.487	0.160	-128.906
-0.130	0.361	0.033	0.084	-0.146	-0.310	-0.031	-0.189	-0.326	0.169	-0.306	-0.160	0.260	0.095	0.385	-0.071	-0.176	-0.314	0.075	-0.090	0.016	-0.091	0.101	0.064	0.055	0.205	0.537	0.218	-125.000
-0.093	0.324	-0.063	0.079	-0.214	-0.361	-0.040	-0.176	-0.297	0.190	-0.311	-0.134	0.242	0.104	0.249	-0.074	-0.116	-0.141	0.073	-0.083	0.011	0.017	0.244	0.065	0.076	0.154	0.507	0.235	-121.094
0.010	0.225	-0.158	0.084	-0.246	-0.334	-0.046	-0.170	-0.264	0.215	-0.324	-0.112	0.210	0.121	0.131	-0.087	-0.067	0.044	0.111	-0.080	0.012	0.151	0.386	0.038	0.087	0.074	0.413	0.215	-117.188
0.154	0.076	-0.243	0.094	-0.243	-0.240	-0.045	-0.166	-0.227	0.260	-0.339	-0.091	0.173	0.142	0.040	-0.109	-0.041	0.220	0.176	-0.081	0.018	0.291	0.506	-0.012	0.087	-0.017	0.275	0.168	-113.281
0.309	-0.097	-0.309	0.103	-0.213	-0.101	-0.031	-0.161	-0.183	0.335	-0.346	-0.066	0.139	0.162	-0.023	-0.136	-0.043	0.367	0.249	-0.083	0.024	0.415	0.584	-0.079	0.077	-0.103	0.124	0.104	-109.375
0.446	-0.261	-0.352	0.104	-0.169	0.049	-0.002	-0.147	-0.132	0.437	-0.340	-0.037	0.115	0.175	-0.060	-0.162	-0.072	0.468	0.311	-0.087	0.026	0.505	0.608	-0.152	0.059	-0.169	-0.013	0.036	-105.469
0.542	-0.385	-0.369	0.093	-0.125	0.176	0.040	-0.117	-0.073	0.555	-0.317	-0.006	0.106	0.177	-0.079	-0.183	-0.118	0.512	0.346	-0.087	0.024	0.547	0.575	-0.222	0.037	-0.204	-0.112	-0.025	-101.562
0.583	-0.449	-0.362	0.070	-0.092	0.252	0.092	-0.070	-0.009	0.668	-0.276	0.023	0.110	0.163	-0.085	-0.192	-0.166	0.494	0.346	-0.082	0.019	0.536	0.491	-0.280	0.017	-0.207	-0.158	-0.072	-97.656
0.562	-0.447	-0.337	0.044	-0.076	0.259	0.144	-0.005	0.056	0.750	-0.223	0.046	0.124	0.135	-0.084	-0.186	-0.203	0.420	0.309	-0.066	0.014	0.475	0.371	-0.318	0.004	-0.178	-0.146	-0.098	-93.750
0.485	-0.390	-0.301	0.025	-0.073	0.195	0.186	0.070	0.116	0.779	-0.167	0.061	0.144	0.094	-0.078	-0.162	-0.216	0.304	0.240	-0.037	0.014	0.377	0.236	-0.328	0.004	-0.125	-0.083	-0.101	-89.844
0.360	-0.298	-0.263	0.022	-0.078	0.072	0.209	0.145	0.164	0.741	-0.117	0.068	0.163	0.046	-0.070	-0.121	-0.202	0.167	0.148	0.009	0.025	0.257	0.104	-0.309	0.020	-0.058	0.015	-0.082	-85.938
0.205	-0.198	-0.230	0.042	-0.080	-0.085	0.206	0.211	0.195	0.639	-0.077	0.069	0.179	-0.003	-0.062	-0.068	-0.162	0.035	0.043	0.068	0.048	0.130	-0.006	-0.261	0.052	0.013	0.129	-0.041	-82.031
0.039	-0.113	-0.207	0.082	-0.071	-0.247	0.176	0.258	0.209	0.488	-0.052	0.070	0.186	-0.046	-0.059	-0.008	-0.107	-0.071	-0.066	0.134	0.082	0.011	-0.084	-0.191	0.095	0.078	0.237	0.017	-78.125
-0.116	-0.058	-0.194	0.132	-0.048	-0.384	0.123	0.282	0.208	0.316	-0.038	0.075	0.184	-0.081	-0.071	0.047	-0.052	-0.133	-0.175	0.199	0.120	-0.092	-0.129	-0.107	0.141	0.133	0.322	0.086	-74.219
-0.239	-0.037	-0.187	0.178	-0.013	-0.471	0.053	0.282	0.200	0.151	-0.031	0.091	0.171	-0.109	-0.106	0.086	-0.014	-0.143	-0.282	0.248	0.152	-0.174	-0.146	-0.021	0.184	0.176	0.374	0.162	-70.312
-0.315	-0.042	-0.181	0.202	0.026	-0.499	-0.022	0.264	0.192	0.019	-0.025	0.118	0.147	-0.133	-0.168	0.102	-0.004	-0.104	-0.385	0.269	0.163	-0.235	-0.143	0.057	0.218	0.212	0.390	0.241	-66.406
-0.339	-0.062	-0.167	0.193	0.055	-0.469	-0.093	0.236	0.192	-0.065	-0.014	0.157	0.111	-0.160	-0.257	0.087	-0.031	-0.025	-0.484	0.252	0.143	-0.277	-0.130	0.117	0.242	0.247	0.375	0.316	-62.500
-0.318	-0.080	-0.141	0.142	0.064	-0.400	-0.153	0.209	0.207	-0.101	0.006	0.204	0.061	-0.196	-0.366	0.041	-0.092	0.079	-0.578	0.193	0.083	-0.303	-0.116	0.157	0.261	0.289	0.338	0.386	-58.594
-0.269	-0.088	-0.102	0.052	0.042	-0.317	-0.197	0.191	0.240	-0.098	0.036	0.256	-0.002	-0.249	-0.484	-0.033	-0.178	0.194	-0.663	0.094	-0.016	-0.312	-0.105	0.177	0.283	0.343	0.294	0.450	-54.688
-0.218	-0.087	-0.055	-0.065	-0.013	-0.246	-0.226	0.189	0.291	-0.070	0.080	0.311	-0.080	-0.321	-0.600	-0.124	-0.272	0.306	-0.736	-0.035	-0.149	-0.304	-0.099	0.185	0.315	0.410	0.256	0.509	-50.781
-0.192	-0.087	-0.007	-0.197	-0.099	-0.211	-0.243	0.205	0.359	-0.033	0.139	0.368	-0.170	-0.412	-0.709	-0.223	-0.356	0.403	-0.794	-0.180	-0.303	-0.275	-0.096	0.189	0.364	0.488	0.236	0.565	-46.875
-0.210	-0.107	0.032	-0.329	-0.209	-0.226	-0.253	0.241	0.441	0.005	0.218	0.431	-0.266	-0.515	-0.810	-0.320	-0.413	0.480	-0.838	-0.327	-0.463	-0.227	-0.093	0.198	0.430	0.571	0.245	0.624	-42.969
-0.283	-0.164	0.053	-0.455	-0.332	-0.292	-0.260	0.295	0.536	0.042	0.323	0.505	-0.362	-0.625	-0.907	-0.410	-0.433	0.535	-0.868	-0.463	-0.613	-0.164	-0.090	0.221	0.510	0.648	0.287	0.689	-39.062
-0.403	-0.268	0.054	-0.573	-0.457	-0.400	-0.267	0.367	0.642	0.080	0.455	0.593	-0.450	-0.731	-1.008	-0.491	-0.411	0.566	-0.891	-0.580	-0.742	-0.093	-0.085	0.261	0.592	0.710	0.360	0.762	-35.156
-0.549	-0.416	0.038	-0.690	-0.571	-0.530	-0.276	0.450	0.755	0.120	0.613	0.699	-0.522	-0.826	-1.118	-0.566	-0.353	0.577	-0.915	-0.675	-0.844	-0.027	-0.078	0.315	0.664	0.746	0.456	0.841	-31.250
-0.692	-0.590	0.012	-0.814	-0.662	-0.658	-0.285	0.541	0.871	0.160	0.787	0.817	-0.573	-0.903	-1.239	-0.640	-0.271	0.571	-0.950	-0.752	-0.918	0.020	-0.071	0.378	0.713	0.751	0.560	0.920	-27.344
-0.800	-0.757	-0.012	-0.949	-0.718	-0.759	-0.288	0.632	0.982	0.192	0.963	0.941	-0.600	-0.960	-1.365	-0.722	-0.183	0.553	-1.005	-0.815	-0.971	0.033	-0.062	0.439	0.734	0.722	0.656	0.992	-23.438
-0.848	-0.880	-0.025	-1.097	-0.733	-0.810	-0.283	0.714	1.080	0.205	1.122	1.055	-0.605	-0.998	-1.484	-0.816	-0.105	0.527	-1.086	-0.870	-1.008	0.003	-0.054	0.490	0.727	0.660	0.728	1.047	-19.531
-0.825	-0.928	-0.019	-1.249	-0.703	-0.800	-0.265	0.780	1.155	0.190	1.244	1.145	-0.589	-1.021	-1.584	-0.923	-0.053	0.499	-1.193	-0.923	-1.041	-0.076	-0.047	0.523	0.701	0.577	0.766	1.078	-15.625
-0.738	-0.884	0.006	-1.389	-0.632	-0.727	-0.233	0.824	1.203	0.143	1.313	1.199	-0.558	-1.036	-1.654	-1.038	-0.038	0.476	-1.322	-0.975	-1.076	-0.201	-0.042	0.539	0.672	0.486	0.765	1.081	-11.719
-0.609	-0.754	0.047	-1.501	-0.528	-0.601	-0.189	0.842	1.218	0.069	1.320	1.208	-0.516	-1.050	-1.691	-1.154	-0.061	0.458	-1.463	-1.024	-1.118	-0.361	-0.044	0.540	0.660	0.406	0.732	1.058	-7.812
-0.467	-0.565	0.094	-1.566	-0.405	-0.443	-0.136	0.836	1.206	-0.017	1.266	1.174	-0.466	-1.069	-1.695	-1.258	-0.121	0.446	-1.602	-1.067	-1.168	-0.544	-0.055	0.534	0.682	0.353	0.679	1.016	-3.906
-0.344	-0.361	0.139	-1.576	-0.281	-0.275	-0.079	0.811	1.174	-0.094	1.163	1.107	-0.412	-1.097	-1.673	-1.342	-0.210	0.434	-1.728	-1.101	-1.225	-0.732	-0.078	0.529	0.748	0.342	0.622	0.963	0.000
-0.261	-0.193	0.174	-1.529	-0.171	-0.122	-0.022	0.778	1.133	-0.137	1.031	1.022	-0.357	-1.132	-1.636	-1.397	-0.320	0.411	-1.829	-1.124	-1.286	-0.907	-0.115	0.529	0.859	0.379	0.576	0.912	3.906
-0.227	-0.107	0.196	-1.435	-0.091	-0.002	0.031	0.747	1.095	-0.129	0.898	0.939	-0.304	-1.169	-1.589	-1.421	-0.441	0.367	-1.896	-1.135	-1.349	-1.057	-0.165	0.539	1.004	0.459	0.550	0.868	7.812
-0.238	-0.127	0.205	-1.312	-0.048	0.076	0.081	0.730	1.072	-0.061	0.787	0.876	-0.257	-1.203	-1.540	-1.417	-0.566	0.294	-1.927	-1.136	-1.409	-1.170	-0.224	0.558	1.160	0.570	0.549	0.837	11.719
-0.281	-0.251	0.205	-1.184	-0.045	0.108	0.129	0.732	1.067	0.068	0.718	0.844	-0.219	-1.228	-1.488	-1.389	-0.685	0.188	-1.920	-1.130	-1.465	-1.239	-0.289	0.582	1.303	0.694	0.568	0.817	15.625
-0.336	-0.450	0.205	-1.072	-0.078	0.096	0.175	0.753	1.079	0.246	0.701	0.848	-0.192	-1.239	-1.431	-1.346	-0.790	0.053	-1.878	-1.120	-1.513	-1.260	-0.353	0.605	1.405	0.806	0.597	0.802	19.531
-0.388	-0.674	0.210	-0.990	-0.135	0.050	0.222	0.788	1.100	0.454	0.733	0.883	-0.177	-1.235	-1.367	-1.293	-0.874	-0.100	-1.805	-1.108	-1.550	-1.234	-0.409	0.623	1.447	0.886	0.624	0.784	23.438
-0.423	-0.867	0.225	-0.945	-0.203	-0.017	0.267	0.826	1.118	0.669	0.800	0.939	-0.174	-1.219	-1.292	-1.234	-0.929	-0.253	-1.710	-1.092	-1.575	-1.163	-0.450	0.628	1.422	0.917	0.636	0.755	27.344
-0.436	-0.983	0.253	-0.932	-0.269	-0.092	0.306	0.852	1.118	0.868	0.882	0.999	-0.182	-1.198	-1.208	-1.171	-0.948	-0.387	-1.598	-1.072	-1.585	-1.052	-0.468	0.620	1.334	0.895	0.628	0.712	31.250
-0.427	-0.994	0.290	-0.940	-0.324	-0.164	0.329	0.855	1.087	1.032	0.953	1.051	-0.203	-1.181	-1.118	-1.102	-0.929	-0.483	-1.479	-1.047	-1.582	-0.912	-0.457	0.598	1.202	0.831	0.599	0.655	35.156
-0.404	-0.904	0.330	-0.957	-0.364	-0.227	0.327	0.826	1.018	1.148	0.993	1.085	-0.237	-1.177	-1.035	-1.031	-0.873	-0.525	-1.359	-1.019	-1.568	-0.752	-0.414	0.569	1.054	0.750	0.560	0.595	39.062
-0.378	-0.739	0.360	-0.976	-0.395	-0.282	0.293	0.765	0.913	1.209	0.989	1.098	-0.286	-1.196	-0.974	-0.962	-0.789	-0.512	-1.243	-0.991	-1.550	-0.587	-0.341	0.545	0.929	0.694	0.533	0.548	42.969
-0.362	-0.548	0.368	-0.996	-0.425	-0.341	0.221	0.680	0.788	1.214	0.944	1.095	-0.354	-1.248	-0.954	-0.905	-0.690	-0.450	-1.136	-0.976	-1.540	-0.432	-0.241	0.540	0.867	0.710	0.545	0.536	46.875
-0.376	-0.387	0.340	-1.030	-0.470	-0.417	0.115	0.588	0.668	1.173	0.877	1.092	-0.442	-1.339	-0.995	-0.879	-0.599	-0.360	-1.045	-0.990	-1.554	-0.305	-0.125	0.571	0.904	0.848	0.625	0.580	50.781
-0.438	-0.311	0.266	-1.098	-0.544	-0.520	-0.015	0.510	0.592	1.105	0.826	1.105	-0.550	-1.479	-1.113	-0.904	-0.537	-0.270	-0.979	-1.057	-1.611	-0.224	-0.005	0.651	1.071	1.149	0.797	0.701	54.688
-0.566	-0.355	0.143	-1.221	-0.661	-0.658	-0.152	0.471	0.597	1.040	0.835	1.154	-0.675	-1.671	-1.319	-1.004	-0.529	-0.212	-0.950	-1.198	-1.732	-0.205	0.107	0.787	1.386	1.639	1.076	0.908	58.594
-0.777	-0.535	-0.030	-1.421	-0.829	-0.829	-0.273	0.490	0.719	1.020	0.951	1.249	-0.811	-1.918	-1.617	-1.196	-0.590	-0.216	-0.972	-1.433	-1.935	-0.262	0.196	0.978	1.850	2.318	1.462	1.202	62.500
-1.077	-0.840	-0.244	-1.707	-1.049	-1.022	-0.354	0.581	0.980	1.088	1.210	1.392	-0.950	-2.214	-1.995	-1.489	-0.728	-0.303	-1.057	-1.768	-2.228	-0.400	0.254	1.216	2.442	3.164	1.939	1.565	66.406
-1.463	-1.238	-0.487	-2.072	-1.311	-1.220	-0.372	0.747	1.381	1.286	1.627	1.573	-1.077	-2.545	-2.432	-1.873	-0.941	-0.481	-1.213	-2.194	-2.602	-0.615	0.273	1.485	3.126	4.125	2.474	1.967	70.312
-1.917	-1.686	-0.745	-2.495	-1.595	-1.406	-0.309	0.977	1.900	1.638	2.194	1.772	-1.175	-2.885	-2.892	-2.323	-1.215	-0.744	-1.441	-2.686	-3.037	-0.891	0.248	1.768	3.849	5.131	3.025	2.370	74.219
-2.408	-2.135	-1.002	-2.940	-1.876	-1.561	-0.155	1.252	2.495	2.149	2.873	1.965	-1.227	-3.202	-3.336	-2.801	-1.527	-1.068	-1.733	-3.202	-3.494	-1.204	0.181	2.044	4.548	6.097	3.542	2.730	78.125
-2.892	-2.537	-1.242	-3.363	-2.125	-1.672	0.087	1.544	3.108	2.796	3.609	2.131	-1.215	-3.459	-3.724	-3.262	-1.851	-1.423	-2.071	-3.693	-3.926	-1.523	0.074	2.295	5.161	6.935	3.976	3.010	82.031
-3.324	-2.859	-1.451	-3.721	-2.313	-1.733	0.405	1.821	3.674	3.531	4.331	2.260	-1.123	-3.622	-4.026	-3.659	-2.158	-1.772	-2.432	-4.110	-4.284	-1.819	-0.066	2.503	5.630	7.567	4.287	3.187	85.938
-3.659	-3.078	-1.621	-3.976	-2.418	-1.746	0.774	2.054	4.129	4.288	4.968	2.356	-0.945	-3.664	-4.226	-3.957	-2.423	-2.080	-2.784	-4.413	-4.528	-2.062	-0.226	2.658	5.915	7.933	4.449	3.254	89.844
-3.861	-3.183	-1.743	-4.105	-2.430	-1.719	1.160	2.213	4.421	4.986	5.457	2.433	-0.683	-3.571	-4.326	-4.131	-2.622	-2.318	-3.094	-4.575	-4.630	-2.230	-0.390	2.752	5.988	7.999	4.455	3.224	93.750
-3.907	-3.176	-1.811	-4.102	-2.349	-1.661	1.521	2.274	4.512	5.547	5.750	2.510	-0.351	-3.347	-4.337	-4.173	-2.740	-2.465	-3.329	-4.587	-4.577	-2.306	-0.538	2.782	5.843	7.762	4.316	3.125	97.656
-3.792	-3.065	-1.820	-3.977	-2.186	-1.584	1.813	2.220	4.385	5.896	5.818	2.602	0.031	-3.007	-4.274	-4.087	-2.768	-2.510	-3.459	-4.453	-4.376	-2.279	-0.645	2.750	5.491	7.244	4.056	2.990	101.562
-3.528	-2.861	-1.764	-3.751	-1.962	-1.495	1.994	2.043	4.040	5.978	5.651	2.714	0.431	-2.578	-4.148	-3.884	-2.701	-2.448	-3.460	-4.189	-4.043	-2.147	-0.690	2.665	4.954	6.488	3.709	2.851	105.469
-3.142	-2.578	-1.639	-3.453	-1.702	-1.397	2.033	1.743	3.495	5.764	5.258	2.839	0.818	-2.093	-3.962	-3.581	-2.542	-2.284	-3.320	-3.816	-3.606	-1.911	-0.658	2.535	4.269	5.558	3.308	2.732	109.375
-2.681	-2.232	-1.445	-3.115	-1.431	-1.291	1.912	1.329	2.783	5.255	4.664	2.961	1.160	-1.586	-3.712	-3.198	-2.302	-2.028	-3.043	-3.362	-3.097	-1.583	-0.541	2.372	3.479	4.523	2.884	2.647	113.281
-2.197	-1.844	-1.188	-2.766	-1.175	-1.179	1.633	0.826	1.952	4.486	3.914	3.065	1.429	-1.094	-3.399	-2.757	-1.998	-1.698	-2.648	-2.853	-2.552	-1.183	-0.345	2.191	2.634	3.461	2.462	2.604	117.188
-1.751	-1.436	-0.886	-2.429	-0.953	-1.063	1.214	0.268	1.063	3.526	3.069	3.145	1.606	-0.650	-3.034	-2.284	-1.658	-1.323	-2.173	-2.323	-2.011	-0.743	-0.089	2.002	1.790	2.452	2.060	2.609	121.094
-1.400	-1.037	-0.563	-2.126	-0.781	-0.951	0.693	-0.299	0.189	2.471	2.209	3.209	1.678	-0.284	-2.654	-1.814	-1.317	-0.938	-1.669	-1.807	-1.514	-0.306	0.194	1.814	1.004	1.574	1.696	2.671	125.000
-1.194	-0.679	-0.253	-1.876	-0.670	-0.855	0.122	-0.820	-0.592	1.430	1.426	3.288	1.641	-0.029	-2.318	-1.387	-1.017	-0.586	-1.197	-1.350	-1.107	0.074	0.464	1.630	0.336	0.900	1.387	2.806	128.906
-1.170	-0.397	0.006	-1.694	-0.630	-0.787	-0.442	-1.236	-1.197	0.519	0.818	3.427	1.496	0.087	-2.102	-1.051	-0.805	-0.311	-0.823	-0.997	-0.835	0.340	0.676	1.450	-0.156	0.497	1.149	3.035	132.812
-1.351	-0.224	0.178	-1.595	-0.665	-0.761	-0.942	-1.489	-1.553	-0.161	0.476	3.675	1.248	0.037	-2.090	-0.855	-0.720	-0.153	-0.603	-0.796	-0.738	0.437	0.789	1.268	-0.424	0.416	1.002	3.383	136.719
-1.742	-0.191	0.235	-1.591	-0.774	-0.786	-1.327	-1.533	-1.598	-0.533	0.473	4.077	0.903	-0.198	-2.350	-0.844	-0.796	-0.144	-0.584	-0.790	-0.851	0.321	0.768	1.077	-0.426	0.691	0.963	3.869	140.625
-2.337	-0.319	0.159	-1.691	-0.954	-0.861	-1.559	-1.338	-1.295	-0.553	0.850	4.659	0.469	-0.627	-2.922	-1.052	-1.054	-0.295	-0.791	-1.008	-1.193	-0.035	0.591	0.870	-0.142	1.333	1.042	4.501	144.531
-3.117	-0.614	-0.053	-1.893	-1.193	-0.979	-1.616	-0.895	-0.632	-0.214	1.613	5.421	-0.043	-1.245	-3.803	-1.495	-1.495	-0.603	-1.227	-1.462	-1.762	-0.633	0.254	0.644	0.429	2.326	1.244	5.273	148.438
-4.054	-1.070	-0.388	-2.189	-1.475	-1.121	-1.490	-0.222	0.367	0.455	2.727	6.337	-0.619	-2.031	-4.945	-2.164	-2.104	-1.048	-1.872	-2.142	-2.540	-1.447	-0.231	0.402	1.262	3.627	1.562	6.158	152.344
-5.111	-1.661	-0.825	-2.561	-1.782	-1.266	-1.192	0.644	1.650	1.398	4.126	7.356	-1.239	-2.949	-6.264	-3.027	-2.851	-1.596	-2.685	-3.013	-3.485	-2.428	-0.836	0.154	2.310	5.168	1.980	7.114	156.250
-6.245	-2.352	-1.331	-2.984	-2.090	-1.396	-0.746	1.644	3.138	2.539	5.716	8.411	-1.879	-3.948	-7.653	-4.031	-3.687	-2.208	-3.609	-4.021	-4.539	-3.507	-1.517	-0.082	3.508	6.863	2.474	8.085	160.156
-7.403	-3.094	-1.872	-3.426	-2.380	-1.499	-0.187	2.707	4.732	3.796	7.388	9.429	-2.511	-4.974	-9.005	-5.104	-4.561	-2.845	-4.578	-5.095	-5.635	-4.605	-2.225	-0.283	4.778	8.617	3.020	9.014	164.062
-8.529	-3.834	-2.413	-3.856	-2.638	-1.573	0.445	3.758	6.326	5.088	9.035	10.343	-3.102	-5.969	-10.227	-6.170	-5.414	-3.468	-5.524	-6.160	-6.703	-5.642	-2.905	-0.420	6.041	10.335	3.591	9.847	167.969
-9.567	-4.515	-2.924	-4.247	-2.852	-1.628	1.102	4.723	7.818	6.347	10.557	11.099	-3.620	-6.877	-11.254	-7.153	-6.195	-4.048	-6.386	-7.143	-7.678	-6.547	-3.510	-0.473	7.223	11.935	4.164	10.539	171.875
-10.464	-5.088	-3.385	-4.575	-3.020	-1.680	1.739	5.539	9.118	7.514	11.872	11.660	-4.037	-7.655	-12.053	-7.988	-6.859	-4.559	-7.114	-7.980	-8.505	-7.267	-4.000	-0.423	8.262	13.349	4.720	11.061	175.781
-11.180	-5.514	-3.779	-4.824	-3.142	-1.746	2.317	6.160	10.161	8.548	12.922	12.008	-4.333	-8.267	-12.621	-8.628	-7.377	-4.984	-7.672	-8.626	-9.146	-7.770	-4.348	-0.269	9.113	14.530	5.246	11.402	179.688
-11.690	-5.774	-4.101	-4.987	-3.219	-1.837	2.805	6.559	10.906	9.424	13.676	12.146	-4.495	-8.694	-12.975	-9.051	-7.731	-5.314	-8.043	-9.055	-9.580	-8.049	-4.544	-0.017	9.749	15.451	5.730	11.562	183.594
-11.991	-5.862	-4.350	-5.067	-3.253	-1.958	3.187	6.730	11.342	10.127	14.127	12.088	-4.521	-8.928	-13.143	-9.252	-7.918	-5.542	-8.227	-9.263	-9.804	-8.119	-4.593	0.314	10.166	16.103	6.162	11.557	187.500
-12.097	-5.794	-4.532	-5.072	-3.245	-2.099	3.460	6.687	11.481	10.652	14.290	11.861	-4.419	-8.974	-13.152	-9.251	-7.946	-5.670	-8.237	-9.266	-9.831	-8.011	-4.509	0.698	10.373	16.490	6.533	11.406	191.406
-12.033	-5.597	-4.651	-5.015	-3.194	-2.246	3.631	6.461	11.357	11.005	14.192	11.497	-4.207	-8.850	-13.026	-9.080	-7.835	-5.706	-8.094	-9.091	-9.685	-7.766	-4.319	1.110	10.393	16.627	6.834	11.133	195.312
-11.827	-5.307	-4.713	-4.908	-3.100	-2.375	3.717	6.092	11.016	11.189	13.870	11.026	-3.907	-8.579	-12.777	-8.777	-7.609	-5.659	-7.829	-8.777	-9.399	-7.426	-4.051	1.524	10.254	16.532	7.057	10.760	199.219
-11.507	-4.965	-4.715	-4.761	-2.965	-2.464	3.739	5.626	10.505	11.212	13.361	10.474	-3.546	-8.194	-12.406	-8.386	-7.292	-5.542	-7.473	-8.367	-9.009	-7.028	-3.733	1.921	9.988	16.230	7.192	10.303	203.125
-11.089	-4.607	-4.655	-4.577	-2.796	-2.496	3.713	5.107	9.875	11.078	12.704	9.862	-3.153	-7.729	-11.911	-7.942	-6.910	-5.368	-7.056	-7.902	-8.554	-6.601	-3.388	2.284	9.621	15.744	7.232	9.775	207.031
-10.585	-4.263	-4.524	-4.353	-2.600	-2.463	3.654	4.574	9.169	10.789	11.933	9.200	-2.756	-7.222	-11.287	-7.474	-6.483	-5.142	-6.606	-7.418	-8.068	-6.164	-3.033	2.604	9.177	15.100	7.169	9.187	210.938
-10.002	-3.949	-4.316	-4.086	-2.390	-2.363	3.568	4.057	8.423	10.350	11.080	8.498	-2.381	-6.707	-10.538	-7.002	-6.028	-4.870	-6.145	-6.944	-7.583	-5.727	-2.681	2.871	8.674	14.327	7.003	8.549	214.844
-9.345	-3.670	-4.029	-3.772	-2.179	-2.207	3.457	3.580	7.668	9.769	10.177	7.759	-2.051	-6.210	-9.678	-6.539	-5.558	-4.551	-5.690	-6.501	-7.124	-5.295	-2.338	3.079	8.131	13.455	6.735	7.872	218.750
-8.623	-3.420	-3.668	-3.419	-1.980	-2.013	3.320	3.158	6.932	9.062	9.257	6.992	-1.782	-5.755	-8.739	-6.093	-5.086	-4.189	-5.255	-6.102	-6.709	-4.869	-2.011	3.223	7.562	12.519	6.376	7.172	222.656
-7.851	-3.186	-3.249	-3.046	-1.804	-1.802	3.154	2.801	6.239	8.254	8.352	6.208	-1.586	-5.356	-7.763	-5.669	-4.624	-3.788	-4.849	-5.753	-6.349	-4.452	-1.704	3.298	6.988	11.558	5.942	6.469	226.562
-7.049	-2.951	-2.794	-2.681	-1.659	-1.594	2.958	2.516	5.612	7.384	7.492	5.426	-1.468	-5.019	-6.803	-5.273	-4.185	-3.361	-4.482	-5.455	-6.050	-4.050	-1.421	3.304	6.430	10.614	5.458	5.784	230.469
-6.246	-2.702	-2.330	-2.361	-1.554	-1.409	2.733	2.308	5.071	6.495	6.708	4.673	-1.430	-4.749	-5.912	-4.913	-3.781	-2.927	-4.159	-5.208	-5.812	-3.670	-1.168	3.243	5.915	9.729	4.948	5.144	234.375
-5.481	-2.437	-1.887	-2.122	-1.491	-1.260	2.484	2.176	4.636	5.639	6.029	3.981	-1.471	-4.547	-5.140	-4.599	-3.426	-2.510	-3.888	-5.014	-5.636	-3.326	-0.948	3.123	5.468	8.943	4.441	4.573	238.281
-4.794	-2.163	-1.491	-1.990	-1.472	-1.152	2.220	2.122	4.320	4.869	5.482	3.382	-1.588	-4.415	-4.523	-4.340	-3.130	-2.136	-3.674	-4.878	-5.522	-3.031	-0.762	2.957	5.117	8.289	3.961	4.095	242.188
-4.230	-1.902	-1.163	-1.975	-1.495	-1.087	1.953	2.140	4.135	4.232	5.092	2.910	-1.775	-4.358	-4.087	-4.151	-2.900	-1.829	-3.524	-4.807	-5.472	-2.802	-0.610	2.759	4.885	7.796	3.529	3.730	246.094
-3.829	-1.685	-0.918	-2.071	-1.557	-1.059	1.698	2.227	4.084	3.769	4.878	2.590	-2.024	-4.378	-3.838	-4.043	-2.740	-1.606	-3.444	-4.811	-5.491	-2.650	-0.490	2.549	4.791	7.479	3.160	3.491	250.000
-3.620	-1.548	-0.766	-2.255	-1.652	-1.059	1.475	2.378	4.167	3.511	4.852	2.437	-2.319	-4.482	-3.773	-4.025	-2.650	-1.480	-3.439	-4.898	-5.584	-2.583	-0.400	2.343	4.846	7.345	2.865	3.384	253.906
-3.614	-1.522	-0.709	-2.496	-1.773	-1.080	1.301	2.583	4.374	3.466	5.013	2.452	-2.643	-4.667	-3.871	-4.105	-2.627	-1.453	-3.511	-5.074	-5.754	-2.600	-0.335	2.158	5.054	7.387	2.649	3.405	257.812
-3.805	-1.625	-0.747	-2.757	-1.913	-1.116	1.193	2.834	4.687	3.626	5.347	2.623	-2.971	-4.928	-4.104	-4.280	-2.668	-1.519	-3.657	-5.337	-6.001	-2.695	-0.291	2.009	5.404	7.589	2.515	3.542	261.719
-4.162	-1.862	-0.871	-3.011	-2.065	-1.164	1.160	3.118	5.083	3.959	5.824	2.923	-3.276	-5.248	-4.436	-4.543	-2.766	-1.667	-3.867	-5.678	-6.313	-2.851	-0.264	1.908	5.879	7.924	2.465	3.771	265.625
-4.642	-2.217	-1.071	-3.241	-2.226	-1.227	1.204	3.422	5.531	4.417	6.406	3.316	-3.530	-5.602	-4.830	-4.875	-2.913	-1.877	-4.122	-6.078	-6.675	-3.043	-0.248	1.862	6.448	8.358	2.499	4.064	269.531
-5.189	-2.658	-1.334	-3.444	-2.392	-1.306	1.318	3.729	6.002	4.941	7.044	3.760	-3.709	-5.960	-5.251	-5.254	-3.103	-2.129	-4.399	-6.512	-7.060	-3.246	-0.241	1.878	7.069	8.857	2.615	4.392	273.438
-5.751	-3.139	-1.646	-3.626	-2.560	-1.407	1.488	4.024	6.467	5.473	7.692	4.218	-3.794	-6.289	-5.673	-5.654	-3.328	-2.407	-4.671	-6.950	-7.440	-3.436	-0.243	1.956	7.699	9.382	2.810	4.727	277.344
-6.284	-3.604	-1.992	-3.799	-2.729	-1.529	1.691	4.293	6.901	5.969	8.305	4.654	-3.777	-6.559	-6.075	-6.048	-3.577	-2.696	-4.914	-7.364	-7.785	-3.592	-0.253	2.095	8.291	9.899	3.077	5.047	281.250
-6.758	-4.004	-2.361	-3.971	-2.893	-1.668	1.907	4.524	7.287	6.401	8.845	5.046	-3.656	-6.747	-6.451	-6.411	-3.840	-2.993	-5.106	-7.725	-8.068	-3.706	-0.275	2.288	8.804	10.378	3.409	5.338	285.156
-7.161	-4.298	-2.740	-4.144	-3.045	-1.817	2.114	4.706	7.612	6.758	9.285	5.377	-3.439	-6.838	-6.799	-6.724	-4.103	-3.297	-5.232	-8.011	-8.268	-3.774	-0.310	2.525	9.208	10.797	3.793	5.595	289.062
-7.496	-4.469	-3.122	-4.309	-3.178	-1.966	2.298	4.831	7.871	7.047	9.607	5.644	-3.138	-6.827	-7.122	-6.971	-4.348	-3.611	-5.285	-8.208	-8.371	-3.801	-0.356	2.796	9.484	11.140	4.216	5.817	292.969
-7.778	-4.524	-3.496	-4.451	-3.285	-2.105	2.449	4.891	8.059	7.281	9.804	5.845	-2.773	-6.720	-7.421	-7.144	-4.556	-3.938	-5.262	-8.306	-8.371	-3.794	-0.408	3.090	9.633	11.401	4.664	6.011	296.875
-8.031	-4.496	-3.855	-4.553	-3.360	-2.224	2.560	4.883	8.175	7.470	9.876	5.987	-2.364	-6.531	-7.689	-7.238	-4.707	-4.272	-5.166	-8.303	-8.273	-3.758	-0.457	3.393	9.668	11.578	5.116	6.181	300.781
-8.272	-4.431	-4.189	-4.601	-3.401	-2.320	2.631	4.809	8.218	7.617	9.832	6.071	-1.934	-6.276	-7.915	-7.252	-4.786	-4.600	-4.998	-8.202	-8.084	-3.695	-0.491	3.693	9.616	11.674	5.553	6.330	304.688
-8.509	-4.380	-4.493	-4.589	-3.413	-2.391	2.658	4.675	8.192	7.716	9.686	6.099	-1.511	-5.975	-8.079	-7.189	-4.778	-4.903	-4.765	-8.012	-7.817	-3.599	-0.498	3.975	9.508	11.697	5.950	6.454	308.594
-8.736	-4.385	-4.756	-4.524	-3.404	-2.442	2.638	4.495	8.098	7.749	9.456	6.068	-1.118	-5.647	-8.156	-7.056	-4.681	-5.154	-4.471	-7.741	-7.487	-3.462	-0.464	4.225	9.375	11.652	6.280	6.545	312.500
-8.931	-4.463	-4.973	-4.420	-3.383	-2.482	2.568	4.283	7.943	7.697	9.162	5.971	-0.781	-5.310	-8.125	-6.859	-4.498	-5.326	-4.123	-7.401	-7.109	-3.275	-0.382	4.426	9.242	11.544	6.515	6.585	316.406
-9.063	-4.604	-5.136	-4.292	-3.358	-2.520	2.445	4.058	7.735	7.542	8.820	5.798	-0.522	-4.978	-7.970	-6.603	-4.238	-5.397	-3.732	-7.001	-6.694	-3.031	-0.248	4.562	9.123	11.377	6.630	6.553	320.312
-9.098	-4.770	-5.237	-4.156	-3.330	-2.563	2.272	3.837	7.484	7.280	8.446	5.543	-0.360	-4.663	-7.684	-6.294	-3.918	-5.355	-3.312	-6.550	-6.253	-2.733	-0.067	4.618	9.018	11.148	6.602	6.427	324.219
-9.009	-4.904	-5.272	-4.016	-3.298	-2.616	2.055	3.632	7.205	6.918	8.052	5.200	-0.306	-4.373	-7.278	-5.934	-3.555	-5.201	-2.880	-6.056	-5.795	-2.391	0.150	4.584	8.915	10.854	6.417	6.193	328.125
-8.788	-4.942	-5.239	-3.873	-3.251	-2.677	1.808	3.452	6.912	6.479	7.651	4.775	-0.362	-4.113	-6.775	-5.527	-3.168	-4.948	-2.455	-5.528	-5.327	-2.027	0.386	4.457	8.795	10.494	6.072	5.843	332.031
-8.442	-4.839	-5.142	-3.720	-3.180	-2.735	1.552	3.303	6.624	5.999	7.255	4.288	-0.518	-3.886	-6.213	-5.082	-2.775	-4.626	-2.054	-4.977	-4.858	-1.668	0.618	4.240	8.639	10.069	5.577	5.384	335.938
-7.998	-4.574	-4.992	-3.550	-3.074	-2.775	1.311	3.183	6.356	5.516	6.882	3.766	-0.753	-3.692	-5.638	-4.609	-2.392	-4.268	-1.690	-4.420	-4.399	-1.343	0.826	3.947	8.435	9.591	4.956	4.837	339.844
-7.500	-4.164	-4.805	-3.357	-2.931	-2.778	1.109	3.092	6.123	5.070	6.549	3.251	-1.037	-3.529	-5.100	-4.128	-2.032	-3.912	-1.375	-3.876	-3.961	-1.078	0.989	3.604	8.178	9.073	4.249	4.239	343.750
-6.999	-3.656	-4.604	-3.145	-2.753	-2.729	0.964	3.023	5.933	4.696	6.271	2.784	-1.332	-3.394	-4.643	-3.661	-1.704	-3.589	-1.109	-3.370	-3.561	-0.889	1.096	3.237	7.879	8.541	3.504	3.632	347.656
-6.547	-3.117	-4.411	-2.923	-2.553	-2.623	0.890	2.972	5.790	4.420	6.065	2.410	-1.601	-3.281	-4.301	-3.234	-1.416	-3.320	-0.893	-2.926	-3.213	-0.780	1.146	2.877	7.556	8.021	2.777	3.065	351.562
-6.192	-2.621	-4.246	-2.709	-2.350	-2.466	0.889	2.930	5.692	4.257	5.937	2.160	-1.809	-3.185	-4.090	-2.874	-1.171	-3.113	-0.720	-2.566	-2.933	-0.743	1.144	2.551	7.233	7.541	2.122	2.582	355.469
-5.968	-2.225	-4.125	-2.523	-2.169	-2.280	0.954	2.889	5.631	4.209	5.887	2.052	-1.927	-3.101	-4.007	-2.600	-0.970	-2.964	-0.584	-2.309	-2.732	-0.757	1.103	2.281	6.931	7.125	1.586	2.218	359.375
-5.889	-1.969	-4.052	-2.382	-2.031	-2.091	1.071	2.845	5.596	4.268	5.902	2.081	-1.940	-3.023	-4.032	-2.425	-0.815	-2.857	-0.478	-2.163	-2.613	-0.800	1.040	2.077	6.670	6.789	1.203	1.990	363.281
-5.943	-1.868	-4.021	-2.298	-1.953	-1.926	1.222	2.791	5.575	4.413	5.959	2.225	-1.843	-2.945	-4.127	-2.350	-0.703	-2.774	-0.397	-2.126	-2.574	-0.845	0.968	1.945	6.460	6.539	0.989	1.900	367.188
-6.098	-1.910	-4.015	-2.277	-1.941	-1.807	1.385	2.725	5.551	4.610	6.028	2.441	-1.645	-2.862	-4.246	-2.365	-0.631	-2.696	-0.340	-2.187	-2.605	-0.875	0.900	1.881	6.301	6.371	0.943	1.929	371.094
-6.304	-2.069	-4.012	-2.315	-1.991	-1.742	1.541	2.646	5.511	4.818	6.074	2.676	-1.370	-2.772	-4.342	-2.452	-0.597	-2.605	-0.306	-2.326	-2.691	-0.880	0.843	1.877	6.187	6.271	1.047	2.044	375.000
-6.506	-2.298	-3.984	-2.403	-2.091	-1.729	1.674	2.555	5.444	4.992	6.066	2.879	-1.047	-2.674	-4.373	-2.587	-0.595	-2.490	-0.294	-2.517	-2.814	-0.860	0.799	1.921	6.109	6.217	1.268	2.205	378.906
-6.651	-2.549	-3.907	-2.528	-2.222	-1.752	1.769	2.457	5.341	5.089	5.980	3.007	-0.717	-2.575	-4.310	-2.746	-0.623	-2.347	-0.303	-2.736	-2.956	-0.824	0.766	1.998	6.055	6.188	1.565	2.370	382.812
-6.701	-2.771	-3.763	-2.677	-2.366	-1.792	1.814	2.355	5.201	5.075	5.804	3.037	-0.420	-2.486	-4.145	-2.902	-0.674	-2.176	-0.329	-2.956	-3.102	-0.788	0.740	2.088	6.017	6.160	1.894	2.507	386.719
-6.636	-2.923	-3.542	-2.831	-2.505	-1.825	1.802	2.255	5.026	4.928	5.543	2.963	-0.194	-2.418	-3.882	-3.038	-0.744	-1.982	-0.365	-3.160	-3.241	-0.766	0.715	2.172	5.987	6.115	2.204	2.592	390.625
-6.453	-2.978	-3.244	-2.973	-2.623	-1.832	1.725	2.161	4.825	4.644	5.209	2.799	-0.071	-2.385	-3.544	-3.135	-0.822	-1.771	-0.403	-3.330	-3.363	-0.767	0.690	2.231	5.962	6.035	2.451	2.610	394.531
-6.163	-2.926	-2.880	-3.085	-2.713	-1.801	1.577	2.075	4.606	4.234	4.829	2.568	-0.069	-2.396	-3.157	-3.184	-0.897	-1.547	-0.433	-3.457	-3.464	-0.791	0.664	2.246	5.941	5.907	2.593	2.558	398.438
-5.787	-2.775	-2.464	-3.151	-2.770	-1.727	1.359	2.001	4.382	3.725	4.428	2.299	-0.195	-2.456	-2.749	-3.180	-0.952	-1.312	-0.445	-3.535	-3.541	-0.831	0.643	2.203	5.919	5.722	2.599	2.435	402.344
-5.351	-2.543	-2.016	-3.164	-2.794	-1.614	1.075	1.941	4.167	3.153	4.036	2.019	-0.444	-2.561	-2.345	-3.124	-0.975	-1.068	-0.435	-3.566	-3.596	-0.877	0.632	2.093	5.891	5.475	2.448	2.249	406.250
-4.882	-2.256	-1.553	-3.123	-2.791	-1.474	0.737	1.901	3.974	2.564	3.680	1.749	-0.796	-2.706	-1.960	-3.025	-0.953	-0.812	-0.402	-3.558	-3.634	-0.917	0.637	1.915	5.848	5.164	2.139	2.009	410.156
-4.406	-1.945	-1.094	-3.036	-2.766	-1.326	0.366	1.889	3.819	1.998	3.381	1.502	-1.226	-2.883	-1.605	-2.899	-0.884	-0.546	-0.350	-3.525	-3.663	-0.940	0.661	1.673	5.780	4.798	1.688	1.730	414.062
-3.943	-1.638	-0.652	-2.920	-2.730	-1.188	-0.013	1.913	3.717	1.491	3.159	1.282	-1.699	-3.083	-1.280	-2.766	-0.772	-0.274	-0.286	-3.487	-3.693	-0.944	0.702	1.380	5.675	4.392	1.131	1.428	417.969
-3.506	-1.359	-0.239	-2.793	-2.685	-1.073	-0.367	1.982	3.677	1.069	3.020	1.088	-2.180	-3.296	-0.981	-2.649	-0.631	-0.002	-0.220	-3.463	-3.734	-0.933	0.753	1.052	5.522	3.966	0.513	1.123	421.875
-3.104	-1.126	0.138	-2.670	-2.633	-0.986	-0.665	2.100	3.704	0.743	2.965	0.911	-2.629	-3.509	-0.698	-2.566	-0.481	0.257	-0.163	-3.469	-3.791	-0.916	0.804	0.706	5.311	3.543	-0.111	0.831	425.781
-2.735	-0.946	0.476	-2.558	-2.572	-0.924	-0.877	2.261	3.793	0.515	2.982	0.740	-3.014	-3.709	-0.419	-2.529	-0.344	0.488	-0.123	-3.515	-3.863	-0.905	0.841	0.363	5.036	3.143	-0.686	0.564	429.688
-2.398	-0.818	0.775	-2.456	-2.493	-0.870	-0.979	2.452	3.927	0.383	3.049	0.565	-3.300	-3.878	-0.128	-2.540	-0.240	0.675	-0.106	-3.598	-3.942	-0.913	0.849	0.039	4.696	2.780	-1.168	0.327	433.594
-2.084	-0.732	1.040	-2.352	-2.388	-0.806	-0.956	2.653	4.081	0.342	3.135	0.374	-3.465	-3.997	0.188	-2.588	-0.180	0.801	-0.117	-3.706	-4.015	-0.952	0.814	-0.254	4.291	2.459	-1.527	0.116	437.500
-1.789	-0.671	1.277	-2.231	-2.251	-0.713	-0.806	2.839	4.227	0.390	3.212	0.163	-3.491	-4.047	0.540	-2.655	-0.168	0.855	-0.157	-3.817	-4.061	-1.025	0.725	-0.506	3.829	2.176	-1.748	-0.078	441.406
-1.509	-0.614	1.495	-2.079	-2.077	-0.583	-0.537	2.985	4.337	0.526	3.252	-0.070	-3.373	-4.012	0.929	-2.715	-0.196	0.832	-0.223	-3.906	-4.065	-1.134	0.576	-0.713	3.319	1.920	-1.837	-0.270	445.312
-1.246	-0.539	1.696	-1.890	-1.870	-0.414	-0.170	3.074	4.393	0.750	3.241	-0.314	-3.114	-3.884	1.346	-2.747	-0.252	0.730	-0.312	-3.950	-4.011	-1.270	0.365	-0.875	2.774	1.678	-1.810	-0.470	449.219
-1.005	-0.434	1.884	-1.666	-1.636	-0.215	0.270	3.094	4.385	1.054	3.178	-0.553	-2.728	-3.663	1.767	-2.735	-0.321	0.557	-0.420	-3.935	-3.894	-1.426	0.097	-0.989	2.213	1.443	-1.691	-0.681	453.125
-0.799	-0.292	2.050	-1.423	-1.390	-0.004	0.751	3.045	4.317	1.426	3.074	-0.761	-2.239	-3.363	2.156	-2.678	-0.393	0.324	-0.544	-3.860	-3.719	-1.588	-0.220	-1.056	1.658	1.217	-1.504	-0.894	457.031
-0.638	-0.125	2.186	-1.183	-1.148	0.201	1.242	2.936	4.208	1.848	2.953	-0.907	-1.676	-3.005	2.469	-2.590	-0.468	0.044	-0.683	-3.736	-3.503	-1.748	-0.575	-1.073	1.136	1.011	-1.270	-1.084	460.938
-0.532	0.046	2.274	-0.971	-0.929	0.383	1.715	2.785	4.080	2.293	2.845	-0.962	-1.073	-2.617	2.660	-2.495	-0.555	-0.270	-0.838	-3.588	-3.269	-1.898	-0.951	-1.038	0.676	0.846	-1.002	-1.220	464.844
-0.485	0.188	2.301	-0.816	-0.750	0.526	2.145	2.615	3.962	2.733	2.780	-0.903	-0.463	-2.230	2.690	-2.424	-0.668	-0.606	-1.010	-3.444	-3.044	-2.032	-1.334	-0.946	0.304	0.747	-0.704	-1.265	468.750
-0.497	0.266	2.255	-0.736	-0.622	0.622	2.510	2.450	3.875	3.137	2.780	-0.721	0.119	-1.873	2.543	-2.404	-0.824	-0.951	-1.197	-3.334	-2.853	-2.148	-1.703	-0.797	0.043	0.735	-0.380	-1.192	472.656
-0.562	0.247	2.138	-0.745	-0.551	0.667	2.791	2.308	3.831	3.471	2.852	-0.422	0.641	-1.571	2.228	-2.453	-1.028	-1.296	-1.395	-3.276	-2.712	-2.244	-2.038	-0.594	-0.094	0.825	-0.028	-0.986	476.562
-0.669	0.109	1.960	-0.841	-0.538	0.665	2.973	2.199	3.827	3.706	2.983	-0.036	1.074	-1.339	1.786	-2.572	-1.275	-1.625	-1.591	-3.278	-2.629	-2.315	-2.318	-0.345	-0.102	1.015	0.342	-0.653	480.469
-0.803	-0.148	1.746	-1.008	-0.574	0.620	3.044	2.123	3.847	3.819	3.143	0.393	1.393	-1.185	1.284	-2.743	-1.540	-1.923	-1.770	-3.331	-2.598	-2.354	-2.522	-0.067	0.010	1.289	0.715	-0.223	484.375
-0.945	-0.505	1.525	-1.219	-0.648	0.543	2.996	2.071	3.863	3.793	3.287	0.809	1.580	-1.108	0.801	-2.937	-1.786	-2.170	-1.911	-3.413	-2.605	-2.353	-2.631	0.216	0.223	1.617	1.064	0.257	488.281
-1.072	-0.921	1.331	-1.439	-0.746	0.442	2.828	2.030	3.842	3.626	3.369	1.155	1.625	-1.102	0.413	-3.118	-1.970	-2.345	-1.994	-3.495	-2.628	-2.303	-2.633	0.477	0.508	1.958	1.356	0.729	492.188
-1.157	-1.337	1.193	-1.631	-0.853	0.325	2.548	1.982	3.759	3.328	3.348	1.384	1.525	-1.156	0.174	-3.247	-2.055	-2.431	-2.006	-3.547	-2.648	-2.201	-2.528	0.690	0.833	2.266	1.555	1.133	496.094
-1.173	-1.687	1.132	-1.764	-0.957	0.199	2.172	1.915	3.597	2.923	3.203	1.465	1.283	-1.258	0.109	-3.298	-2.017	-2.420	-1.939	-3.545	-2.648	-2.046	-2.324	0.828	1.163	2.504	1.631	1.421	500.000
-1.097	-1.911	1.156	-1.815	-1.048	0.068	1.726	1.822	3.355	2.445	2.937	1.394	0.914	-1.396	0.210	-3.256	-1.855	-2.313	-1.797	-3.476	-2.619	-1.847	-2.042	0.875	1.468	2.643	1.566	1.562	503.906
-0.916	-1.960	1.262	-1.775	-1.117	-0.063	1.243	1.703	3.047	1.933	2.578	1.186	0.435	-1.561	0.438	-3.123	-1.591	-2.124	-1.596	-3.336	-2.560	-1.617	-1.712	0.824	1.722	2.670	1.356	1.547	507.812
-0.625	-1.815	1.437	-1.650	-1.161	-0.185	0.759	1.566	2.697	1.427	2.171	0.878	-0.128	-1.749	0.742	-2.914	-1.266	-1.876	-1.360	-3.138	-2.478	-1.376	-1.368	0.679	1.906	2.589	1.018	1.388	511.719
-0.235	-1.481	1.664	-1.460	-1.177	-0.288	0.308	1.421	2.338	0.964	1.767	0.513	-0.744	-1.953	1.065	-2.657	-0.930	-1.599	-1.119	-2.897	-2.386	-1.145	-1.044	0.454	2.008	2.417	0.581	1.113	515.625
0.234	-0.997	1.923	-1.231	-1.165	-0.356	-0.080	1.283	1.997	0.574	1.416	0.134	-1.378	-2.170	1.365	-2.379	-0.630	-1.328	-0.901	-2.634	-2.296	-0.942	-0.767	0.175	2.023	2.177	0.085	0.756	519.531
0.755	-0.420	2.197	-0.995	-1.127	-0.375	-0.383	1.162	1.699	0.276	1.150	-0.227	-1.991	-2.388	1.616	-2.106	-0.398	-1.091	-0.731	-2.367	-2.217	-0.783	-0.557	-0.129	1.953	1.895	-0.425	0.352	523.438
1.298	0.178	2.472	-0.776	-1.067	-0.334	-0.591	1.068	1.459	0.078	0.979	-0.550	-2.543	-2.596	1.818	-1.855	-0.250	-0.912	-0.626	-2.109	-2.149	-0.676	-0.420	-0.425	1.802	1.592	-0.910	-0.072	527.344
1.836	0.730	2.740	-0.593	-0.987	-0.225	-0.698	1.004	1.280	-0.019	0.892	-0.832	-2.992	-2.771	1.988	-1.630	-0.182	-0.806	-0.588	-1.865	-2.087	-0.622	-0.354	-0.685	1.579	1.278	-1.335	-0.501	531.250
2.351	1.183	2.992	-0.448	-0.888	-0.052	-0.707	0.970	1.158	-0.026	0.858	-1.082	-3.306	-2.892	2.152	-1.427	-0.178	-0.776	-0.611	-1.632	-2.017	-0.617	-0.346	-0.884	1.293	0.959	-1.680	-0.928	535.156
2.832	1.507	3.222	-0.330	-0.766	0.173	-0.627	0.958	1.082	0.044	0.838	-1.314	-3.458	-2.933	2.341	-1.236	-0.214	-0.820	-0.677	-1.405	-1.923	-0.650	-0.384	-1.011	0.954	0.630	-1.934	-1.354	539.062
3.279	1.699	3.424	-0.221	-0.620	0.425	-0.472	0.962	1.038	0.171	0.793	-1.545	-3.435	-2.877	2.574	-1.042	-0.264	-0.924	-0.763	-1.174	-1.788	-0.709	-0.453	-1.061	0.571	0.285	-2.100	-1.786	542.969
3.701	1.784	3.595	-0.098	-0.446	0.674	-0.260	0.968	1.006	0.336	0.690	-1.788	-3.239	-2.710	2.859	-0.832	-0.306	-1.070	-0.843	-0.933	-1.600	-0.781	-0.538	-1.045	0.154	-0.084	-2.192	-2.227	546.875
4.111	1.801	3.732	0.055	-0.247	0.884	-0.012	0.964	0.968	0.517	0.508	-2.050	-2.885	-2.433	3.190	-0.597	-0.326	-1.235	-0.893	-0.676	-1.353	-0.851	-0.630	-0.978	-0.284	-0.478	-2.226	-2.674	550.781
4.523	1.801	3.835	0.248	-0.027	1.029	0.246	0.937	0.901	0.695	0.243	-2.332	-2.402	-2.053	3.544	-0.335	-0.315	-1.397	-0.898	-0.400	-1.047	-0.910	-0.722	-0.883	-0.732	-0.895	-2.223	-3.117	554.688
4.945	1.829	3.906	0.475	0.205	1.088	0.491	0.872	0.788	0.849	-0.102	-2.628	-1.829	-1.592	3.893	-0.048	-0.272	-1.535	-0.846	-0.108	-0.690	-0.946	-0.807	-0.780	-1.172	-1.321	-2.204	-3.542	558.594
5.381	1.916	3.946	0.724	0.439	1.059	0.699	0.760	0.613	0.959	-0.509	-2.925	-1.209	-1.077	4.206	0.257	-0.199	-1.636	-0.739	0.199	-0.297	-0.953	-0.879	-0.688	-1.589	-1.741	-2.183	-3.929	562.500
5.824	2.077	3.962	0.974	0.661	0.951	0.850	0.591	0.365	1.007	-0.956	-3.210	-0.591	-0.542	4.456	0.571	-0.103	-1.689	-0.581	0.512	0.116	-0.923	-0.931	-0.618	-1.967	-2.133	-2.170	-4.257	566.406
6.263	2.306	3.958	1.205	0.862	0.789	0.929	0.366	0.043	0.978	-1.421	-3.471	-0.020	-0.023	4.628	0.881	0.011	-1.694	-0.385	0.823	0.528	-0.850	-0.956	-0.574	-2.288	-2.477	-2.169	-4.511	570.312
6.678	2.582	3.940	1.401	1.034	0.609	0.924	0.088	-0.345	0.859	-1.881	-3.697	0.463	0.446	4.722	1.177	0.138	-1.655	-0.160	1.121	0.917	-0.732	-0.946	-0.553	-2.541	-2.752	-2.180	-4.685	574.219
7.050	2.877	3.916	1.551	1.169	0.446	0.832	-0.233	-0.784	0.646	-2.316	-3.886	0.822	0.836	4.750	1.448	0.273	-1.583	0.080	1.396	1.264	-0.565	-0.895	-0.547	-2.717	-2.946	-2.197	-4.779	578.125
7.361	3.164	3.892	1.655	1.266	0.336	0.653	-0.579	-1.253	0.341	-2.716	-4.039	1.034	1.122	4.736	1.689	0.416	-1.490	0.329	1.637	1.553	-0.354	-0.798	-0.544	-2.812	-3.053	-2.214	-4.808	582.031
7.601	3.421	3.873	1.720	1.323	0.301	0.395	-0.932	-1.727	-0.046	-3.077	-4.166	1.085	1.292	4.710	1.897	0.567	-1.386	0.582	1.839	1.775	-0.105	-0.655	-0.534	-2.829	-3.074	-2.230	-4.792	585.938
7.766	3.638	3.866	1.758	1.342	0.349	0.071	-1.269	-2.180	-0.496	-3.400	-4.283	0.973	1.341	4.700	2.077	0.730	-1.279	0.837	2.001	1.926	0.173	-0.467	-0.510	-2.775	-3.025	-2.244	-4.760	589.844
7.868	3.814	3.876	1.784	1.326	0.472	-0.303	-1.571	-2.592	-0.991	-3.694	-4.409	0.710	1.277	4.727	2.238	0.908	-1.167	1.094	2.131	2.010	0.468	-0.239	-0.471	-2.664	-2.925	-2.265	-4.740	593.750
7.929	3.956	3.907	1.810	1.280	0.646	-0.702	-1.819	-2.945	-1.514	-3.967	-4.563	0.319	1.117	4.801	2.391	1.107	-1.047	1.352	2.239	2.038	0.764	0.020	-0.420	-2.513	-2.804	-2.304	-4.759	597.656
7.979	4.069	3.960	1.849	1.214	0.840	-1.102	-2.003	-3.226	-2.050	-4.225	-4.758	-0.170	0.885	4.920	2.548	1.328	-0.912	1.611	2.339	2.025	1.048	0.303	-0.366	-2.341	-2.691	-2.375	-4.838	601.562
8.052	4.157	4.036	1.907	1.140	1.024	-1.476	-2.116	-3.432	-2.584	-4.472	-5.003	-0.716	0.612	5.073	2.716	1.568	-0.757	1.868	2.444	1.989	1.304	0.597	-0.322	-2.166	-2.613	-2.491	-4.988	605.469
8.175	4.222	4.128	1.991	1.071	1.170	-1.795	-2.159	-3.563	-3.101	-4.705	-5.295	-1.278	0.328	5.246	2.900	1.820	-0.584	2.117	2.560	1.945	1.520	0.889	-0.301	-2.003	-2.589	-2.660	-5.207	609.375
8.361	4.265	4.233	2.099	1.023	1.266	-2.038	-2.138	-3.625	-3.580	-4.912	-5.624	-1.812	0.061	5.424	3.094	2.070	-0.401	2.347	2.689	1.906	1.685	1.166	-0.312	-1.863	-2.627	-2.882	-5.487	613.281
8.609	4.293	4.343	2.228	1.008	1.310	-2.187	-2.064	-3.627	-3.992	-5.080	-5.975	-2.280	-0.167	5.599	3.287	2.302	-0.221	2.547	2.822	1.878	1.790	1.411	-0.364	-1.758	-2.725	-3.149	-5.808	617.188
8.898	4.315	4.451	2.370	1.037	1.312	-2.231	-1.951	-3.578	-4.304	-5.194	-6.324	-2.652	-0.342	5.766	3.462	2.498	-0.063	2.700	2.945	1.861	1.828	1.611	-0.456	-1.695	-2.873	-3.442	-6.150	621.094
9.200	4.347	4.554	2.515	1.118	1.294	-2.169	-1.813	-3.487	-4.481	-5.242	-6.649	-2.905	-0.459	5.925	3.603	2.640	0.053	2.791	3.040	1.850	1.796	1.750	-0.584	-1.686	-3.054	-3.741	-6.490	625.000
9.481	4.403	4.647	2.652	1.252	1.282	-2.006	-1.663	-3.359	-4.493	-5.218	-6.926	-3.022	-0.515	6.079	3.693	2.716	0.108	2.809	3.091	1.839	1.695	1.817	-0.738	-1.739	-3.254	-4.018	-6.809	628.906
9.709	4.492	4.727	2.769	1.437	1.302	-1.756	-1.511	-3.200	-4.322	-5.126	-7.139	-2.996	-0.513	6.225	3.723	2.721	0.090	2.749	3.087	1.824	1.528	1.803	-0.904	-1.866	-3.463	-4.250	-7.093	632.812
9.864	4.614	4.792	2.862	1.665	1.376	-1.436	-1.363	-3.013	-3.966	-4.978	-7.275	-2.825	-0.456	6.357	3.692	2.655	-0.005	2.613	3.027	1.804	1.305	1.706	-1.065	-2.071	-3.674	-4.416	-7.329	636.719
9.933	4.760	4.835	2.927	1.922	1.515	-1.069	-1.223	-2.801	-3.440	-4.791	-7.326	-2.515	-0.347	6.465	3.609	2.527	-0.175	2.415	2.918	1.786	1.042	1.531	-1.204	-2.350	-3.884	-4.502	-7.512	640.625
9.917	4.909	4.847	2.967	2.190	1.714	-0.679	-1.097	-2.571	-2.780	-4.588	-7.293	-2.078	-0.186	6.533	3.488	2.351	-0.407	2.175	2.779	1.780	0.758	1.290	-1.304	-2.687	-4.090	-4.500	-7.635	644.531
9.824	5.034	4.819	2.990	2.445	1.953	-0.294	-0.989	-2.336	-2.034	-4.393	-7.181	-1.537	0.024	6.546	3.348	2.142	-0.684	1.918	2.632	1.796	0.475	1.003	-1.350	-3.054	-4.286	-4.410	-7.694	648.438
9.672	5.106	4.742	3.002	2.664	2.202	0.062	-0.904	-2.111	-1.266	-4.226	-7.002	-0.920	0.278	6.493	3.207	1.919	-0.982	1.669	2.498	1.844	0.216	0.695	-1.330	-3.411	-4.460	-4.239	-7.684	652.344
9.483	5.098	4.614	3.010	2.825	2.422	0.362	-0.849	-1.914	-0.541	-4.104	-6.770	-0.267	0.568	6.370	3.079	1.698	-1.275	1.451	2.395	1.931	0.002	0.395	-1.239	-3.716	-4.595	-4.001	-7.603	656.250
9.277	4.988	4.438	3.015	2.908	2.577	0.588	-0.830	-1.767	0.075	-4.034	-6.505	0.382	0.880	6.186	2.973	1.496	-1.535	1.281	2.332	2.053	-0.151	0.131	-1.080	-3.929	-4.674	-3.714	-7.452	660.156
9.074	4.772	4.224	3.010	2.902	2.634	0.724	-0.849	-1.687	0.528	-4.021	-6.232	0.985	1.198	5.965	2.893	1.327	-1.739	1.168	2.313	2.205	-0.233	-0.070	-0.863	-4.018	-4.682	-3.398	-7.239	664.062
8.883	4.462	3.990	2.988	2.809	2.578	0.762	-0.909	-1.686	0.779	-4.064	-5.977	1.503	1.501	5.743	2.841	1.202	-1.869	1.113	2.331	2.375	-0.238	-0.189	-0.605	-3.971	-4.610	-3.078	-6.978	667.969
8.709	4.093	3.758	2.939	2.638	2.406	0.702	-1.007	-1.772	0.813	-4.159	-5.769	1.905	1.771	5.561	2.817	1.131	-1.915	1.113	2.381	2.547	-0.166	-0.213	-0.329	-3.794	-4.464	-2.781	-6.694	671.875
8.552	3.716	3.547	2.854	2.414	2.134	0.552	-1.141	-1.943	0.634	-4.297	-5.636	2.167	1.992	5.454	2.821	1.119	-1.874	1.160	2.452	2.711	-0.026	-0.138	-0.061	-3.514	-4.262	-2.531	-6.416	675.781
8.414	3.389	3.378	2.737	2.166	1.795	0.326	-1.302	-2.188	0.271	-4.470	-5.598	2.275	2.150	5.446	2.853	1.173	-1.755	1.247	2.538	2.854	0.172	0.029	0.172	-3.175	-4.034	-2.352	-6.177	679.688
8.301	3.162	3.263	2.597	1.928	1.436	0.046	-1.483	-2.487	-0.230	-4.664	-5.667	2.230	2.241	5.540	2.913	1.292	-1.574	1.364	2.633	2.973	0.411	0.270	0.351	-2.828	-3.817	-2.259	-6.009	683.594
8.220	3.065	3.206	2.452	1.733	1.107	-0.259	-1.672	-2.814	-0.810	-4.865	-5.841	2.045	2.266	5.716	2.999	1.475	-1.351	1.505	2.732	3.064	0.671	0.560	0.462	-2.526	-3.646	-2.260	-5.933	687.500
8.179	3.105	3.203	2.323	1.604	0.857	-0.561	-1.857	-3.136	-1.407	-5.056	-6.103	1.746	2.237	5.942	3.103	1.711	-1.112	1.661	2.833	3.128	0.926	0.866	0.503	-2.309	-3.547	-2.349	-5.957	691.406
8.177	3.261	3.242	2.228	1.554	0.720	-0.827	-2.026	-3.421	-1.959	-5.222	-6.420	1.374	2.167	6.173	3.216	1.981	-0.879	1.821	2.928	3.167	1.155	1.157	0.480	-2.198	-3.531	-2.507	-6.071	695.312
8.205	3.490	3.303	2.176	1.579	0.708	-1.031	-2.164	-3.638	-2.414	-5.345	-6.744	0.976	2.074	6.367	3.321	2.260	-0.674	1.971	3.010	3.182	1.335	1.402	0.410	-2.194	-3.589	-2.706	-6.252	699.219
8.241	3.735	3.364	2.166	1.665	0.813	-1.152	-2.260	-3.760	-2.733	-5.409	-7.026	0.601	1.978	6.487	3.400	2.516	-0.514	2.090	3.068	3.172	1.449	1.579	0.317	-2.277	-3.696	-2.909	-6.459	703.125
8.258	3.938	3.404	2.183	1.787	1.004	-1.179	-2.305	-3.771	-2.891	-5.402	-7.218	0.295	1.894	6.511	3.435	2.717	-0.413	2.160	3.091	3.137	1.490	1.674	0.227	-2.413	-3.819	-3.078	-6.650	707.031
8.230	4.046	3.406	2.209	1.916	1.238	-1.110	-2.294	-3.669	-2.881	-5.317	-7.282	0.094	1.832	6.427	3.413	2.837	-0.383	2.162	3.071	3.078	1.456	1.682	0.163	-2.562	-3.922	-3.179	-6.782	710.938
8.133	4.031	3.360	2.222	2.026	1.470	-0.955	-2.229	-3.461	-2.708	-5.157	-7.201	0.019	1.801	6.241	3.327	2.858	-0.429	2.088	3.004	2.998	1.354	1.612	0.146	-2.690	-3.975	-3.187	-6.823	714.844
7.957	3.885	3.263	2.202	2.097	1.654	-0.728	-2.118	-3.170	-2.396	-4.932	-6.976	0.075	1.803	5.966	3.183	2.777	-0.552	1.939	2.891	2.905	1.197	1.476	0.186	-2.769	-3.961	-3.089	-6.756	718.750
7.707	3.630	3.119	2.138	2.118	1.756	-0.452	-1.976	-2.827	-1.974	-4.660	-6.626	0.252	1.840	5.623	2.993	2.602	-0.746	1.731	2.742	2.808	1.001	1.295	0.288	-2.790	-3.876	-2.888	-6.580	722.656
7.396	3.308	2.938	2.025	2.084	1.754	-0.153	-1.820	-2.469	-1.481	-4.363	-6.185	0.529	1.909	5.236	2.776	2.352	-0.995	1.486	2.571	2.717	0.788	1.092	0.446	-2.753	-3.729	-2.596	-6.308	726.562
7.047	2.971	2.731	1.866	2.001	1.642	0.143	-1.668	-2.132	-0.956	-4.065	-5.692	0.875	2.005	4.830	2.554	2.055	-1.279	1.234	2.397	2.644	0.577	0.888	0.647	-2.672	-3.536	-2.237	-5.963	730.469
6.685	2.667	2.512	1.672	1.878	1.431	0.408	-1.537	-1.848	-0.435	-3.783	-5.185	1.259	2.122	4.429	2.349	1.741	-1.572	1.005	2.237	2.598	0.387	0.704	0.870	-2.568	-3.320	-1.839	-5.574	734.375
6.334	2.434	2.292	1.461	1.728	1.144	0.617	-1.438	-1.637	0.050	-3.530	-4.698	1.645	2.251	4.052	2.178	1.439	-1.848	0.822	2.105	2.583	0.232	0.554	1.092	-2.460	-3.100	-1.435	-5.168	738.281
6.011	2.291	2.085	1.256	1.563	0.816	0.750	-1.379	-1.510	0.474	-3.314	-4.253	2.005	2.381	3.709	2.052	1.176	-2.085	0.700	2.013	2.598	0.122	0.447	1.291	-2.367	-2.897	-1.054	-4.768	742.188
5.730	2.235	1.899	1.077	1.398	0.488	0.792	-1.362	-1.467	0.818	-3.136	-3.863	2.314	2.500	3.406	1.973	0.970	-2.270	0.646	1.962	2.639	0.062	0.382	1.444	-2.298	-2.724	-0.724	-4.392	746.094
5.499	2.247	1.744	0.945	1.247	0.201	0.739	-1.387	-1.498	1.065	-2.997	-3.531	2.556	2.597	3.143	1.937	0.830	-2.397	0.654	1.950	2.697	0.046	0.356	1.539	-2.258	-2.590	-0.464	-4.050	750.000
5.319	2.300	1.624	0.871	1.121	-0.010	0.597	-1.444	-1.586	1.205	-2.893	-3.252	2.723	2.664	2.915	1.932	0.757	-2.469	0.711	1.969	2.762	0.066	0.359	1.571	-2.241	-2.498	-0.285	-3.748	753.906
5.185	2.363	1.541	0.857	1.027	-0.126	0.384	-1.527	-1.711	1.231	-2.822	-3.018	2.814	2.696	2.719	1.946	0.741	-2.496	0.796	2.007	2.824	0.110	0.378	1.547	-2.238	-2.449	-0.185	-3.485	757.812
5.090	2.410	1.494	0.893	0.972	-0.142	0.124	-1.623	-1.855	1.145	-2.780	-2.820	2.836	2.694	2.554	1.964	0.767	-2.492	0.889	2.050	2.873	0.161	0.400	1.480	-2.237	-2.437	-0.155	-3.261	761.719
5.027	2.421	1.483	0.959	0.951	-0.069	-0.153	-1.719	-1.998	0.957	-2.760	-2.650	2.802	2.663	2.420	1.970	0.817	-2.474	0.970	2.085	2.902	0.208	0.412	1.390	-2.228	-2.454	-0.176	-3.073	765.625
4.989	2.387	1.505	1.029	0.959	0.070	-0.419	-1.803	-2.124	0.691	-2.753	-2.501	2.726	2.612	2.319	1.956	0.871	-2.456	1.022	2.100	2.908	0.238	0.407	1.296	-2.206	-2.491	-0.222	-2.918	769.531
4.968	2.309	1.558	1.074	0.980	0.246	-0.650	-1.863	-2.221	0.378	-2.748	-2.370	2.622	2.553	2.254	1.917	0.916	-2.452	1.034	2.085	2.888	0.244	0.377	1.217	-2.170	-2.537	-0.272	-2.794	773.438
4.960	2.199	1.642	1.068	0.998	0.431	-0.831	-1.888	-2.278	0.058	-2.732	-2.256	2.503	2.494	2.229	1.851	0.939	-2.469	0.998	2.035	2.841	0.221	0.318	1.162	-2.129	-2.587	-0.303	-2.700	777.344
4.958	2.076	1.755	0.995	0.995	0.603	-0.955	-1.871	-2.290	-0.233	-2.693	-2.160	2.377	2.446	2.244	1.762	0.938	-2.511	0.914	1.949	2.768	0.171	0.231	1.133	-2.093	-2.636	-0.305	-2.634	781.250
4.956	1.959	1.895	0.848	0.959	0.746	-1.023	-1.810	-2.256	-0.468	-2.625	-2.082	2.247	2.412	2.297	1.656	0.913	-2.576	0.784	1.828	2.674	0.095	0.116	1.130	-2.070	-2.682	-0.272	-2.591	785.156
4.949	1.862	2.057	0.633	0.884	0.857	-1.047	-1.707	-2.183	-0.634	-2.524	-2.020	2.117	2.394	2.383	1.541	0.868	-2.660	0.618	1.678	2.564	-0.001	-0.020	1.144	-2.066	-2.726	-0.206	-2.568	789.062
4.936	1.790	2.236	0.367	0.776	0.937	-1.043	-1.574	-2.082	-0.740	-2.397	-1.969	1.988	2.388	2.491	1.422	0.811	-2.756	0.428	1.510	2.443	-0.110	-0.171	1.169	-2.082	-2.768	-0.116	-2.556	792.969
4.917	1.737	2.422	0.074	0.645	0.998	-1.027	-1.426	-1.969	-0.810	-2.254	-1.922	1.859	2.391	2.609	1.304	0.748	-2.858	0.228	1.334	2.319	-0.224	-0.328	1.198	-2.110	-2.809	-0.011	-2.547	796.875
