FP1	F3	F7	FC3	C3	C5	P3	P7	PO7	PO3	O1	Oz	Pz	CPz	FP2	Fz	F4	F8	FC4	FCz	Cz	C4	C6	P4	P8	PO8	PO4	O2	time
-0.753	-0.996	-2.173	-0.706	-0.085	-1.530	0.278	-0.353	0.508	0.999	0.891	0.605	0.620	0.778	-0.346	-0.106	0.378	1.123	0.856	0.259	0.443	1.014	0.309	0.681	-0.102	1.493	0.283	0.360	-199.219
-0.752	-0.780	-1.847	-0.593	-0.117	-1.404	0.145	-0.397	0.425	0.857	0.772	0.597	0.506	0.692	-0.265	0.073	0.311	0.683	0.702	0.323	0.466	0.955	0.186	0.684	0.007	1.479	0.324	0.401	-195.312
-0.739	-0.575	-1.538	-0.492	-0.147	-1.278	0.024	-0.430	0.348	0.730	0.665	0.594	0.395	0.604	-0.179	0.225	0.251	0.291	0.551	0.363	0.470	0.873	0.058	0.673	0.102	1.460	0.363	0.439	-191.406
-0.702	-0.389	-1.253	-0.412	-0.171	-1.151	-0.075	-0.444	0.277	0.627	0.574	0.596	0.290	0.511	-0.082	0.331	0.204	-0.004	0.408	0.362	0.439	0.750	-0.069	0.635	0.176	1.430	0.396	0.465	-187.500
-0.634	-0.228	-0.999	-0.356	-0.183	-1.014	-0.147	-0.439	0.209	0.547	0.494	0.596	0.192	0.413	0.033	0.380	0.176	-0.175	0.278	0.314	0.372	0.586	-0.189	0.563	0.222	1.378	0.415	0.469	-183.594
-0.531	-0.094	-0.777	-0.325	-0.177	-0.858	-0.195	-0.421	0.139	0.483	0.417	0.584	0.105	0.316	0.168	0.378	0.171	-0.208	0.171	0.226	0.277	0.392	-0.290	0.457	0.237	1.295	0.410	0.442	-179.688
-0.397	0.012	-0.588	-0.312	-0.147	-0.674	-0.223	-0.400	0.060	0.421	0.327	0.549	0.029	0.227	0.324	0.335	0.189	-0.114	0.091	0.117	0.172	0.191	-0.359	0.323	0.225	1.173	0.376	0.377	-175.781
-0.240	0.090	-0.436	-0.310	-0.088	-0.460	-0.243	-0.388	-0.033	0.345	0.212	0.480	-0.035	0.153	0.494	0.271	0.229	0.082	0.047	0.007	0.076	0.014	-0.381	0.173	0.193	1.010	0.308	0.271	-171.875
-0.076	0.143	-0.321	-0.310	-0.002	-0.220	-0.262	-0.394	-0.143	0.242	0.063	0.369	-0.092	0.100	0.672	0.203	0.286	0.342	0.038	-0.083	0.009	-0.111	-0.346	0.025	0.155	0.815	0.207	0.130	-167.969
0.078	0.167	-0.245	-0.306	0.103	0.029	-0.289	-0.422	-0.271	0.104	-0.122	0.215	-0.143	0.070	0.845	0.148	0.353	0.630	0.065	-0.139	-0.019	-0.163	-0.247	-0.103	0.125	0.604	0.081	-0.033	-164.062
0.206	0.161	-0.207	-0.298	0.211	0.265	-0.328	-0.472	-0.410	-0.067	-0.332	0.028	-0.195	0.061	1.000	0.111	0.422	0.915	0.120	-0.157	-0.006	-0.136	-0.088	-0.193	0.115	0.402	-0.057	-0.198	-160.156
0.296	0.121	-0.202	-0.290	0.303	0.456	-0.380	-0.535	-0.551	-0.259	-0.551	-0.178	-0.250	0.066	1.125	0.093	0.486	1.175	0.195	-0.139	0.040	-0.036	0.119	-0.234	0.136	0.234	-0.189	-0.345	-156.250
0.336	0.047	-0.229	-0.291	0.360	0.576	-0.440	-0.602	-0.684	-0.455	-0.755	-0.381	-0.309	0.081	1.206	0.090	0.540	1.404	0.279	-0.096	0.106	0.117	0.355	-0.219	0.191	0.121	-0.295	-0.451	-152.344
0.324	-0.060	-0.283	-0.307	0.367	0.604	-0.504	-0.663	-0.794	-0.634	-0.922	-0.559	-0.367	0.099	1.231	0.091	0.581	1.600	0.362	-0.038	0.176	0.295	0.592	-0.149	0.276	0.076	-0.359	-0.500	-148.438
0.258	-0.194	-0.366	-0.342	0.319	0.534	-0.566	-0.708	-0.871	-0.774	-1.031	-0.690	-0.419	0.118	1.191	0.088	0.604	1.766	0.436	0.022	0.241	0.470	0.804	-0.031	0.379	0.099	-0.365	-0.482	-144.531
0.145	-0.343	-0.479	-0.393	0.223	0.375	-0.617	-0.729	-0.901	-0.859	-1.068	-0.756	-0.456	0.138	1.081	0.073	0.605	1.900	0.493	0.075	0.292	0.618	0.965	0.122	0.482	0.181	-0.308	-0.395	-140.625
-0.008	-0.494	-0.624	-0.453	0.095	0.150	-0.651	-0.723	-0.878	-0.875	-1.027	-0.746	-0.466	0.164	0.901	0.040	0.580	1.997	0.527	0.117	0.329	0.726	1.057	0.296	0.564	0.299	-0.191	-0.248	-136.719
-0.187	-0.632	-0.797	-0.514	-0.042	-0.107	-0.658	-0.685	-0.798	-0.817	-0.909	-0.659	-0.440	0.199	0.658	-0.011	0.522	2.047	0.531	0.144	0.357	0.786	1.071	0.475	0.608	0.428	-0.023	-0.054	-132.812
-0.378	-0.746	-0.990	-0.565	-0.163	-0.356	-0.628	-0.615	-0.660	-0.687	-0.722	-0.499	-0.369	0.249	0.368	-0.077	0.427	2.038	0.499	0.157	0.381	0.803	1.009	0.641	0.600	0.538	0.177	0.166	-128.906
-0.562	-0.828	-1.184	-0.600	-0.244	-0.561	-0.551	-0.511	-0.473	-0.493	-0.482	-0.282	-0.249	0.317	0.052	-0.154	0.291	1.957	0.425	0.159	0.410	0.787	0.882	0.784	0.535	0.606	0.387	0.392	-125.000
-0.723	-0.871	-1.358	-0.614	-0.270	-0.693	-0.417	-0.374	-0.248	-0.249	-0.209	-0.028	-0.077	0.404	-0.264	-0.236	0.115	1.797	0.308	0.151	0.446	0.752	0.708	0.892	0.417	0.616	0.582	0.600	-121.094
-0.844	-0.875	-1.488	-0.605	-0.235	-0.736	-0.220	-0.209	-0.001	0.028	0.073	0.237	0.141	0.507	-0.553	-0.319	-0.095	1.558	0.151	0.135	0.490	0.709	0.509	0.959	0.257	0.560	0.739	0.768	-117.188
-0.912	-0.841	-1.554	-0.572	-0.142	-0.689	0.042	-0.022	0.253	0.317	0.341	0.486	0.395	0.621	-0.793	-0.397	-0.326	1.245	-0.039	0.113	0.540	0.666	0.305	0.982	0.070	0.441	0.842	0.879	-113.281
-0.919	-0.768	-1.546	-0.514	-0.003	-0.567	0.361	0.177	0.494	0.599	0.573	0.693	0.670	0.740	-0.966	-0.464	-0.563	0.873	-0.245	0.088	0.590	0.626	0.113	0.961	-0.125	0.272	0.882	0.922	-109.375
-0.863	-0.660	-1.458	-0.431	0.166	-0.397	0.719	0.379	0.707	0.856	0.749	0.838	0.946	0.858	-1.062	-0.517	-0.787	0.464	-0.450	0.063	0.635	0.585	-0.055	0.896	-0.311	0.068	0.856	0.890	-105.469
-0.745	-0.520	-1.296	-0.322	0.343	-0.210	1.089	0.571	0.878	1.071	0.857	0.907	1.200	0.966	-1.080	-0.549	-0.978	0.045	-0.633	0.046	0.674	0.536	-0.192	0.790	-0.475	-0.153	0.771	0.783	-101.562
-0.575	-0.349	-1.072	-0.190	0.510	-0.034	1.434	0.740	0.997	1.230	0.889	0.895	1.408	1.056	-1.025	-0.555	-1.118	-0.354	-0.774	0.043	0.704	0.470	-0.299	0.646	-0.608	-0.375	0.638	0.609	-97.656
-0.364	-0.153	-0.801	-0.038	0.652	0.112	1.717	0.875	1.056	1.323	0.843	0.804	1.550	1.120	-0.909	-0.528	-1.191	-0.703	-0.859	0.064	0.729	0.381	-0.378	0.467	-0.708	-0.584	0.468	0.377	-93.750
-0.125	0.063	-0.500	0.133	0.760	0.222	1.900	0.969	1.051	1.341	0.725	0.643	1.604	1.149	-0.746	-0.462	-1.188	-0.974	-0.876	0.115	0.748	0.266	-0.434	0.258	-0.776	-0.772	0.273	0.102	-89.844
0.125	0.293	-0.185	0.315	0.831	0.305	1.954	1.015	0.980	1.279	0.546	0.423	1.560	1.135	-0.554	-0.353	-1.108	-1.151	-0.823	0.200	0.764	0.126	-0.472	0.025	-0.816	-0.937	0.060	-0.200	-85.938
0.373	0.528	0.129	0.504	0.864	0.376	1.864	1.012	0.846	1.137	0.321	0.161	1.413	1.071	-0.350	-0.203	-0.953	-1.225	-0.705	0.314	0.771	-0.032	-0.498	-0.222	-0.833	-1.075	-0.168	-0.511	-82.031
0.605	0.756	0.431	0.691	0.862	0.454	1.632	0.962	0.657	0.919	0.069	-0.124	1.168	0.953	-0.147	-0.018	-0.739	-1.202	-0.536	0.448	0.763	-0.202	-0.513	-0.476	-0.831	-1.188	-0.405	-0.812	-78.125
0.810	0.965	0.712	0.867	0.830	0.555	1.282	0.874	0.428	0.639	-0.189	-0.414	0.840	0.778	0.041	0.188	-0.485	-1.101	-0.339	0.582	0.728	-0.374	-0.522	-0.724	-0.813	-1.274	-0.648	-1.084	-74.219
0.979	1.143	0.968	1.024	0.773	0.685	0.848	0.760	0.177	0.316	-0.433	-0.687	0.454	0.549	0.204	0.396	-0.219	-0.947	-0.142	0.695	0.657	-0.539	-0.527	-0.959	-0.782	-1.330	-0.889	-1.307	-70.312
1.105	1.281	1.195	1.153	0.693	0.842	0.379	0.638	-0.071	-0.027	-0.643	-0.923	0.037	0.274	0.335	0.583	0.029	-0.773	0.028	0.766	0.539	-0.690	-0.532	-1.171	-0.738	-1.354	-1.115	-1.466	-66.406
1.183	1.371	1.392	1.244	0.592	1.011	-0.078	0.522	-0.292	-0.361	-0.802	-1.103	-0.376	-0.034	0.427	0.726	0.232	-0.613	0.146	0.777	0.373	-0.821	-0.539	-1.349	-0.680	-1.339	-1.309	-1.546	-62.500
1.211	1.407	1.558	1.290	0.472	1.165	-0.478	0.426	-0.464	-0.660	-0.898	-1.212	-0.755	-0.357	0.476	0.805	0.367	-0.495	0.196	0.718	0.162	-0.924	-0.549	-1.484	-0.606	-1.282	-1.452	-1.538	-58.594
1.189	1.387	1.695	1.282	0.332	1.271	-0.790	0.359	-0.570	-0.900	-0.921	-1.240	-1.071	-0.674	0.478	0.808	0.420	-0.441	0.175	0.588	-0.084	-0.994	-0.558	-1.563	-0.514	-1.182	-1.522	-1.438	-54.688
1.120	1.309	1.804	1.216	0.171	1.297	-0.998	0.320	-0.602	-1.067	-0.868	-1.183	-1.301	-0.964	0.431	0.732	0.390	-0.462	0.090	0.394	-0.351	-1.026	-0.561	-1.576	-0.400	-1.040	-1.501	-1.252	-50.781
1.008	1.176	1.885	1.089	-0.010	1.224	-1.101	0.302	-0.561	-1.153	-0.744	-1.045	-1.433	-1.210	0.339	0.586	0.289	-0.558	-0.040	0.151	-0.621	-1.020	-0.550	-1.515	-0.264	-0.864	-1.382	-0.989	-46.875
0.861	0.994	1.935	0.908	-0.206	1.049	-1.110	0.296	-0.459	-1.162	-0.559	-0.839	-1.467	-1.400	0.206	0.386	0.141	-0.716	-0.189	-0.119	-0.881	-0.981	-0.518	-1.378	-0.108	-0.666	-1.166	-0.670	-42.969
0.686	0.771	1.950	0.685	-0.409	0.791	-1.047	0.289	-0.312	-1.104	-0.331	-0.584	-1.411	-1.531	0.044	0.156	-0.022	-0.914	-0.330	-0.395	-1.117	-0.919	-0.460	-1.172	0.061	-0.463	-0.870	-0.319	-39.062
0.492	0.519	1.920	0.439	-0.606	0.485	-0.934	0.270	-0.146	-0.995	-0.080	-0.306	-1.280	-1.601	-0.132	-0.076	-0.165	-1.124	-0.433	-0.653	-1.318	-0.846	-0.374	-0.912	0.228	-0.273	-0.520	0.034	-35.156
0.291	0.254	1.838	0.193	-0.785	0.169	-0.789	0.234	0.016	-0.851	0.172	-0.030	-1.096	-1.616	-0.306	-0.285	-0.260	-1.314	-0.479	-0.872	-1.476	-0.774	-0.263	-0.619	0.380	-0.116	-0.151	0.360	-31.250
0.096	-0.012	1.698	-0.032	-0.934	-0.119	-0.627	0.178	0.153	-0.687	0.403	0.217	-0.880	-1.580	-0.461	-0.451	-0.287	-1.457	-0.457	-1.034	-1.582	-0.713	-0.134	-0.319	0.500	-0.006	0.201	0.632	-27.344
-0.081	-0.264	1.502	-0.219	-1.042	-0.360	-0.453	0.107	0.247	-0.513	0.595	0.414	-0.648	-1.495	-0.581	-0.564	-0.242	-1.535	-0.368	-1.130	-1.628	-0.666	0.002	-0.033	0.576	0.048	0.503	0.831	-23.438
-0.225	-0.491	1.259	-0.358	-1.104	-0.546	-0.267	0.027	0.289	-0.336	0.736	0.548	-0.412	-1.365	-0.660	-0.621	-0.137	-1.541	-0.228	-1.156	-1.610	-0.633	0.133	0.219	0.603	0.046	0.734	0.946	-19.531
-0.326	-0.684	0.990	-0.446	-1.120	-0.684	-0.066	-0.055	0.277	-0.161	0.822	0.612	-0.178	-1.189	-0.696	-0.631	0.003	-1.483	-0.064	-1.117	-1.524	-0.605	0.243	0.428	0.584	-0.002	0.885	0.980	-15.625
-0.379	-0.836	0.719	-0.486	-1.093	-0.789	0.153	-0.129	0.215	0.012	0.852	0.612	0.051	-0.973	-0.697	-0.606	0.146	-1.381	0.093	-1.023	-1.375	-0.575	0.321	0.590	0.532	-0.080	0.960	0.946	-11.719
-0.383	-0.943	0.469	-0.487	-1.031	-0.876	0.387	-0.190	0.113	0.180	0.833	0.560	0.275	-0.726	-0.675	-0.565	0.258	-1.264	0.208	-0.895	-1.175	-0.536	0.357	0.708	0.464	-0.167	0.974	0.866	-7.812
-0.345	-1.007	0.257	-0.460	-0.943	-0.953	0.624	-0.232	-0.014	0.339	0.776	0.473	0.489	-0.463	-0.643	-0.523	0.313	-1.157	0.259	-0.753	-0.945	-0.486	0.351	0.788	0.403	-0.241	0.947	0.766	-3.906
-0.275	-1.029	0.095	-0.413	-0.839	-1.021	0.849	-0.252	-0.153	0.484	0.690	0.370	0.687	-0.208	-0.612	-0.494	0.300	-1.085	0.234	-0.620	-0.714	-0.425	0.309	0.838	0.370	-0.283	0.902	0.669	0.000
-0.185	-1.016	-0.015	-0.357	-0.729	-1.070	1.041	-0.248	-0.287	0.605	0.588	0.268	0.856	0.015	-0.590	-0.487	0.220	-1.060	0.137	-0.517	-0.511	-0.359	0.244	0.859	0.377	-0.284	0.855	0.594	3.906
-0.086	-0.974	-0.076	-0.295	-0.621	-1.085	1.177	-0.220	-0.404	0.694	0.477	0.177	0.981	0.181	-0.573	-0.505	0.091	-1.083	-0.017	-0.459	-0.364	-0.298	0.174	0.849	0.428	-0.247	0.814	0.546	7.812
0.016	-0.912	-0.089	-0.233	-0.520	-1.052	1.242	-0.168	-0.495	0.742	0.366	0.099	1.047	0.272	-0.556	-0.545	-0.064	-1.143	-0.201	-0.453	-0.294	-0.250	0.114	0.799	0.513	-0.184	0.779	0.519	11.719
0.118	-0.835	-0.059	-0.174	-0.429	-0.956	1.226	-0.092	-0.554	0.744	0.257	0.031	1.044	0.278	-0.524	-0.601	-0.215	-1.223	-0.386	-0.497	-0.307	-0.224	0.077	0.702	0.611	-0.121	0.738	0.497	15.625
0.222	-0.745	0.014	-0.116	-0.349	-0.794	1.133	0.005	-0.581	0.697	0.152	-0.036	0.965	0.200	-0.466	-0.660	-0.337	-1.304	-0.549	-0.581	-0.397	-0.225	0.067	0.546	0.698	-0.084	0.676	0.459	19.531
0.337	-0.641	0.131	-0.061	-0.281	-0.573	0.970	0.120	-0.580	0.602	0.049	-0.110	0.811	0.049	-0.371	-0.709	-0.411	-1.369	-0.673	-0.690	-0.547	-0.255	0.084	0.331	0.749	-0.101	0.573	0.383	23.438
0.469	-0.519	0.291	-0.008	-0.225	-0.313	0.754	0.244	-0.558	0.466	-0.050	-0.198	0.590	-0.158	-0.234	-0.736	-0.431	-1.404	-0.751	-0.803	-0.731	-0.313	0.119	0.060	0.748	-0.190	0.417	0.252	27.344
0.625	-0.374	0.492	0.045	-0.187	-0.046	0.507	0.370	-0.525	0.296	-0.147	-0.304	0.315	-0.397	-0.058	-0.730	-0.400	-1.402	-0.787	-0.902	-0.920	-0.395	0.162	-0.250	0.688	-0.355	0.201	0.060	31.250
0.806	-0.203	0.727	0.097	-0.168	0.192	0.247	0.487	-0.491	0.103	-0.239	-0.429	0.005	-0.646	0.145	-0.683	-0.329	-1.362	-0.792	-0.969	-1.088	-0.498	0.202	-0.579	0.576	-0.587	-0.072	-0.188	35.156
1.005	-0.008	0.984	0.148	-0.172	0.369	-0.006	0.588	-0.461	-0.102	-0.322	-0.568	-0.320	-0.885	0.358	-0.596	-0.235	-1.290	-0.778	-0.994	-1.216	-0.616	0.233	-0.899	0.428	-0.864	-0.388	-0.478	39.062
1.209	0.203	1.247	0.196	-0.198	0.466	-0.238	0.666	-0.437	-0.307	-0.393	-0.719	-0.640	-1.098	0.556	-0.477	-0.134	-1.197	-0.758	-0.972	-1.293	-0.742	0.250	-1.187	0.267	-1.156	-0.729	-0.786	42.969
1.400	0.419	1.493	0.245	-0.241	0.482	-0.440	0.723	-0.418	-0.503	-0.447	-0.877	-0.938	-1.275	0.717	-0.338	-0.041	-1.097	-0.742	-0.910	-1.317	-0.869	0.253	-1.426	0.117	-1.429	-1.072	-1.086	46.875
1.555	0.626	1.701	0.298	-0.293	0.433	-0.608	0.764	-0.397	-0.681	-0.483	-1.038	-1.202	-1.415	0.820	-0.197	0.033	-1.006	-0.735	-0.818	-1.295	-0.989	0.244	-1.608	-0.004	-1.652	-1.395	-1.353	50.781
1.655	0.809	1.854	0.359	-0.344	0.353	-0.744	0.796	-0.368	-0.839	-0.501	-1.200	-1.427	-1.521	0.848	-0.075	0.083	-0.937	-0.738	-0.713	-1.243	-1.095	0.228	-1.737	-0.084	-1.800	-1.679	-1.563	54.688
1.685	0.951	1.945	0.432	-0.384	0.280	-0.853	0.830	-0.323	-0.976	-0.506	-1.361	-1.613	-1.603	0.797	0.012	0.104	-0.896	-0.750	-0.616	-1.181	-1.185	0.205	-1.824	-0.118	-1.853	-1.907	-1.701	58.594
1.637	1.037	1.976	0.512	-0.409	0.244	-0.945	0.874	-0.261	-1.092	-0.504	-1.518	-1.763	-1.674	0.669	0.047	0.097	-0.887	-0.769	-0.547	-1.129	-1.260	0.178	-1.883	-0.105	-1.799	-2.067	-1.753	62.500
1.513	1.056	1.960	0.592	-0.423	0.264	-1.028	0.932	-0.185	-1.193	-0.503	-1.665	-1.882	-1.747	0.474	0.023	0.059	-0.907	-0.793	-0.524	-1.107	-1.323	0.146	-1.922	-0.049	-1.628	-2.146	-1.713	66.406
1.321	0.996	1.913	0.652	-0.438	0.336	-1.112	1.003	-0.101	-1.282	-0.510	-1.795	-1.976	-1.836	0.229	-0.064	-0.010	-0.948	-0.823	-0.561	-1.130	-1.384	0.110	-1.945	0.052	-1.336	-2.131	-1.576	70.312
1.075	0.852	1.856	0.671	-0.472	0.434	-1.201	1.076	-0.024	-1.361	-0.532	-1.898	-2.049	-1.947	-0.050	-0.212	-0.111	-1.000	-0.862	-0.667	-1.208	-1.450	0.070	-1.942	0.200	-0.919	-2.015	-1.343	74.219
0.794	0.624	1.804	0.623	-0.549	0.515	-1.300	1.139	0.034	-1.435	-0.571	-1.962	-2.103	-2.083	-0.344	-0.416	-0.244	-1.049	-0.912	-0.845	-1.344	-1.529	0.030	-1.900	0.400	-0.383	-1.790	-1.017	78.125
0.499	0.319	1.763	0.487	-0.692	0.531	-1.407	1.174	0.058	-1.504	-0.624	-1.979	-2.140	-2.241	-0.637	-0.666	-0.402	-1.080	-0.973	-1.089	-1.535	-1.623	-0.005	-1.801	0.660	0.262	-1.461	-0.607	82.031
0.208	-0.049	1.733	0.253	-0.916	0.437	-1.521	1.165	0.040	-1.570	-0.685	-1.943	-2.160	-2.412	-0.916	-0.950	-0.578	-1.077	-1.044	-1.389	-1.769	-1.733	-0.027	-1.633	0.981	0.994	-1.038	-0.130	85.938
-0.063	-0.458	1.699	-0.075	-1.226	0.210	-1.637	1.100	-0.021	-1.630	-0.743	-1.853	-2.165	-2.584	-1.171	-1.256	-0.760	-1.028	-1.124	-1.727	-2.032	-1.854	-0.028	-1.392	1.363	1.782	-0.547	0.391	89.844
-0.305	-0.885	1.643	-0.479	-1.611	-0.147	-1.748	0.980	-0.115	-1.680	-0.784	-1.714	-2.159	-2.745	-1.394	-1.568	-0.938	-0.926	-1.207	-2.081	-2.302	-1.980	-0.003	-1.091	1.791	2.585	-0.021	0.926	93.750
-0.513	-1.303	1.544	-0.926	-2.044	-0.605	-1.845	0.812	-0.226	-1.712	-0.790	-1.536	-2.142	-2.884	-1.582	-1.874	-1.102	-0.772	-1.291	-2.428	-2.559	-2.103	0.048	-0.752	2.245	3.360	0.501	1.443	97.656
-0.686	-1.687	1.385	-1.375	-2.488	-1.113	-1.919	0.615	-0.331	-1.714	-0.743	-1.330	-2.112	-2.990	-1.733	-2.159	-1.247	-0.581	-1.372	-2.746	-2.782	-2.220	0.118	-0.407	2.697	4.060	0.980	1.911	101.562
-0.823	-2.019	1.165	-1.782	-2.899	-1.611	-1.958	0.411	-0.407	-1.675	-0.632	-1.110	-2.063	-3.053	-1.844	-2.410	-1.374	-0.377	-1.451	-3.010	-2.953	-2.328	0.196	-0.087	3.111	4.647	1.382	2.301	105.469
-0.924	-2.282	0.893	-2.110	-3.237	-2.045	-1.952	0.220	-0.438	-1.586	-0.450	-0.886	-1.985	-3.066	-1.912	-2.617	-1.483	-0.188	-1.528	-3.204	-3.057	-2.424	0.266	0.179	3.455	5.086	1.686	2.593	109.375
-0.984	-2.467	0.592	-2.331	-3.466	-2.372	-1.893	0.060	-0.420	-1.442	-0.201	-0.668	-1.865	-3.018	-1.934	-2.766	-1.579	-0.040	-1.602	-3.310	-3.081	-2.506	0.311	0.377	3.694	5.354	1.881	2.775	113.281
-0.999	-2.571	0.291	-2.433	-3.569	-2.571	-1.773	-0.062	-0.357	-1.243	0.100	-0.462	-1.687	-2.899	-1.908	-2.849	-1.659	0.048	-1.667	-3.316	-3.015	-2.569	0.317	0.502	3.803	5.441	1.972	2.842	117.188
-0.966	-2.594	0.017	-2.414	-3.540	-2.639	-1.594	-0.147	-0.266	-0.998	0.430	-0.269	-1.439	-2.702	-1.835	-2.857	-1.720	0.072	-1.717	-3.217	-2.853	-2.605	0.278	0.563	3.763	5.347	1.974	2.802	121.094
-0.884	-2.543	-0.207	-2.285	-3.389	-2.596	-1.359	-0.206	-0.169	-0.720	0.763	-0.089	-1.114	-2.420	-1.722	-2.785	-1.749	0.040	-1.740	-3.011	-2.591	-2.603	0.195	0.576	3.566	5.081	1.906	2.667	125.000
-0.757	-2.424	-0.369	-2.066	-3.138	-2.469	-1.077	-0.251	-0.093	-0.428	1.073	0.077	-0.715	-2.057	-1.581	-2.633	-1.735	-0.030	-1.723	-2.701	-2.231	-2.550	0.077	0.558	3.213	4.665	1.793	2.455	128.906
-0.595	-2.247	-0.466	-1.777	-2.812	-2.290	-0.764	-0.299	-0.058	-0.143	1.333	0.228	-0.258	-1.620	-1.425	-2.402	-1.662	-0.114	-1.657	-2.296	-1.780	-2.434	-0.063	0.523	2.717	4.125	1.653	2.187	132.812
-0.413	-2.019	-0.499	-1.440	-2.440	-2.090	-0.438	-0.362	-0.080	0.114	1.525	0.359	0.232	-1.126	-1.274	-2.097	-1.520	-0.193	-1.532	-1.807	-1.248	-2.248	-0.204	0.480	2.098	3.495	1.499	1.884	136.719
-0.225	-1.747	-0.474	-1.071	-2.046	-1.890	-0.121	-0.449	-0.167	0.320	1.633	0.458	0.720	-0.598	-1.143	-1.728	-1.305	-0.252	-1.348	-1.251	-0.654	-1.992	-0.329	0.431	1.386	2.812	1.336	1.562	140.625
-0.048	-1.439	-0.400	-0.683	-1.649	-1.707	0.166	-0.563	-0.315	0.459	1.647	0.511	1.168	-0.066	-1.045	-1.306	-1.023	-0.284	-1.109	-0.647	-0.021	-1.674	-0.421	0.371	0.620	2.113	1.161	1.237	144.531
0.104	-1.101	-0.285	-0.283	-1.262	-1.546	0.400	-0.697	-0.512	0.515	1.565	0.504	1.537	0.440	-0.988	-0.846	-0.690	-0.289	-0.828	-0.014	0.623	-1.309	-0.472	0.295	-0.158	1.435	0.970	0.921	148.438
0.219	-0.744	-0.136	0.120	-0.896	-1.406	0.563	-0.843	-0.738	0.484	1.390	0.426	1.796	0.891	-0.976	-0.370	-0.332	-0.275	-0.525	0.619	1.247	-0.924	-0.480	0.200	-0.902	0.813	0.754	0.624	152.344
0.291	-0.381	0.039	0.517	-0.558	-1.280	0.641	-0.983	-0.966	0.366	1.138	0.275	1.928	1.260	-1.008	0.097	0.018	-0.250	-0.225	1.224	1.817	-0.546	-0.453	0.085	-1.567	0.279	0.513	0.358	156.250
0.314	-0.032	0.228	0.895	-0.253	-1.158	0.629	-1.101	-1.164	0.174	0.830	0.061	1.927	1.529	-1.081	0.522	0.324	-0.226	0.045	1.764	2.299	-0.206	-0.405	-0.044	-2.110	-0.139	0.251	0.137	160.156
0.286	0.280	0.416	1.237	0.011	-1.029	0.532	-1.179	-1.303	-0.071	0.500	-0.193	1.806	1.686	-1.192	0.869	0.548	-0.209	0.259	2.203	2.663	0.069	-0.353	-0.173	-2.498	-0.418	-0.015	-0.021	164.062
0.204	0.525	0.584	1.520	0.226	-0.890	0.362	-1.201	-1.357	-0.344	0.184	-0.458	1.589	1.730	-1.342	1.106	0.663	-0.204	0.397	2.505	2.883	0.259	-0.312	-0.282	-2.703	-0.540	-0.260	-0.096	167.969
0.067	0.677	0.708	1.722	0.383	-0.745	0.141	-1.162	-1.311	-0.613	-0.083	-0.697	1.310	1.667	-1.532	1.206	0.653	-0.209	0.448	2.643	2.947	0.355	-0.291	-0.348	-2.714	-0.493	-0.454	-0.069	171.875
-0.130	0.711	0.766	1.821	0.471	-0.609	-0.104	-1.061	-1.165	-0.851	-0.271	-0.879	1.005	1.511	-1.765	1.156	0.517	-0.220	0.410	2.607	2.852	0.360	-0.291	-0.348	-2.528	-0.276	-0.561	0.076	175.781
-0.391	0.616	0.739	1.802	0.479	-0.505	-0.344	-0.907	-0.928	-1.037	-0.363	-0.982	0.708	1.281	-2.044	0.960	0.271	-0.235	0.297	2.400	2.614	0.288	-0.303	-0.262	-2.159	0.107	-0.556	0.345	179.688
-0.717	0.390	0.621	1.661	0.400	-0.461	-0.553	-0.717	-0.623	-1.157	-0.360	-0.997	0.449	1.001	-2.368	0.641	-0.055	-0.252	0.129	2.048	2.256	0.161	-0.314	-0.081	-1.633	0.635	-0.421	0.735	183.594
-1.107	0.051	0.414	1.409	0.234	-0.495	-0.711	-0.508	-0.278	-1.208	-0.273	-0.933	0.245	0.691	-2.731	0.234	-0.424	-0.272	-0.066	1.588	1.812	0.005	-0.308	0.194	-0.988	1.282	-0.156	1.226	187.500
-1.550	-0.372	0.136	1.069	-0.007	-0.610	-0.806	-0.293	0.079	-1.195	-0.130	-0.812	0.104	0.373	-3.121	-0.217	-0.794	-0.299	-0.266	1.066	1.322	-0.157	-0.275	0.548	-0.267	2.007	0.220	1.786	191.406
-2.029	-0.839	-0.190	0.677	-0.301	-0.789	-0.834	-0.084	0.423	-1.130	0.039	-0.666	0.024	0.062	-3.520	-0.670	-1.135	-0.340	-0.452	0.528	0.819	-0.306	-0.209	0.953	0.481	2.769	0.674	2.371	195.312
-2.520	-1.308	-0.530	0.274	-0.619	-0.997	-0.799	0.119	0.735	-1.029	0.202	-0.530	-0.003	-0.230	-3.908	-1.089	-1.424	-0.401	-0.617	0.009	0.334	-0.431	-0.115	1.374	1.212	3.522	1.163	2.935	199.219
-2.992	-1.742	-0.854	-0.104	-0.926	-1.191	-0.710	0.318	1.007	-0.907	0.336	-0.431	0.008	-0.496	-4.264	-1.453	-1.655	-0.488	-0.764	-0.468	-0.115	-0.529	-0.002	1.775	1.890	4.228	1.644	3.437	203.125
-3.418	-2.117	-1.128	-0.432	-1.196	-1.330	-0.579	0.520	1.235	-0.780	0.429	-0.388	0.044	-0.729	-4.569	-1.753	-1.835	-0.604	-0.903	-0.894	-0.517	-0.598	0.116	2.126	2.492	4.857	2.080	3.847	207.031
-3.771	-2.420	-1.328	-0.700	-1.413	-1.389	-0.419	0.730	1.421	-0.659	0.482	-0.402	0.094	-0.928	-4.811	-1.995	-1.982	-0.746	-1.047	-1.272	-0.869	-0.642	0.229	2.409	3.008	5.395	2.449	4.150	210.938
-4.034	-2.654	-1.436	-0.915	-1.577	-1.365	-0.246	0.947	1.570	-0.550	0.505	-0.459	0.149	-1.091	-4.983	-2.190	-2.115	-0.904	-1.204	-1.614	-1.176	-0.665	0.332	2.616	3.443	5.837	2.741	4.351	214.844
-4.202	-2.832	-1.448	-1.098	-1.700	-1.281	-0.073	1.166	1.686	-0.457	0.516	-0.537	0.206	-1.220	-5.084	-2.352	-2.251	-1.061	-1.381	-1.930	-1.443	-0.672	0.425	2.754	3.807	6.188	2.966	4.468	218.750
-4.278	-2.973	-1.376	-1.273	-1.805	-1.171	0.087	1.374	1.770	-0.377	0.534	-0.602	0.266	-1.313	-5.119	-2.494	-2.400	-1.197	-1.574	-2.226	-1.677	-0.669	0.512	2.839	4.116	6.459	3.139	4.529	222.656
-4.274	-3.097	-1.247	-1.464	-1.917	-1.077	0.223	1.555	1.826	-0.307	0.579	-0.623	0.332	-1.372	-5.093	-2.625	-2.561	-1.289	-1.779	-2.507	-1.883	-0.663	0.599	2.893	4.383	6.664	3.284	4.565	226.562
-4.211	-3.222	-1.098	-1.685	-2.057	-1.033	0.328	1.695	1.855	-0.237	0.665	-0.570	0.412	-1.396	-5.016	-2.750	-2.730	-1.321	-1.989	-2.770	-2.063	-0.666	0.691	2.937	4.618	6.816	3.422	4.606	230.469
-4.106	-3.361	-0.966	-1.943	-2.237	-1.058	0.400	1.785	1.860	-0.158	0.805	-0.420	0.512	-1.386	-4.899	-2.874	-2.896	-1.290	-2.198	-3.012	-2.219	-0.687	0.783	2.988	4.821	6.927	3.570	4.673	234.375
-3.980	-3.522	-0.885	-2.231	-2.459	-1.154	0.442	1.822	1.850	-0.056	1.006	-0.162	0.639	-1.343	-4.753	-3.000	-3.053	-1.204	-2.407	-3.232	-2.352	-0.737	0.867	3.056	4.988	7.003	3.739	4.783	238.281
-3.847	-3.707	-0.872	-2.534	-2.714	-1.305	0.462	1.814	1.836	0.083	1.274	0.208	0.798	-1.268	-4.592	-3.133	-3.196	-1.082	-2.620	-3.430	-2.463	-0.825	0.925	3.144	5.107	7.050	3.927	4.942	242.188
-3.715	-3.911	-0.927	-2.837	-2.988	-1.487	0.473	1.776	1.830	0.270	1.608	0.682	0.991	-1.166	-4.428	-3.282	-3.326	-0.951	-2.843	-3.611	-2.552	-0.955	0.940	3.247	5.167	7.067	4.130	5.149	246.094
-3.590	-4.130	-1.035	-3.123	-3.261	-1.672	0.491	1.723	1.845	0.513	2.006	1.241	1.216	-1.043	-4.274	-3.454	-3.450	-0.837	-3.083	-3.779	-2.621	-1.126	0.896	3.355	5.160	7.056	4.338	5.397	250.000
-3.474	-4.355	-1.173	-3.379	-3.518	-1.839	0.530	1.673	1.890	0.814	2.456	1.860	1.467	-0.906	-4.139	-3.654	-3.575	-0.764	-3.340	-3.942	-2.671	-1.331	0.786	3.462	5.083	7.018	4.540	5.674	253.906
-3.367	-4.581	-1.315	-3.600	-3.742	-1.974	0.606	1.639	1.969	1.169	2.945	2.509	1.739	-0.760	-4.031	-3.885	-3.709	-0.747	-3.608	-4.103	-2.702	-1.553	0.616	3.562	4.942	6.956	4.729	5.965	257.812
-3.275	-4.802	-1.447	-3.785	-3.925	-2.075	0.731	1.625	2.083	1.568	3.448	3.151	2.025	-0.608	-3.955	-4.142	-3.853	-0.793	-3.870	-4.263	-2.712	-1.767	0.402	3.658	4.751	6.878	4.906	6.255	261.719
-3.202	-5.016	-1.562	-3.939	-4.062	-2.149	0.910	1.630	2.225	1.991	3.941	3.753	2.320	-0.451	-3.912	-4.414	-4.006	-0.896	-4.103	-4.419	-2.697	-1.947	0.172	3.759	4.529	6.791	5.072	6.526	265.625
-3.156	-5.219	-1.665	-4.067	-4.151	-2.209	1.145	1.650	2.385	2.418	4.395	4.281	2.620	-0.285	-3.904	-4.687	-4.162	-1.044	-4.282	-4.566	-2.651	-2.063	-0.044	3.876	4.298	6.706	5.234	6.761	269.531
-3.140	-5.406	-1.767	-4.176	-4.192	-2.263	1.428	1.676	2.551	2.825	4.780	4.705	2.922	-0.103	-3.928	-4.942	-4.310	-1.218	-4.381	-4.694	-2.567	-2.091	-0.216	4.021	4.076	6.627	5.396	6.943	273.438
-3.157	-5.573	-1.881	-4.265	-4.184	-2.315	1.746	1.702	2.712	3.189	5.073	5.000	3.222	0.099	-3.982	-5.162	-4.435	-1.400	-4.382	-4.795	-2.440	-2.018	-0.322	4.201	3.878	6.554	5.559	7.055	277.344
-3.203	-5.711	-2.016	-4.332	-4.122	-2.355	2.085	1.723	2.856	3.495	5.255	5.152	3.516	0.326	-4.060	-5.331	-4.525	-1.572	-4.280	-4.857	-2.265	-1.842	-0.353	4.415	3.710	6.483	5.718	7.084	281.250
-3.272	-5.815	-2.174	-4.366	-3.999	-2.367	2.429	1.737	2.976	3.732	5.321	5.154	3.798	0.582	-4.156	-5.441	-4.568	-1.724	-4.080	-4.872	-2.042	-1.577	-0.313	4.657	3.573	6.403	5.861	7.020	285.156
-3.355	-5.879	-2.354	-4.359	-3.810	-2.329	2.762	1.747	3.067	3.899	5.274	5.014	4.062	0.866	-4.264	-5.487	-4.553	-1.854	-3.798	-4.833	-1.772	-1.244	-0.217	4.913	3.460	6.299	5.976	6.863	289.062
-3.442	-5.903	-2.549	-4.305	-3.549	-2.228	3.075	1.755	3.130	4.005	5.134	4.748	4.304	1.178	-4.374	-5.471	-4.477	-1.966	-3.458	-4.738	-1.458	-0.869	-0.082	5.167	3.360	6.160	6.052	6.616	292.969
-3.527	-5.892	-2.755	-4.204	-3.221	-2.060	3.362	1.765	3.168	4.066	4.927	4.384	4.525	1.516	-4.481	-5.400	-4.339	-2.070	-3.084	-4.587	-1.106	-0.477	0.071	5.408	3.264	5.978	6.083	6.294	296.875
-3.605	-5.857	-2.970	-4.065	-2.836	-1.842	3.623	1.780	3.188	4.099	4.685	3.958	4.729	1.877	-4.578	-5.284	-4.146	-2.179	-2.699	-4.386	-0.722	-0.085	0.228	5.628	3.163	5.754	6.072	5.916	300.781
-3.678	-5.815	-3.201	-3.904	-2.416	-1.608	3.856	1.797	3.195	4.125	4.443	3.507	4.925	2.259	-4.662	-5.132	-3.907	-2.302	-2.318	-4.144	-0.310	0.302	0.386	5.827	3.055	5.499	6.028	5.507	304.688
-3.747	-5.784	-3.457	-3.743	-1.989	-1.400	4.060	1.809	3.191	4.155	4.228	3.071	5.122	2.656	-4.729	-4.954	-3.633	-2.445	-1.947	-3.873	0.121	0.685	0.546	6.010	2.942	5.232	5.970	5.094	308.594
-3.816	-5.778	-3.747	-3.598	-1.587	-1.260	4.227	1.804	3.176	4.197	4.061	2.679	5.329	3.060	-4.775	-4.760	-3.339	-2.604	-1.586	-3.585	0.565	1.072	0.718	6.184	2.833	4.974	5.914	4.701	312.500
-3.881	-5.804	-4.070	-3.484	-1.236	-1.220	4.348	1.766	3.141	4.247	3.951	2.354	5.547	3.457	-4.794	-4.555	-3.036	-2.769	-1.232	-3.289	1.012	1.472	0.909	6.355	2.736	4.747	5.877	4.349	316.406
-3.936	-5.859	-4.414	-3.404	-0.955	-1.289	4.409	1.679	3.078	4.294	3.895	2.108	5.774	3.831	-4.776	-4.342	-2.736	-2.930	-0.881	-2.995	1.450	1.886	1.128	6.527	2.661	4.567	5.864	4.047	320.312
-3.969	-5.930	-4.757	-3.351	-0.751	-1.459	4.402	1.532	2.975	4.327	3.883	1.939	5.999	4.164	-4.713	-4.124	-2.450	-3.078	-0.534	-2.705	1.869	2.310	1.372	6.697	2.616	4.441	5.875	3.799	324.219
-3.965	-5.999	-5.070	-3.312	-0.620	-1.704	4.319	1.321	2.823	4.330	3.898	1.842	6.207	4.442	-4.595	-3.901	-2.189	-3.212	-0.199	-2.419	2.257	2.728	1.635	6.858	2.603	4.366	5.901	3.599	328.125
-3.912	-6.046	-5.327	-3.271	-0.549	-1.986	4.166	1.050	2.619	4.297	3.923	1.801	6.383	4.659	-4.422	-3.671	-1.963	-3.336	0.111	-2.132	2.608	3.120	1.900	6.998	2.619	4.333	5.927	3.437	332.031
-3.803	-6.054	-5.515	-3.211	-0.517	-2.269	3.956	0.732	2.367	4.224	3.940	1.801	6.517	4.813	-4.198	-3.434	-1.779	-3.459	0.381	-1.837	2.920	3.462	2.150	7.105	2.656	4.326	5.941	3.303	335.938
-3.637	-6.011	-5.628	-3.123	-0.504	-2.521	3.710	0.388	2.076	4.116	3.937	1.827	6.602	4.911	-3.937	-3.192	-1.643	-3.588	0.599	-1.530	3.193	3.728	2.364	7.168	2.703	4.326	5.929	3.183	339.844
-3.421	-5.915	-5.674	-3.005	-0.495	-2.719	3.455	0.042	1.761	3.985	3.910	1.865	6.635	4.965	-3.655	-2.945	-1.555	-3.729	0.756	-1.208	3.430	3.901	2.527	7.178	2.745	4.315	5.885	3.067	343.750
-3.169	-5.773	-5.668	-2.862	-0.482	-2.852	3.215	-0.282	1.439	3.844	3.855	1.903	6.622	4.984	-3.369	-2.698	-1.511	-3.878	0.853	-0.874	3.632	3.975	2.629	7.131	2.768	4.279	5.805	2.946	347.656
-2.898	-5.597	-5.630	-2.704	-0.463	-2.919	3.009	-0.559	1.128	3.705	3.779	1.933	6.568	4.978	-3.096	-2.456	-1.502	-4.025	0.897	-0.539	3.797	3.954	2.671	7.032	2.762	4.208	5.692	2.815	351.562
-2.628	-5.404	-5.578	-2.546	-0.443	-2.925	2.849	-0.774	0.846	3.579	3.689	1.947	6.481	4.951	-2.850	-2.226	-1.518	-4.156	0.903	-0.214	3.924	3.855	2.663	6.891	2.719	4.101	5.556	2.671	355.469
-2.381	-5.209	-5.533	-2.396	-0.432	-2.880	2.735	-0.913	0.608	3.476	3.597	1.942	6.370	4.902	-2.641	-2.013	-1.548	-4.255	0.886	0.081	4.007	3.702	2.619	6.724	2.641	3.966	5.408	2.517	359.375
-2.180	-5.028	-5.510	-2.264	-0.436	-2.793	2.664	-0.970	0.427	3.400	3.517	1.915	6.243	4.829	-2.484	-1.827	-1.586	-4.314	0.857	0.332	4.041	3.527	2.558	6.553	2.536	3.815	5.265	2.362	363.281
-2.046	-4.871	-5.519	-2.152	-0.462	-2.676	2.624	-0.947	0.313	3.350	3.460	1.869	6.107	4.727	-2.390	-1.672	-1.629	-4.327	0.823	0.524	4.022	3.358	2.496	6.400	2.416	3.670	5.143	2.220	367.188
-1.996	-4.744	-5.567	-2.064	-0.512	-2.545	2.604	-0.848	0.271	3.324	3.437	1.808	5.968	4.595	-2.373	-1.553	-1.677	-4.297	0.784	0.649	3.949	3.218	2.447	6.282	2.302	3.552	5.057	2.108	371.094
-2.038	-4.649	-5.646	-2.000	-0.589	-2.420	2.591	-0.688	0.303	3.317	3.450	1.736	5.828	4.432	-2.438	-1.471	-1.731	-4.228	0.736	0.706	3.827	3.120	2.415	6.213	2.211	3.480	5.016	2.042	375.000
-2.173	-4.586	-5.745	-1.960	-0.692	-2.325	2.570	-0.486	0.402	3.319	3.496	1.661	5.689	4.244	-2.584	-1.422	-1.789	-4.127	0.673	0.701	3.666	3.064	2.400	6.193	2.161	3.467	5.022	2.036	378.906
-2.386	-4.548	-5.843	-1.941	-0.818	-2.287	2.533	-0.268	0.555	3.319	3.566	1.591	5.551	4.039	-2.801	-1.397	-1.845	-3.999	0.593	0.648	3.479	3.042	2.396	6.216	2.161	3.516	5.067	2.093	382.812
-2.652	-4.527	-5.918	-1.939	-0.963	-2.326	2.473	-0.063	0.740	3.305	3.642	1.530	5.413	3.828	-3.063	-1.384	-1.891	-3.846	0.498	0.565	3.283	3.036	2.395	6.264	2.211	3.619	5.135	2.206	386.719
-2.935	-4.513	-5.950	-1.943	-1.118	-2.444	2.386	0.099	0.930	3.265	3.704	1.484	5.275	3.628	-3.335	-1.367	-1.912	-3.673	0.396	0.473	3.097	3.029	2.387	6.316	2.298	3.755	5.203	2.358	390.625
-3.195	-4.495	-5.926	-1.942	-1.268	-2.628	2.279	0.189	1.095	3.193	3.733	1.450	5.141	3.453	-3.576	-1.331	-1.895	-3.487	0.300	0.393	2.939	3.006	2.366	6.349	2.404	3.898	5.249	2.519	394.531
-3.393	-4.463	-5.841	-1.920	-1.398	-2.845	2.161	0.188	1.204	3.086	3.710	1.425	5.014	3.319	-3.746	-1.264	-1.831	-3.300	0.223	0.341	2.824	2.958	2.328	6.343	2.504	4.017	5.253	2.656	398.438
-3.497	-4.407	-5.698	-1.867	-1.489	-3.051	2.050	0.087	1.235	2.950	3.626	1.398	4.904	3.239	-3.811	-1.159	-1.713	-3.128	0.175	0.330	2.763	2.889	2.274	6.288	2.571	4.083	5.200	2.734	402.344
-3.488	-4.319	-5.509	-1.776	-1.526	-3.200	1.963	-0.108	1.170	2.793	3.475	1.356	4.821	3.221	-3.749	-1.014	-1.539	-2.989	0.167	0.366	2.763	2.807	2.209	6.184	2.585	4.076	5.086	2.723	406.250
-3.361	-4.192	-5.287	-1.644	-1.496	-3.257	1.920	-0.383	1.004	2.629	3.263	1.287	4.775	3.272	-3.554	-0.829	-1.314	-2.902	0.202	0.452	2.826	2.728	2.136	6.037	2.531	3.983	4.917	2.605	410.156
-3.128	-4.024	-5.050	-1.473	-1.394	-3.203	1.932	-0.711	0.744	2.474	3.003	1.181	4.778	3.391	-3.237	-0.612	-1.047	-2.881	0.281	0.585	2.953	2.667	2.062	5.860	2.401	3.799	4.702	2.376	414.062
-2.810	-3.813	-4.807	-1.270	-1.220	-3.041	2.004	-1.065	0.408	2.343	2.715	1.037	4.838	3.576	-2.827	-0.370	-0.750	-2.929	0.399	0.761	3.140	2.636	1.990	5.671	2.194	3.532	4.461	2.047	417.969
-2.440	-3.566	-4.569	-1.044	-0.983	-2.796	2.133	-1.414	0.024	2.250	2.427	0.861	4.958	3.820	-2.365	-0.115	-0.437	-3.040	0.550	0.974	3.382	2.642	1.918	5.484	1.915	3.195	4.211	1.647	421.875
-2.053	-3.293	-4.340	-0.809	-0.696	-2.506	2.308	-1.732	-0.374	2.206	2.171	0.674	5.139	4.109	-1.896	0.139	-0.122	-3.196	0.725	1.211	3.667	2.678	1.844	5.310	1.570	2.808	3.971	1.215	425.781
-1.684	-3.012	-4.126	-0.580	-0.379	-2.216	2.514	-1.995	-0.747	2.221	1.979	0.503	5.372	4.430	-1.468	0.378	0.180	-3.375	0.911	1.462	3.979	2.735	1.759	5.158	1.172	2.396	3.757	0.795	429.688
-1.362	-2.741	-3.932	-0.370	-0.052	-1.967	2.737	-2.189	-1.059	2.300	1.880	0.383	5.649	4.767	-1.118	0.590	0.453	-3.553	1.094	1.709	4.301	2.795	1.657	5.027	0.731	1.982	3.582	0.431	433.594
-1.106	-2.502	-3.765	-0.191	0.265	-1.783	2.964	-2.304	-1.280	2.445	1.895	0.346	5.956	5.101	-0.872	0.761	0.686	-3.713	1.260	1.937	4.613	2.840	1.529	4.917	0.261	1.589	3.454	0.158	437.500
-0.923	-2.308	-3.633	-0.048	0.556	-1.676	3.187	-2.336	-1.393	2.653	2.028	0.416	6.278	5.418	-0.734	0.883	0.868	-3.852	1.392	2.128	4.897	2.855	1.371	4.821	-0.224	1.232	3.376	-0.007	441.406
-0.814	-2.170	-3.540	0.054	0.809	-1.638	3.403	-2.289	-1.391	2.911	2.273	0.601	6.600	5.703	-0.694	0.953	0.993	-3.974	1.478	2.269	5.136	2.831	1.184	4.734	-0.707	0.925	3.348	-0.058	445.312
-0.766	-2.091	-3.492	0.118	1.016	-1.651	3.609	-2.168	-1.286	3.204	2.602	0.892	6.904	5.943	-0.729	0.970	1.059	-4.093	1.508	2.349	5.316	2.767	0.974	4.651	-1.170	0.670	3.362	-0.009	449.219
-0.766	-2.064	-3.483	0.145	1.176	-1.688	3.808	-1.986	-1.097	3.505	2.978	1.258	7.174	6.130	-0.806	0.938	1.068	-4.225	1.480	2.361	5.431	2.670	0.754	4.570	-1.593	0.470	3.408	0.115	453.125
-0.793	-2.078	-3.505	0.141	1.289	-1.720	3.999	-1.755	-0.855	3.789	3.356	1.655	7.392	6.256	-0.897	0.861	1.024	-4.381	1.396	2.304	5.475	2.551	0.540	4.491	-1.954	0.322	3.470	0.282	457.031
-0.830	-2.121	-3.543	0.110	1.361	-1.721	4.178	-1.491	-0.591	4.026	3.689	2.027	7.543	6.317	-0.978	0.746	0.933	-4.564	1.266	2.179	5.452	2.424	0.352	4.414	-2.235	0.224	3.528	0.455	460.938
-0.860	-2.181	-3.579	0.058	1.400	-1.666	4.342	-1.208	-0.334	4.192	3.937	2.322	7.613	6.313	-1.038	0.595	0.802	-4.770	1.103	1.993	5.366	2.304	0.207	4.346	-2.417	0.173	3.562	0.601	464.844
-0.872	-2.248	-3.603	-0.010	1.414	-1.545	4.481	-0.923	-0.108	4.270	4.073	2.496	7.597	6.246	-1.073	0.412	0.640	-4.985	0.922	1.758	5.229	2.203	0.120	4.289	-2.489	0.168	3.556	0.697	468.750
-0.862	-2.320	-3.612	-0.090	1.412	-1.358	4.589	-0.651	0.073	4.257	4.088	2.527	7.496	6.126	-1.090	0.200	0.453	-5.193	0.743	1.488	5.054	2.130	0.103	4.251	-2.442	0.213	3.502	0.731	472.656
-0.834	-2.401	-3.616	-0.181	1.399	-1.121	4.657	-0.408	0.206	4.161	3.988	2.415	7.322	5.965	-1.100	-0.036	0.252	-5.379	0.583	1.200	4.857	2.091	0.161	4.239	-2.277	0.310	3.404	0.705	476.562
-0.801	-2.496	-3.629	-0.284	1.376	-0.864	4.683	-0.209	0.294	3.999	3.799	2.187	7.097	5.779	-1.116	-0.286	0.046	-5.534	0.457	0.915	4.657	2.092	0.291	4.261	-2.004	0.466	3.278	0.636	480.469
-0.778	-2.611	-3.667	-0.400	1.339	-0.623	4.666	-0.066	0.346	3.801	3.555	1.887	6.849	5.586	-1.148	-0.540	-0.152	-5.652	0.377	0.652	4.467	2.134	0.486	4.321	-1.637	0.685	3.148	0.552	484.375
-0.784	-2.750	-3.745	-0.531	1.286	-0.434	4.613	0.012	0.375	3.597	3.298	1.571	6.608	5.402	-1.202	-0.781	-0.332	-5.737	0.350	0.432	4.302	2.219	0.730	4.424	-1.201	0.968	3.043	0.485	488.281
-0.835	-2.913	-3.870	-0.676	1.212	-0.326	4.532	0.021	0.392	3.419	3.069	1.296	6.405	5.245	-1.281	-0.993	-0.484	-5.800	0.374	0.267	4.169	2.343	1.004	4.569	-0.726	1.308	2.989	0.466	492.188
-0.944	-3.092	-4.039	-0.831	1.121	-0.311	4.439	-0.036	0.407	3.293	2.904	1.106	6.264	5.126	-1.385	-1.164	-0.600	-5.855	0.440	0.166	4.075	2.500	1.280	4.748	-0.244	1.693	3.003	0.520	496.094
-1.114	-3.276	-4.242	-0.988	1.018	-0.386	4.349	-0.146	0.428	3.237	2.822	1.030	6.198	5.053	-1.509	-1.281	-0.679	-5.916	0.532	0.129	4.022	2.679	1.532	4.948	0.208	2.098	3.091	0.659	500.000
-1.341	-3.451	-4.462	-1.134	0.915	-0.530	4.276	-0.289	0.459	3.255	2.831	1.071	6.212	5.029	-1.650	-1.340	-0.722	-5.998	0.629	0.153	4.009	2.865	1.731	5.152	0.597	2.497	3.244	0.877	503.906
-1.609	-3.600	-4.677	-1.256	0.829	-0.712	4.230	-0.441	0.502	3.343	2.919	1.208	6.296	5.051	-1.800	-1.341	-0.733	-6.108	0.707	0.226	4.035	3.042	1.858	5.339	0.897	2.857	3.439	1.152	507.812
-1.897	-3.704	-4.866	-1.340	0.773	-0.894	4.213	-0.577	0.553	3.480	3.056	1.402	6.432	5.111	-1.949	-1.291	-0.721	-6.248	0.746	0.336	4.095	3.194	1.900	5.490	1.088	3.149	3.645	1.449	511.719
-2.173	-3.750	-5.008	-1.374	0.756	-1.044	4.218	-0.675	0.608	3.638	3.205	1.601	6.596	5.197	-2.088	-1.198	-0.695	-6.409	0.733	0.468	4.182	3.312	1.859	5.591	1.167	3.349	3.829	1.723	515.625
-2.410	-3.730	-5.092	-1.351	0.782	-1.136	4.234	-0.722	0.656	3.784	3.324	1.755	6.757	5.295	-2.203	-1.076	-0.660	-6.574	0.668	0.608	4.287	3.391	1.747	5.633	1.142	3.446	3.958	1.933	519.531
-2.581	-3.643	-5.114	-1.269	0.845	-1.161	4.245	-0.714	0.687	3.885	3.376	1.824	6.890	5.386	-2.283	-0.937	-0.621	-6.720	0.558	0.743	4.401	3.434	1.589	5.615	1.031	3.442	4.012	2.047	523.438
-2.667	-3.495	-5.080	-1.133	0.934	-1.122	4.233	-0.657	0.690	3.913	3.335	1.783	6.972	5.453	-2.319	-0.791	-0.579	-6.825	0.424	0.867	4.511	3.451	1.413	5.542	0.863	3.351	3.981	2.045	527.344
-2.662	-3.300	-5.001	-0.953	1.034	-1.035	4.189	-0.568	0.654	3.851	3.192	1.632	6.988	5.485	-2.302	-0.648	-0.531	-6.868	0.290	0.974	4.607	3.456	1.249	5.424	0.669	3.194	3.867	1.930	531.250
-2.568	-3.078	-4.889	-0.743	1.131	-0.921	4.103	-0.469	0.572	3.694	2.953	1.386	6.932	5.471	-2.229	-0.511	-0.472	-6.836	0.183	1.067	4.679	3.462	1.122	5.272	0.474	2.998	3.685	1.716	535.156
-2.397	-2.848	-4.754	-0.519	1.210	-0.799	3.973	-0.387	0.436	3.449	2.639	1.075	6.803	5.410	-2.098	-0.382	-0.397	-6.723	0.126	1.149	4.721	3.478	1.048	5.097	0.299	2.788	3.455	1.432	539.062
-2.165	-2.627	-4.602	-0.298	1.262	-0.688	3.802	-0.347	0.243	3.134	2.276	0.735	6.607	5.304	-1.910	-0.261	-0.301	-6.533	0.134	1.227	4.729	3.511	1.032	4.906	0.155	2.584	3.198	1.112	542.969
-1.890	-2.429	-4.431	-0.096	1.282	-0.596	3.594	-0.371	-0.005	2.769	1.893	0.398	6.354	5.161	-1.671	-0.146	-0.181	-6.270	0.212	1.308	4.705	3.559	1.069	4.704	0.045	2.399	2.933	0.789	546.875
-1.592	-2.264	-4.237	0.075	1.269	-0.530	3.355	-0.469	-0.303	2.380	1.515	0.090	6.056	4.990	-1.387	-0.038	-0.038	-5.947	0.354	1.395	4.651	3.618	1.146	4.496	-0.036	2.241	2.675	0.489	550.781
-1.287	-2.134	-4.014	0.204	1.222	-0.488	3.093	-0.640	-0.639	1.988	1.165	-0.171	5.726	4.801	-1.070	0.059	0.126	-5.574	0.542	1.486	4.571	3.677	1.247	4.283	-0.096	2.111	2.431	0.231	554.688
-0.988	-2.040	-3.762	0.284	1.145	-0.464	2.814	-0.871	-0.992	1.614	0.857	-0.378	5.380	4.600	-0.734	0.137	0.300	-5.165	0.753	1.570	4.467	3.727	1.353	4.067	-0.143	2.009	2.204	0.024	558.594
-0.705	-1.979	-3.480	0.313	1.040	-0.455	2.530	-1.134	-1.336	1.271	0.603	-0.532	5.027	4.391	-0.396	0.185	0.474	-4.729	0.960	1.631	4.338	3.757	1.451	3.850	-0.182	1.932	1.990	-0.133	562.500
-0.444	-1.949	-3.176	0.294	0.908	-0.455	2.249	-1.394	-1.640	0.971	0.411	-0.638	4.680	4.173	-0.071	0.191	0.631	-4.276	1.137	1.650	4.180	3.757	1.532	3.635	-0.217	1.878	1.785	-0.245	566.406
-0.208	-1.945	-2.858	0.230	0.747	-0.467	1.984	-1.615	-1.875	0.721	0.288	-0.704	4.344	3.942	0.223	0.143	0.756	-3.812	1.259	1.607	3.988	3.723	1.590	3.423	-0.245	1.845	1.586	-0.321	570.312
-0.002	-1.965	-2.542	0.130	0.555	-0.494	1.745	-1.765	-2.019	0.526	0.237	-0.738	4.027	3.694	0.472	0.037	0.837	-3.343	1.310	1.488	3.757	3.653	1.625	3.218	-0.260	1.831	1.391	-0.372	574.219
0.169	-2.008	-2.248	0.005	0.333	-0.541	1.545	-1.820	-2.057	0.391	0.260	-0.747	3.738	3.433	0.663	-0.128	0.864	-2.878	1.282	1.288	3.489	3.550	1.641	3.025	-0.256	1.837	1.205	-0.403	578.125
0.300	-2.073	-1.995	-0.138	0.082	-0.615	1.396	-1.776	-1.990	0.318	0.351	-0.737	3.488	3.166	0.789	-0.344	0.834	-2.428	1.176	1.014	3.194	3.423	1.641	2.853	-0.222	1.863	1.036	-0.418	582.031
0.383	-2.162	-1.806	-0.290	-0.187	-0.715	1.309	-1.642	-1.830	0.308	0.505	-0.710	3.289	2.907	0.845	-0.595	0.750	-2.008	1.003	0.685	2.887	3.282	1.632	2.714	-0.151	1.909	0.899	-0.416	585.938
0.412	-2.276	-1.697	-0.446	-0.461	-0.839	1.290	-1.442	-1.599	0.362	0.709	-0.665	3.159	2.677	0.832	-0.861	0.619	-1.639	0.779	0.328	2.591	3.139	1.620	2.622	-0.037	1.979	0.810	-0.394	589.844
0.385	-2.415	-1.678	-0.607	-0.720	-0.983	1.339	-1.209	-1.328	0.479	0.948	-0.600	3.110	2.496	0.753	-1.121	0.453	-1.340	0.531	-0.024	2.330	3.005	1.610	2.590	0.121	2.076	0.788	-0.346	593.750
0.302	-2.580	-1.747	-0.778	-0.949	-1.138	1.453	-0.975	-1.046	0.655	1.205	-0.510	3.151	2.381	0.616	-1.354	0.266	-1.127	0.284	-0.340	2.125	2.889	1.602	2.627	0.318	2.201	0.848	-0.265	597.656
0.168	-2.768	-1.894	-0.961	-1.130	-1.295	1.622	-0.770	-0.783	0.881	1.463	-0.394	3.283	2.340	0.431	-1.548	0.071	-1.006	0.065	-0.595	1.990	2.797	1.598	2.739	0.546	2.358	0.999	-0.148	601.562
-0.007	-2.972	-2.095	-1.160	-1.253	-1.439	1.832	-0.614	-0.558	1.149	1.708	-0.250	3.498	2.373	0.207	-1.697	-0.118	-0.975	-0.109	-0.775	1.927	2.731	1.595	2.919	0.787	2.544	1.240	0.005	605.469
-0.210	-3.180	-2.322	-1.370	-1.313	-1.554	2.068	-0.514	-0.384	1.442	1.928	-0.084	3.776	2.466	-0.044	-1.801	-0.291	-1.022	-0.227	-0.879	1.928	2.690	1.587	3.152	1.019	2.752	1.562	0.192	609.375
-0.426	-3.380	-2.547	-1.581	-1.310	-1.623	2.314	-0.466	-0.264	1.744	2.115	0.097	4.093	2.601	-0.309	-1.872	-0.446	-1.131	-0.292	-0.916	1.978	2.667	1.570	3.417	1.221	2.972	1.943	0.405	613.281
-0.639	-3.553	-2.742	-1.775	-1.251	-1.631	2.556	-0.457	-0.192	2.035	2.267	0.286	4.421	2.751	-0.574	-1.921	-0.583	-1.283	-0.316	-0.905	2.055	2.655	1.537	3.686	1.371	3.187	2.354	0.634	617.188
-0.834	-3.687	-2.886	-1.930	-1.147	-1.569	2.781	-0.468	-0.158	2.297	2.386	0.472	4.728	2.890	-0.822	-1.962	-0.710	-1.459	-0.322	-0.871	2.133	2.644	1.482	3.927	1.454	3.382	2.758	0.868	621.094
-0.993	-3.767	-2.966	-2.027	-1.013	-1.437	2.976	-0.479	-0.149	2.515	2.476	0.648	4.985	2.994	-1.037	-2.007	-0.835	-1.638	-0.336	-0.834	2.191	2.626	1.401	4.116	1.465	3.540	3.119	1.096	625.000
-1.104	-3.788	-2.972	-2.054	-0.868	-1.249	3.130	-0.475	-0.152	2.673	2.542	0.808	5.171	3.044	-1.200	-2.059	-0.969	-1.804	-0.379	-0.816	2.210	2.594	1.294	4.231	1.408	3.648	3.402	1.306	628.906
-1.156	-3.749	-2.899	-2.009	-0.733	-1.032	3.230	-0.447	-0.159	2.763	2.588	0.944	5.266	3.026	-1.297	-2.119	-1.116	-1.937	-0.468	-0.826	2.176	2.548	1.165	4.262	1.296	3.697	3.580	1.485	632.812
-1.142	-3.654	-2.748	-1.900	-0.627	-0.817	3.267	-0.393	-0.169	2.776	2.614	1.052	5.261	2.935	-1.318	-2.178	-1.274	-2.022	-0.603	-0.871	2.087	2.493	1.023	4.206	1.151	3.685	3.640	1.624	636.719
-1.061	-3.515	-2.525	-1.747	-0.565	-0.637	3.230	-0.320	-0.182	2.713	2.618	1.127	5.156	2.773	-1.258	-2.224	-1.435	-2.048	-0.775	-0.944	1.945	2.435	0.883	4.072	0.995	3.613	3.577	1.711	640.625
-0.918	-3.344	-2.240	-1.571	-0.555	-0.520	3.115	-0.241	-0.205	2.577	2.597	1.164	4.959	2.551	-1.123	-2.243	-1.582	-2.011	-0.962	-1.033	1.764	2.384	0.758	3.876	0.848	3.485	3.403	1.738	644.531
-0.723	-3.157	-1.913	-1.399	-0.596	-0.479	2.923	-0.169	-0.242	2.381	2.550	1.161	4.686	2.287	-0.924	-2.221	-1.700	-1.915	-1.136	-1.123	1.562	2.345	0.659	3.635	0.725	3.305	3.137	1.698	648.438
-0.494	-2.970	-1.569	-1.250	-0.677	-0.515	2.666	-0.114	-0.294	2.145	2.480	1.118	4.362	2.006	-0.679	-2.149	-1.773	-1.770	-1.270	-1.196	1.364	2.318	0.592	3.370	0.629	3.081	2.809	1.590	652.344
-0.251	-2.799	-1.237	-1.138	-0.781	-0.614	2.366	-0.080	-0.356	1.896	2.395	1.043	4.017	1.732	-0.412	-2.026	-1.792	-1.594	-1.347	-1.236	1.190	2.298	0.555	3.099	0.559	2.818	2.448	1.418	656.250
-0.012	-2.653	-0.944	-1.070	-0.884	-0.750	2.050	-0.066	-0.418	1.661	2.307	0.944	3.684	1.491	-0.144	-1.859	-1.757	-1.403	-1.360	-1.235	1.058	2.273	0.539	2.836	0.503	2.525	2.085	1.194	660.156
0.207	-2.538	-0.706	-1.040	-0.962	-0.893	1.752	-0.067	-0.470	1.466	2.230	0.831	3.393	1.305	0.105	-1.662	-1.677	-1.215	-1.312	-1.189	0.978	2.229	0.532	2.593	0.448	2.210	1.743	0.931	664.062
0.400	-2.453	-0.529	-1.035	-0.994	-1.016	1.499	-0.078	-0.505	1.329	2.170	0.714	3.171	1.187	0.326	-1.455	-1.564	-1.041	-1.219	-1.102	0.953	2.154	0.521	2.376	0.381	1.885	1.442	0.646	667.969
0.570	-2.390	-0.405	-1.041	-0.969	-1.100	1.311	-0.095	-0.525	1.254	2.129	0.598	3.031	1.144	0.517	-1.253	-1.436	-0.889	-1.099	-0.979	0.982	2.037	0.497	2.188	0.292	1.560	1.190	0.353	671.875
0.727	-2.337	-0.315	-1.040	-0.886	-1.134	1.196	-0.119	-0.542	1.233	2.095	0.480	2.976	1.173	0.687	-1.073	-1.304	-0.758	-0.972	-0.827	1.059	1.878	0.459	2.028	0.176	1.249	0.991	0.064	675.781
0.884	-2.281	-0.234	-1.020	-0.750	-1.119	1.147	-0.158	-0.576	1.244	2.047	0.353	2.998	1.265	0.851	-0.920	-1.178	-0.642	-0.852	-0.656	1.176	1.682	0.407	1.893	0.035	0.963	0.840	-0.213	679.688
1.052	-2.211	-0.144	-0.973	-0.576	-1.059	1.146	-0.221	-0.652	1.259	1.959	0.207	3.081	1.406	1.024	-0.797	-1.062	-0.534	-0.748	-0.469	1.327	1.465	0.351	1.782	-0.121	0.714	0.733	-0.473	683.594
1.233	-2.122	-0.035	-0.898	-0.383	-0.966	1.172	-0.318	-0.791	1.252	1.806	0.032	3.200	1.579	1.218	-0.700	-0.953	-0.426	-0.662	-0.274	1.503	1.250	0.300	1.694	-0.281	0.514	0.662	-0.711	687.500
1.420	-2.016	0.088	-0.801	-0.189	-0.851	1.202	-0.457	-1.005	1.199	1.572	-0.175	3.334	1.767	1.435	-0.622	-0.850	-0.311	-0.589	-0.071	1.699	1.060	0.266	1.630	-0.426	0.373	0.626	-0.920	691.406
1.598	-1.898	0.207	-0.692	-0.012	-0.731	1.218	-0.639	-1.292	1.094	1.258	-0.410	3.460	1.957	1.667	-0.554	-0.749	-0.188	-0.523	0.136	1.910	0.922	0.254	1.593	-0.542	0.302	0.623	-1.091	695.312
1.743	-1.784	0.296	-0.582	0.134	-0.622	1.211	-0.856	-1.631	0.938	0.880	-0.660	3.563	2.136	1.898	-0.489	-0.652	-0.055	-0.457	0.344	2.126	0.853	0.267	1.587	-0.616	0.306	0.652	-1.215	699.219
1.833	-1.689	0.330	-0.484	0.242	-0.540	1.182	-1.091	-1.991	0.751	0.472	-0.906	3.634	2.294	2.107	-0.425	-0.562	0.084	-0.387	0.550	2.341	0.859	0.298	1.614	-0.641	0.383	0.714	-1.284	703.125
1.852	-1.629	0.294	-0.409	0.311	-0.497	1.141	-1.318	-2.326	0.557	0.075	-1.127	3.670	2.424	2.277	-0.360	-0.484	0.225	-0.318	0.750	2.544	0.936	0.338	1.669	-0.619	0.523	0.803	-1.299	707.031
1.796	-1.614	0.188	-0.360	0.345	-0.497	1.102	-1.507	-2.595	0.385	-0.266	-1.308	3.672	2.523	2.397	-0.296	-0.425	0.362	-0.257	0.937	2.722	1.065	0.373	1.745	-0.562	0.707	0.910	-1.269	710.938
1.674	-1.649	0.026	-0.337	0.357	-0.535	1.082	-1.633	-2.758	0.259	-0.514	-1.435	3.649	2.589	2.468	-0.235	-0.390	0.486	-0.214	1.105	2.867	1.219	0.387	1.830	-0.487	0.909	1.021	-1.209	714.844
1.505	-1.729	-0.165	-0.330	0.361	-0.599	1.091	-1.677	-2.795	0.196	-0.642	-1.507	3.608	2.622	2.498	-0.181	-0.378	0.592	-0.196	1.249	2.971	1.370	0.370	1.912	-0.415	1.099	1.118	-1.141	718.750
1.317	-1.840	-0.357	-0.328	0.367	-0.674	1.131	-1.634	-2.704	0.202	-0.646	-1.529	3.561	2.627	2.501	-0.132	-0.385	0.674	-0.206	1.368	3.031	1.492	0.317	1.980	-0.364	1.248	1.188	-1.090	722.656
1.136	-1.964	-0.526	-0.318	0.383	-0.745	1.194	-1.513	-2.503	0.267	-0.539	-1.510	3.515	2.608	2.494	-0.087	-0.400	0.732	-0.235	1.462	3.051	1.570	0.230	2.027	-0.346	1.336	1.220	-1.072	726.562
0.984	-2.082	-0.656	-0.290	0.409	-0.804	1.267	-1.341	-2.230	0.375	-0.347	-1.464	3.480	2.573	2.490	-0.040	-0.409	0.771	-0.266	1.536	3.038	1.603	0.123	2.056	-0.365	1.354	1.214	-1.097	730.469
0.873	-2.178	-0.747	-0.244	0.438	-0.848	1.329	-1.150	-1.930	0.502	-0.110	-1.404	3.463	2.530	2.497	0.012	-0.398	0.795	-0.278	1.596	3.002	1.600	0.015	2.077	-0.414	1.307	1.176	-1.162	734.375
0.806	-2.243	-0.808	-0.184	0.459	-0.882	1.366	-0.979	-1.651	0.629	0.137	-1.336	3.471	2.488	2.515	0.073	-0.357	0.810	-0.251	1.645	2.954	1.580	-0.070	2.102	-0.478	1.212	1.126	-1.254	738.281
0.776	-2.277	-0.857	-0.121	0.459	-0.911	1.368	-0.858	-1.431	0.739	0.361	-1.263	3.510	2.456	2.541	0.139	-0.286	0.817	-0.172	1.684	2.901	1.566	-0.111	2.151	-0.535	1.096	1.086	-1.350	742.188
0.768	-2.287	-0.914	-0.071	0.430	-0.946	1.337	-0.807	-1.289	0.830	0.546	-1.179	3.586	2.441	2.567	0.203	-0.192	0.810	-0.043	1.709	2.848	1.574	-0.088	2.237	-0.567	0.987	1.082	-1.423	746.094
0.768	-2.285	-0.994	-0.047	0.366	-0.993	1.286	-0.828	-1.228	0.909	0.687	-1.071	3.701	2.448	2.582	0.252	-0.093	0.775	0.121	1.713	2.798	1.613	0.003	2.371	-0.558	0.912	1.137	-1.449	750.000
0.763	-2.284	-1.101	-0.058	0.267	-1.058	1.234	-0.910	-1.231	0.991	0.796	-0.928	3.858	2.481	2.579	0.272	-0.012	0.693	0.291	1.688	2.750	1.682	0.155	2.553	-0.502	0.887	1.266	-1.408	753.906
0.746	-2.297	-1.232	-0.109	0.141	-1.141	1.205	-1.027	-1.270	1.095	0.892	-0.738	4.053	2.539	2.552	0.253	0.028	0.551	0.437	1.629	2.704	1.766	0.350	2.775	-0.404	0.917	1.471	-1.295	757.812
0.717	-2.331	-1.375	-0.193	-0.002	-1.238	1.217	-1.150	-1.315	1.238	0.996	-0.496	4.280	2.620	2.500	0.190	0.010	0.344	0.528	1.537	2.661	1.848	0.557	3.019	-0.278	0.992	1.742	-1.116	761.719
0.677	-2.385	-1.516	-0.299	-0.143	-1.339	1.280	-1.253	-1.340	1.424	1.125	-0.209	4.525	2.719	2.425	0.086	-0.072	0.081	0.545	1.419	2.624	1.912	0.747	3.266	-0.146	1.090	2.055	-0.887	765.625
0.636	-2.458	-1.643	-0.414	-0.263	-1.426	1.390	-1.320	-1.333	1.647	1.284	0.108	4.772	2.833	2.335	-0.047	-0.211	-0.206	0.487	1.291	2.600	1.944	0.893	3.491	-0.029	1.185	2.379	-0.635	769.531
0.599	-2.541	-1.752	-0.523	-0.343	-1.478	1.532	-1.346	-1.294	1.889	1.466	0.430	5.002	2.957	2.237	-0.189	-0.391	-0.477	0.367	1.174	2.599	1.944	0.977	3.678	0.053	1.246	2.674	-0.389	773.438
0.574	-2.629	-1.846	-0.615	-0.366	-1.470	1.686	-1.338	-1.236	2.124	1.659	0.730	5.196	3.086	2.139	-0.322	-0.586	-0.684	0.211	1.090	2.630	1.917	0.994	3.814	0.088	1.251	2.908	-0.177	777.344
0.562	-2.715	-1.935	-0.683	-0.320	-1.382	1.827	-1.309	-1.178	2.328	1.841	0.984	5.343	3.219	2.048	-0.429	-0.774	-0.785	0.051	1.054	2.700	1.874	0.949	3.899	0.072	1.184	3.054	-0.018	781.250
0.564	-2.796	-2.030	-0.727	-0.204	-1.202	1.936	-1.275	-1.136	2.483	1.997	1.177	5.436	3.357	1.967	-0.498	-0.933	-0.757	-0.086	1.075	2.812	1.827	0.855	3.938	0.011	1.042	3.101	0.079	785.156
0.578	-2.872	-2.143	-0.751	-0.023	-0.932	2.005	-1.250	-1.122	2.583	2.119	1.308	5.481	3.498	1.898	-0.529	-1.055	-0.599	-0.184	1.150	2.961	1.785	0.730	3.941	-0.084	0.833	3.057	0.118	789.062
0.599	-2.944	-2.278	-0.761	0.205	-0.590	2.037	-1.241	-1.137	2.636	2.210	1.390	5.491	3.644	1.837	-0.529	-1.143	-0.336	-0.239	1.267	3.140	1.754	0.589	3.925	-0.202	0.575	2.944	0.112	792.969
0.624	-3.012	-2.428	-0.764	0.456	-0.209	2.043	-1.246	-1.175	2.660	2.279	1.444	5.483	3.793	1.780	-0.510	-1.206	-0.013	-0.263	1.407	3.334	1.733	0.448	3.903	-0.328	0.292	2.795	0.083	796.875
