FP1	F3	F7	FC3	C3	C5	P3	P7	PO7	PO3	O1	Oz	Pz	CPz	FP2	Fz	F4	F8	FC4	FCz	Cz	C4	C6	P4	P8	PO8	PO4	O2	time
0.122	-0.296	0.354	-0.908	-0.050	0.003	-0.014	0.544	0.074	0.229	0.241	1.067	0.566	0.386	-1.115	-0.018	-0.316	-1.231	-0.175	0.226	-0.015	0.958	0.306	0.416	-0.245	-0.048	1.054	0.570	-199.219
0.081	-0.117	0.293	-0.595	0.082	0.350	-0.371	0.151	-0.442	-0.323	-0.114	0.738	0.367	0.322	-0.798	0.166	-0.026	-1.207	0.192	0.365	0.152	0.969	0.402	0.531	-0.206	0.115	0.829	0.618	-195.312
0.044	0.028	0.208	-0.314	0.196	0.636	-0.679	-0.224	-0.911	-0.814	-0.432	0.442	0.202	0.278	-0.501	0.325	0.238	-1.180	0.522	0.496	0.314	0.993	0.499	0.651	-0.160	0.270	0.638	0.656	-191.406
0.015	0.118	0.082	-0.090	0.285	0.821	-0.892	-0.556	-1.283	-1.188	-0.678	0.205	0.103	0.270	-0.245	0.438	0.450	-1.153	0.780	0.611	0.468	1.035	0.593	0.776	-0.105	0.401	0.503	0.672	-187.500
-0.001	0.145	-0.083	0.066	0.349	0.879	-0.976	-0.825	-1.521	-1.403	-0.829	0.041	0.086	0.306	-0.041	0.498	0.594	-1.132	0.941	0.705	0.609	1.091	0.676	0.897	-0.050	0.492	0.431	0.653	-183.594
-0.001	0.116	-0.273	0.157	0.394	0.811	-0.917	-1.011	-1.605	-1.439	-0.873	-0.048	0.158	0.386	0.104	0.508	0.664	-1.128	0.994	0.779	0.733	1.148	0.736	1.002	-0.007	0.527	0.412	0.585	-179.688
0.017	0.050	-0.461	0.197	0.436	0.639	-0.718	-1.101	-1.528	-1.298	-0.813	-0.073	0.306	0.499	0.189	0.481	0.665	-1.149	0.938	0.831	0.836	1.186	0.759	1.072	0.008	0.492	0.423	0.459	-175.781
0.052	-0.029	-0.618	0.209	0.491	0.409	-0.397	-1.087	-1.303	-1.003	-0.663	-0.053	0.511	0.629	0.221	0.434	0.604	-1.201	0.785	0.865	0.914	1.184	0.733	1.091	-0.021	0.381	0.435	0.275	-171.875
0.096	-0.097	-0.722	0.213	0.572	0.172	0.012	-0.971	-0.953	-0.591	-0.441	-0.007	0.742	0.756	0.208	0.383	0.493	-1.283	0.555	0.882	0.964	1.122	0.651	1.046	-0.102	0.200	0.419	0.041	-167.969
0.139	-0.140	-0.762	0.226	0.686	-0.017	0.469	-0.759	-0.512	-0.107	-0.170	0.046	0.970	0.862	0.158	0.339	0.341	-1.386	0.272	0.881	0.984	0.990	0.511	0.937	-0.234	-0.035	0.358	-0.220	-164.062
0.167	-0.154	-0.740	0.251	0.827	-0.121	0.934	-0.469	-0.018	0.401	0.128	0.098	1.170	0.930	0.083	0.302	0.157	-1.491	-0.038	0.860	0.972	0.789	0.324	0.770	-0.406	-0.297	0.247	-0.481	-160.156
0.167	-0.148	-0.672	0.283	0.978	-0.122	1.367	-0.125	0.488	0.891	0.433	0.145	1.321	0.954	-0.007	0.265	-0.052	-1.576	-0.350	0.813	0.928	0.533	0.104	0.566	-0.594	-0.553	0.099	-0.707	-156.250
0.132	-0.137	-0.580	0.310	1.113	-0.029	1.736	0.242	0.965	1.324	0.724	0.192	1.414	0.932	-0.103	0.219	-0.276	-1.617	-0.640	0.737	0.856	0.242	-0.125	0.350	-0.772	-0.770	-0.063	-0.866	-152.344
0.060	-0.137	-0.490	0.318	1.201	0.128	2.013	0.594	1.375	1.667	0.983	0.245	1.444	0.869	-0.194	0.154	-0.502	-1.590	-0.885	0.631	0.758	-0.053	-0.338	0.150	-0.909	-0.921	-0.211	-0.935	-148.438
-0.041	-0.162	-0.419	0.295	1.213	0.302	2.181	0.895	1.685	1.897	1.189	0.309	1.413	0.773	-0.273	0.064	-0.714	-1.478	-1.070	0.499	0.641	-0.323	-0.512	-0.009	-0.982	-0.988	-0.316	-0.902	-144.531
-0.157	-0.215	-0.378	0.241	1.132	0.445	2.226	1.110	1.867	1.997	1.324	0.386	1.324	0.652	-0.331	-0.047	-0.892	-1.275	-1.181	0.349	0.510	-0.541	-0.629	-0.113	-0.976	-0.965	-0.360	-0.771	-140.625
-0.267	-0.287	-0.367	0.162	0.951	0.514	2.145	1.215	1.906	1.958	1.371	0.472	1.182	0.515	-0.363	-0.169	-1.018	-0.981	-1.213	0.193	0.370	-0.688	-0.679	-0.156	-0.891	-0.859	-0.336	-0.558	-136.719
-0.354	-0.364	-0.372	0.072	0.680	0.484	1.939	1.200	1.801	1.784	1.322	0.561	0.992	0.367	-0.365	-0.285	-1.079	-0.612	-1.169	0.043	0.228	-0.759	-0.663	-0.144	-0.737	-0.690	-0.250	-0.289	-132.812
-0.402	-0.427	-0.374	-0.015	0.340	0.355	1.624	1.074	1.568	1.490	1.178	0.641	0.762	0.214	-0.339	-0.381	-1.069	-0.190	-1.061	-0.090	0.083	-0.758	-0.591	-0.095	-0.537	-0.483	-0.116	0.004	-128.906
-0.406	-0.461	-0.354	-0.087	-0.033	0.150	1.222	0.864	1.239	1.106	0.954	0.703	0.502	0.057	-0.288	-0.447	-0.994	0.250	-0.911	-0.205	-0.063	-0.703	-0.478	-0.027	-0.318	-0.266	0.042	0.292	-125.000
-0.367	-0.461	-0.298	-0.137	-0.401	-0.087	0.770	0.612	0.862	0.671	0.675	0.740	0.226	-0.103	-0.218	-0.483	-0.873	0.672	-0.746	-0.304	-0.216	-0.618	-0.345	0.040	-0.106	-0.063	0.203	0.548	-121.094
-0.299	-0.433	-0.199	-0.170	-0.729	-0.302	0.306	0.368	0.490	0.234	0.378	0.749	-0.047	-0.266	-0.139	-0.496	-0.731	1.037	-0.598	-0.397	-0.379	-0.532	-0.213	0.090	0.077	0.110	0.344	0.754	-117.188
-0.216	-0.390	-0.062	-0.196	-0.991	-0.447	-0.128	0.177	0.176	-0.161	0.101	0.730	-0.300	-0.433	-0.057	-0.504	-0.596	1.314	-0.495	-0.497	-0.557	-0.469	-0.101	0.114	0.216	0.247	0.451	0.899	-113.281
-0.136	-0.353	0.100	-0.228	-1.174	-0.491	-0.498	0.078	-0.039	-0.474	-0.118	0.689	-0.514	-0.600	0.020	-0.522	-0.495	1.479	-0.455	-0.616	-0.751	-0.448	-0.021	0.113	0.311	0.352	0.518	0.983	-109.375
-0.071	-0.341	0.269	-0.280	-1.281	-0.430	-0.781	0.087	-0.131	-0.679	-0.254	0.634	-0.678	-0.765	0.089	-0.566	-0.445	1.527	-0.487	-0.762	-0.958	-0.474	0.020	0.091	0.367	0.433	0.547	1.009	-105.469
-0.027	-0.364	0.428	-0.360	-1.328	-0.289	-0.967	0.199	-0.101	-0.770	-0.293	0.574	-0.783	-0.922	0.147	-0.644	-0.452	1.466	-0.582	-0.932	-1.170	-0.542	0.023	0.061	0.398	0.505	0.547	0.989	-101.562
-0.004	-0.424	0.559	-0.471	-1.337	-0.115	-1.063	0.388	0.029	-0.755	-0.238	0.516	-0.831	-1.060	0.192	-0.754	-0.510	1.319	-0.719	-1.117	-1.370	-0.634	-0.005	0.034	0.419	0.578	0.533	0.935	-97.656
0.005	-0.509	0.653	-0.603	-1.331	0.041	-1.085	0.611	0.219	-0.659	-0.109	0.467	-0.828	-1.169	0.223	-0.883	-0.601	1.118	-0.870	-1.298	-1.540	-0.726	-0.052	0.024	0.445	0.662	0.516	0.859	-93.750
0.012	-0.599	0.707	-0.743	-1.323	0.131	-1.056	0.819	0.421	-0.513	0.064	0.427	-0.787	-1.236	0.241	-1.013	-0.702	0.897	-0.999	-1.453	-1.658	-0.794	-0.107	0.036	0.485	0.757	0.505	0.773	-89.844
0.024	-0.670	0.720	-0.871	-1.317	0.134	-1.002	0.966	0.590	-0.353	0.245	0.397	-0.721	-1.249	0.248	-1.120	-0.785	0.687	-1.075	-1.557	-1.705	-0.817	-0.158	0.072	0.541	0.861	0.502	0.686	-85.938
0.046	-0.700	0.696	-0.966	-1.301	0.053	-0.942	1.018	0.688	-0.206	0.402	0.369	-0.641	-1.200	0.244	-1.185	-0.828	0.508	-1.074	-1.595	-1.667	-0.785	-0.196	0.127	0.611	0.963	0.504	0.603	-82.031
0.075	-0.679	0.637	-1.012	-1.257	-0.081	-0.886	0.960	0.699	-0.092	0.510	0.337	-0.557	-1.086	0.232	-1.194	-0.816	0.369	-0.984	-1.555	-1.538	-0.697	-0.217	0.189	0.687	1.050	0.500	0.526	-78.125
0.100	-0.605	0.541	-0.999	-1.163	-0.222	-0.834	0.799	0.623	-0.014	0.557	0.293	-0.470	-0.910	0.210	-1.141	-0.745	0.270	-0.807	-1.441	-1.325	-0.565	-0.224	0.243	0.758	1.108	0.480	0.455	-74.219
0.111	-0.486	0.410	-0.925	-0.998	-0.321	-0.779	0.560	0.481	0.031	0.543	0.228	-0.382	-0.684	0.179	-1.032	-0.620	0.201	-0.558	-1.266	-1.045	-0.409	-0.220	0.273	0.813	1.125	0.433	0.387	-70.312
0.099	-0.336	0.244	-0.794	-0.757	-0.339	-0.708	0.279	0.300	0.059	0.481	0.139	-0.292	-0.429	0.139	-0.878	-0.455	0.151	-0.264	-1.049	-0.723	-0.254	-0.213	0.266	0.844	1.094	0.353	0.317	-66.406
0.059	-0.169	0.052	-0.613	-0.447	-0.258	-0.608	-0.002	0.114	0.085	0.387	0.024	-0.200	-0.170	0.095	-0.692	-0.269	0.109	0.041	-0.813	-0.392	-0.124	-0.211	0.212	0.841	1.010	0.237	0.236	-62.500
-0.004	0.002	-0.148	-0.397	-0.089	-0.090	-0.473	-0.247	-0.050	0.121	0.279	-0.115	-0.113	0.065	0.051	-0.491	-0.081	0.072	0.325	-0.581	-0.083	-0.038	-0.220	0.110	0.801	0.873	0.089	0.140	-58.594
-0.077	0.170	-0.333	-0.159	0.280	0.131	-0.306	-0.431	-0.177	0.170	0.172	-0.271	-0.037	0.251	0.015	-0.284	0.095	0.045	0.558	-0.367	0.177	-0.006	-0.243	-0.037	0.721	0.690	-0.082	0.023	-54.688
-0.146	0.329	-0.478	0.083	0.620	0.350	-0.117	-0.546	-0.262	0.229	0.076	-0.433	0.016	0.374	-0.010	-0.081	0.250	0.036	0.725	-0.178	0.370	-0.024	-0.275	-0.218	0.603	0.469	-0.264	-0.112	-50.781
-0.195	0.477	-0.558	0.314	0.892	0.513	0.075	-0.593	-0.310	0.287	-0.006	-0.590	0.034	0.427	-0.017	0.114	0.382	0.055	0.820	-0.013	0.490	-0.081	-0.307	-0.416	0.452	0.220	-0.442	-0.260	-46.875
-0.212	0.610	-0.559	0.519	1.064	0.575	0.248	-0.587	-0.337	0.328	-0.079	-0.729	0.011	0.415	-0.008	0.300	0.493	0.108	0.853	0.132	0.542	-0.156	-0.329	-0.617	0.277	-0.043	-0.604	-0.410	-42.969
-0.192	0.726	-0.480	0.687	1.123	0.514	0.376	-0.550	-0.357	0.334	-0.154	-0.843	-0.056	0.352	0.016	0.475	0.592	0.197	0.842	0.268	0.541	-0.224	-0.330	-0.805	0.090	-0.305	-0.741	-0.553	-39.062
-0.138	0.822	-0.333	0.810	1.070	0.336	0.439	-0.505	-0.387	0.291	-0.243	-0.930	-0.167	0.260	0.051	0.640	0.686	0.320	0.812	0.402	0.509	-0.265	-0.299	-0.966	-0.093	-0.551	-0.848	-0.679	-35.156
-0.056	0.893	-0.141	0.889	0.922	0.072	0.420	-0.473	-0.438	0.188	-0.359	-0.993	-0.314	0.158	0.094	0.792	0.784	0.470	0.788	0.536	0.468	-0.260	-0.233	-1.091	-0.253	-0.767	-0.927	-0.786	-31.250
0.041	0.937	0.065	0.926	0.704	-0.233	0.314	-0.472	-0.515	0.023	-0.512	-1.043	-0.486	0.063	0.141	0.928	0.893	0.643	0.791	0.668	0.433	-0.202	-0.131	-1.173	-0.370	-0.937	-0.981	-0.872	-27.344
0.142	0.951	0.255	0.926	0.445	-0.530	0.125	-0.510	-0.616	-0.197	-0.700	-1.089	-0.670	-0.016	0.190	1.043	1.016	0.833	0.831	0.787	0.411	-0.092	0.002	-1.208	-0.430	-1.050	-1.012	-0.943	-23.438
0.238	0.936	0.402	0.898	0.173	-0.779	-0.128	-0.586	-0.733	-0.456	-0.911	-1.138	-0.852	-0.077	0.242	1.131	1.148	1.031	0.910	0.879	0.401	0.059	0.159	-1.195	-0.420	-1.098	-1.022	-1.005	-19.531
0.320	0.894	0.491	0.848	-0.090	-0.957	-0.418	-0.690	-0.850	-0.729	-1.125	-1.191	-1.021	-0.126	0.294	1.184	1.280	1.229	1.015	0.925	0.390	0.233	0.328	-1.133	-0.337	-1.082	-1.009	-1.061	-15.625
0.384	0.829	0.518	0.780	-0.331	-1.058	-0.707	-0.805	-0.945	-0.983	-1.309	-1.240	-1.163	-0.172	0.344	1.196	1.395	1.413	1.127	0.910	0.360	0.412	0.498	-1.025	-0.188	-1.006	-0.969	-1.111	-11.719
0.425	0.741	0.488	0.696	-0.545	-1.096	-0.956	-0.908	-0.999	-1.184	-1.434	-1.273	-1.269	-0.225	0.385	1.163	1.475	1.568	1.222	0.825	0.297	0.575	0.659	-0.875	0.017	-0.883	-0.894	-1.151	-7.812
0.440	0.630	0.414	0.593	-0.734	-1.095	-1.131	-0.978	-0.991	-1.301	-1.468	-1.269	-1.331	-0.291	0.408	1.081	1.502	1.681	1.274	0.668	0.187	0.706	0.801	-0.690	0.257	-0.729	-0.780	-1.170	-3.906
0.423	0.492	0.309	0.467	-0.903	-1.083	-1.209	-0.998	-0.908	-1.311	-1.390	-1.210	-1.344	-0.373	0.399	0.951	1.462	1.744	1.263	0.444	0.026	0.796	0.914	-0.479	0.515	-0.560	-0.624	-1.153	0.000
0.370	0.323	0.187	0.311	-1.061	-1.083	-1.179	-0.959	-0.745	-1.205	-1.194	-1.079	-1.307	-0.467	0.348	0.778	1.351	1.756	1.177	0.167	-0.180	0.840	0.990	-0.257	0.771	-0.387	-0.429	-1.086	3.906
0.276	0.117	0.053	0.123	-1.213	-1.109	-1.051	-0.861	-0.508	-0.991	-0.886	-0.872	-1.221	-0.569	0.244	0.567	1.170	1.720	1.016	-0.146	-0.420	0.836	1.025	-0.036	1.014	-0.218	-0.201	-0.956	7.812
0.140	-0.130	-0.087	-0.100	-1.365	-1.167	-0.848	-0.714	-0.212	-0.692	-0.487	-0.592	-1.092	-0.669	0.089	0.327	0.933	1.646	0.789	-0.477	-0.676	0.786	1.016	0.172	1.235	-0.052	0.050	-0.758	11.719
-0.036	-0.413	-0.234	-0.352	-1.518	-1.253	-0.601	-0.536	0.118	-0.344	-0.031	-0.254	-0.931	-0.761	-0.109	0.068	0.658	1.541	0.514	-0.809	-0.929	0.696	0.966	0.356	1.434	0.115	0.315	-0.493	15.625
-0.245	-0.724	-0.392	-0.625	-1.669	-1.360	-0.346	-0.351	0.453	0.012	0.443	0.117	-0.751	-0.839	-0.331	-0.196	0.370	1.416	0.215	-1.127	-1.161	0.571	0.882	0.512	1.614	0.289	0.581	-0.172	19.531
-0.474	-1.046	-0.563	-0.904	-1.814	-1.480	-0.114	-0.184	0.763	0.335	0.892	0.492	-0.566	-0.898	-0.557	-0.454	0.091	1.277	-0.083	-1.419	-1.356	0.421	0.777	0.638	1.781	0.476	0.841	0.185	23.438
-0.707	-1.354	-0.746	-1.171	-1.943	-1.603	0.072	-0.055	1.020	0.597	1.281	0.842	-0.390	-0.936	-0.766	-0.688	-0.157	1.129	-0.359	-1.674	-1.502	0.257	0.668	0.736	1.937	0.673	1.085	0.553	27.344
-0.928	-1.624	-0.936	-1.402	-2.043	-1.723	0.203	0.021	1.206	0.779	1.582	1.140	-0.235	-0.951	-0.943	-0.884	-0.358	0.973	-0.594	-1.880	-1.591	0.092	0.567	0.806	2.080	0.871	1.305	0.903	31.250
-1.121	-1.832	-1.118	-1.576	-2.101	-1.833	0.283	0.041	1.312	0.880	1.778	1.364	-0.107	-0.941	-1.079	-1.025	-0.502	0.816	-0.780	-2.026	-1.616	-0.061	0.484	0.848	2.202	1.051	1.493	1.206	35.156
-1.272	-1.958	-1.271	-1.672	-2.102	-1.926	0.325	0.013	1.342	0.909	1.864	1.499	-0.010	-0.901	-1.173	-1.096	-0.583	0.664	-0.908	-2.100	-1.575	-0.190	0.420	0.859	2.284	1.191	1.637	1.435	39.062
-1.378	-1.991	-1.371	-1.674	-2.035	-1.991	0.346	-0.044	1.307	0.886	1.844	1.530	0.058	-0.830	-1.232	-1.088	-0.601	0.527	-0.977	-2.093	-1.469	-0.286	0.369	0.835	2.308	1.263	1.724	1.568	42.969
-1.440	-1.933	-1.399	-1.575	-1.889	-2.012	0.368	-0.104	1.229	0.832	1.726	1.447	0.098	-0.728	-1.265	-0.997	-0.556	0.415	-0.987	-1.999	-1.300	-0.346	0.321	0.770	2.254	1.247	1.741	1.590	46.875
-1.466	-1.794	-1.344	-1.381	-1.664	-1.967	0.404	-0.135	1.128	0.765	1.523	1.243	0.115	-0.597	-1.284	-0.827	-0.455	0.340	-0.940	-1.820	-1.079	-0.371	0.263	0.657	2.110	1.128	1.679	1.493	50.781
-1.469	-1.595	-1.205	-1.106	-1.367	-1.838	0.463	-0.112	1.029	0.698	1.246	0.915	0.107	-0.448	-1.298	-0.593	-0.307	0.310	-0.838	-1.569	-0.821	-0.369	0.187	0.493	1.878	0.907	1.530	1.278	54.688
-1.463	-1.362	-0.987	-0.778	-1.016	-1.616	0.543	-0.015	0.949	0.632	0.907	0.462	0.070	-0.298	-1.314	-0.318	-0.126	0.331	-0.692	-1.266	-0.547	-0.349	0.090	0.280	1.573	0.601	1.295	0.956	58.594
-1.454	-1.119	-0.704	-0.428	-0.640	-1.304	0.631	0.158	0.897	0.561	0.513	-0.106	-0.008	-0.168	-1.336	-0.032	0.069	0.403	-0.516	-0.943	-0.286	-0.320	-0.022	0.020	1.226	0.239	0.980	0.546	62.500
-1.445	-0.888	-0.370	-0.088	-0.274	-0.920	0.705	0.396	0.873	0.467	0.073	-0.771	-0.143	-0.086	-1.361	0.233	0.255	0.523	-0.329	-0.635	-0.067	-0.290	-0.134	-0.275	0.876	-0.139	0.600	0.077	66.406
-1.432	-0.683	-0.001	0.215	0.048	-0.499	0.738	0.673	0.868	0.329	-0.405	-1.509	-0.349	-0.073	-1.384	0.449	0.411	0.685	-0.153	-0.378	0.082	-0.263	-0.228	-0.595	0.566	-0.487	0.175	-0.418	70.312
-1.403	-0.512	0.388	0.464	0.295	-0.082	0.699	0.949	0.866	0.125	-0.916	-2.286	-0.639	-0.148	-1.397	0.592	0.520	0.876	-0.006	-0.200	0.140	-0.240	-0.285	-0.922	0.331	-0.765	-0.274	-0.905	74.219
-1.348	-0.373	0.781	0.654	0.445	0.286	0.567	1.183	0.847	-0.160	-1.446	-3.063	-1.017	-0.318	-1.390	0.651	0.573	1.086	0.097	-0.120	0.096	-0.218	-0.288	-1.243	0.198	-0.943	-0.720	-1.354	78.125
-1.253	-0.261	1.161	0.791	0.490	0.570	0.331	1.338	0.793	-0.528	-1.983	-3.802	-1.476	-0.579	-1.355	0.624	0.572	1.302	0.149	-0.146	-0.047	-0.196	-0.229	-1.540	0.175	-1.006	-1.142	-1.742	82.031
-1.108	-0.168	1.511	0.888	0.435	0.745	-0.004	1.390	0.694	-0.966	-2.505	-4.467	-1.996	-0.913	-1.283	0.526	0.527	1.511	0.155	-0.265	-0.275	-0.172	-0.109	-1.799	0.255	-0.959	-1.521	-2.061	85.938
-0.910	-0.089	1.815	0.960	0.295	0.805	-0.412	1.329	0.547	-1.443	-2.984	-5.028	-2.541	-1.291	-1.171	0.377	0.459	1.701	0.123	-0.456	-0.562	-0.147	0.061	-2.011	0.416	-0.823	-1.839	-2.313	89.844
-0.665	-0.019	2.055	1.023	0.093	0.757	-0.857	1.166	0.363	-1.914	-3.388	-5.456	-3.068	-1.677	-1.020	0.206	0.387	1.859	0.068	-0.684	-0.873	-0.124	0.261	-2.167	0.625	-0.628	-2.086	-2.507	93.750
-0.387	0.040	2.216	1.083	-0.144	0.619	-1.285	0.925	0.163	-2.321	-3.678	-5.731	-3.526	-2.029	-0.843	0.040	0.329	1.970	0.004	-0.912	-1.169	-0.107	0.465	-2.259	0.848	-0.407	-2.248	-2.654	97.656
-0.103	0.083	2.286	1.142	-0.390	0.414	-1.643	0.644	-0.025	-2.605	-3.816	-5.830	-3.862	-2.307	-0.657	-0.098	0.294	2.016	-0.062	-1.104	-1.412	-0.096	0.643	-2.279	1.051	-0.188	-2.312	-2.754	101.562
0.152	0.104	2.255	1.193	-0.621	0.166	-1.875	0.360	-0.167	-2.708	-3.768	-5.735	-4.028	-2.470	-0.487	-0.190	0.280	1.976	-0.123	-1.230	-1.568	-0.090	0.770	-2.218	1.207	0.012	-2.263	-2.801	105.469
0.344	0.095	2.119	1.227	-0.811	-0.105	-1.935	0.109	-0.236	-2.586	-3.510	-5.430	-3.980	-2.482	-0.365	-0.226	0.277	1.826	-0.181	-1.267	-1.606	-0.082	0.826	-2.062	1.294	0.181	-2.088	-2.778	109.375
0.443	0.051	1.877	1.236	-0.940	-0.378	-1.791	-0.085	-0.212	-2.217	-3.037	-4.908	-3.692	-2.314	-0.317	-0.208	0.269	1.542	-0.238	-1.203	-1.504	-0.060	0.797	-1.802	1.297	0.316	-1.775	-2.661	113.281
0.430	-0.026	1.540	1.219	-0.986	-0.635	-1.431	-0.213	-0.092	-1.601	-2.362	-4.174	-3.156	-1.951	-0.367	-0.138	0.239	1.107	-0.298	-1.037	-1.250	-0.011	0.682	-1.433	1.202	0.418	-1.323	-2.430	117.188
0.303	-0.128	1.130	1.180	-0.938	-0.859	-0.869	-0.276	0.113	-0.772	-1.522	-3.248	-2.387	-1.396	-0.526	-0.030	0.173	0.519	-0.362	-0.777	-0.848	0.072	0.487	-0.959	1.002	0.486	-0.744	-2.073	121.094
0.081	-0.241	0.683	1.130	-0.788	-1.035	-0.142	-0.291	0.375	0.209	-0.577	-2.171	-1.431	-0.673	-0.788	0.102	0.068	-0.201	-0.430	-0.444	-0.317	0.194	0.227	-0.403	0.695	0.517	-0.068	-1.592	125.000
-0.205	-0.346	0.243	1.082	-0.547	-1.154	0.687	-0.282	0.658	1.255	0.402	-1.002	-0.358	0.170	-1.133	0.241	-0.072	-1.009	-0.499	-0.064	0.306	0.349	-0.077	0.199	0.285	0.509	0.659	-1.005	128.906
-0.512	-0.423	-0.142	1.049	-0.236	-1.216	1.537	-0.278	0.919	2.264	1.331	0.186	0.743	1.063	-1.526	0.373	-0.235	-1.835	-0.565	0.328	0.971	0.521	-0.398	0.800	-0.209	0.457	1.378	-0.348	132.812
-0.797	-0.457	-0.433	1.040	0.110	-1.226	2.318	-0.304	1.120	3.131	2.130	1.309	1.771	1.926	-1.923	0.482	-0.402	-2.594	-0.624	0.695	1.617	0.691	-0.707	1.342	-0.758	0.362	2.025	0.333	136.719
-1.023	-0.439	-0.607	1.060	0.449	-1.198	2.946	-0.377	1.232	3.765	2.729	2.287	2.629	2.677	-2.280	0.563	-0.553	-3.202	-0.671	1.009	2.187	0.838	-0.974	1.774	-1.321	0.226	2.541	0.982	140.625
-1.168	-0.366	-0.659	1.110	0.738	-1.144	3.354	-0.505	1.239	4.097	3.082	3.049	3.238	3.248	-2.561	0.613	-0.671	-3.592	-0.703	1.245	2.635	0.943	-1.172	2.055	-1.852	0.061	2.881	1.548	144.531
-1.223	-0.248	-0.606	1.188	0.947	-1.080	3.501	-0.683	1.143	4.098	3.164	3.540	3.548	3.596	-2.745	0.636	-0.743	-3.728	-0.718	1.395	2.933	0.995	-1.282	2.163	-2.303	-0.119	3.018	1.987	148.438
-1.200	-0.100	-0.477	1.288	1.055	-1.014	3.382	-0.896	0.959	3.774	2.985	3.733	3.543	3.705	-2.828	0.643	-0.767	-3.611	-0.715	1.463	3.076	0.995	-1.298	2.097	-2.634	-0.296	2.949	2.270	152.344
-1.122	0.059	-0.306	1.403	1.062	-0.955	3.022	-1.122	0.715	3.171	2.578	3.628	3.246	3.590	-2.824	0.645	-0.747	-3.277	-0.692	1.464	3.081	0.953	-1.221	1.877	-2.818	-0.452	2.692	2.385	156.250
-1.021	0.206	-0.127	1.521	0.981	-0.908	2.475	-1.332	0.448	2.363	2.002	3.252	2.707	3.293	-2.759	0.652	-0.693	-2.790	-0.647	1.421	2.979	0.887	-1.068	1.541	-2.844	-0.569	2.285	2.342	160.156
-0.929	0.322	0.036	1.625	0.833	-0.878	1.811	-1.504	0.191	1.438	1.325	2.656	1.999	2.869	-2.665	0.670	-0.621	-2.229	-0.580	1.357	2.808	0.823	-0.859	1.138	-2.718	-0.631	1.780	2.167	164.062
-0.874	0.387	0.166	1.695	0.646	-0.873	1.105	-1.616	-0.025	0.490	0.617	1.910	1.200	2.377	-2.575	0.698	-0.549	-1.668	-0.493	1.289	2.605	0.783	-0.620	0.720	-2.457	-0.624	1.233	1.902	167.969
-0.875	0.388	0.254	1.709	0.440	-0.899	0.428	-1.659	-0.178	-0.399	-0.057	1.093	0.388	1.871	-2.520	0.725	-0.494	-1.167	-0.389	1.227	2.394	0.788	-0.373	0.335	-2.087	-0.536	0.702	1.597	171.875
-0.939	0.314	0.298	1.647	0.234	-0.961	-0.167	-1.630	-0.260	-1.163	-0.645	0.283	-0.374	1.395	-2.520	0.732	-0.471	-0.766	-0.277	1.167	2.189	0.849	-0.133	0.023	-1.634	-0.357	0.239	1.305	175.781
-1.063	0.160	0.298	1.497	0.036	-1.062	-0.644	-1.534	-0.270	-1.758	-1.116	-0.450	-1.039	0.972	-2.588	0.697	-0.491	-0.479	-0.166	1.098	1.987	0.964	0.090	-0.186	-1.125	-0.080	-0.116	1.075	179.688
-1.236	-0.073	0.258	1.256	-0.155	-1.198	-0.990	-1.385	-0.221	-2.168	-1.454	-1.053	-1.582	0.611	-2.727	0.600	-0.559	-0.302	-0.070	1.004	1.778	1.125	0.295	-0.279	-0.580	0.296	-0.340	0.945	183.594
-1.444	-0.378	0.183	0.931	-0.340	-1.361	-1.209	-1.201	-0.128	-2.395	-1.660	-1.494	-1.994	0.309	-2.928	0.429	-0.669	-0.216	0.001	0.868	1.546	1.310	0.486	-0.255	-0.016	0.764	-0.425	0.937	187.500
-1.668	-0.737	0.079	0.546	-0.525	-1.538	-1.320	-1.005	-0.014	-2.461	-1.749	-1.764	-2.278	0.055	-3.170	0.184	-0.813	-0.198	0.038	0.680	1.281	1.499	0.671	-0.124	0.553	1.306	-0.377	1.056	191.406
-1.891	-1.127	-0.046	0.132	-0.711	-1.712	-1.346	-0.818	0.099	-2.398	-1.743	-1.877	-2.448	-0.160	-3.427	-0.120	-0.971	-0.222	0.037	0.439	0.979	1.668	0.856	0.090	1.117	1.897	-0.216	1.285	195.312
-2.099	-1.519	-0.185	-0.274	-0.898	-1.867	-1.311	-0.663	0.191	-2.244	-1.670	-1.859	-2.517	-0.345	-3.670	-0.458	-1.125	-0.271	-0.002	0.153	0.647	1.798	1.046	0.362	1.662	2.507	0.031	1.596	199.219
-2.283	-1.880	-0.331	-0.633	-1.079	-1.985	-1.235	-0.555	0.250	-2.035	-1.557	-1.746	-2.501	-0.500	-3.876	-0.798	-1.258	-0.331	-0.077	-0.160	0.300	1.877	1.238	0.662	2.177	3.101	0.336	1.951	203.125
-2.435	-2.183	-0.481	-0.914	-1.241	-2.052	-1.127	-0.502	0.272	-1.798	-1.425	-1.575	-2.411	-0.622	-4.029	-1.108	-1.362	-0.399	-0.183	-0.481	-0.043	1.904	1.427	0.966	2.649	3.647	0.671	2.313	207.031
-2.554	-2.408	-0.631	-1.095	-1.373	-2.057	-0.990	-0.497	0.264	-1.549	-1.288	-1.374	-2.255	-0.701	-4.127	-1.365	-1.439	-0.477	-0.318	-0.793	-0.361	1.882	1.601	1.254	3.064	4.121	1.013	2.647	210.938
-2.644	-2.550	-0.782	-1.172	-1.462	-1.995	-0.818	-0.524	0.244	-1.292	-1.149	-1.162	-2.039	-0.731	-4.176	-1.558	-1.500	-0.569	-0.483	-1.085	-0.638	1.821	1.745	1.516	3.412	4.507	1.349	2.933	214.844
-2.711	-2.617	-0.931	-1.159	-1.503	-1.869	-0.601	-0.554	0.236	-1.019	-1.001	-0.947	-1.770	-0.707	-4.191	-1.691	-1.566	-0.686	-0.679	-1.356	-0.867	1.733	1.848	1.748	3.686	4.799	1.670	3.164	218.750
-2.765	-2.631	-1.073	-1.085	-1.496	-1.690	-0.332	-0.553	0.269	-0.719	-0.834	-0.729	-1.456	-0.628	-4.192	-1.782	-1.657	-0.840	-0.908	-1.612	-1.051	1.630	1.901	1.953	3.887	5.006	1.975	3.342	222.656
-2.816	-2.621	-1.199	-0.990	-1.451	-1.472	-0.005	-0.485	0.369	-0.379	-0.636	-0.503	-1.110	-0.502	-4.196	-1.857	-1.795	-1.040	-1.175	-1.869	-1.199	1.518	1.900	2.135	4.021	5.140	2.266	3.481	226.562
-2.869	-2.620	-1.293	-0.915	-1.382	-1.234	0.377	-0.324	0.556	0.009	-0.399	-0.267	-0.749	-0.345	-4.212	-1.947	-1.993	-1.295	-1.481	-2.143	-1.331	1.400	1.850	2.302	4.098	5.223	2.545	3.597	230.469
-2.927	-2.653	-1.335	-0.896	-1.306	-0.994	0.802	-0.053	0.836	0.441	-0.123	-0.023	-0.396	-0.177	-4.247	-2.078	-2.254	-1.604	-1.826	-2.449	-1.466	1.271	1.757	2.455	4.131	5.275	2.811	3.699	234.375
-2.983	-2.737	-1.310	-0.956	-1.242	-0.765	1.254	0.329	1.204	0.904	0.183	0.219	-0.073	-0.019	-4.294	-2.267	-2.573	-1.958	-2.204	-2.797	-1.621	1.125	1.630	2.597	4.133	5.314	3.058	3.793	238.281
-3.028	-2.874	-1.208	-1.098	-1.203	-0.559	1.709	0.806	1.638	1.374	0.500	0.442	0.197	0.105	-4.345	-2.518	-2.934	-2.340	-2.603	-3.188	-1.809	0.955	1.481	2.723	4.114	5.350	3.276	3.874	242.188
-3.050	-3.056	-1.033	-1.313	-1.198	-0.382	2.140	1.348	2.108	1.822	0.807	0.629	0.398	0.183	-4.384	-2.826	-3.315	-2.724	-3.008	-3.611	-2.032	0.759	1.319	2.831	4.082	5.392	3.453	3.933	246.094
-3.037	-3.265	-0.803	-1.576	-1.229	-0.234	2.523	1.915	2.576	2.218	1.083	0.766	0.525	0.207	-4.398	-3.172	-3.692	-3.082	-3.401	-4.051	-2.282	0.542	1.155	2.920	4.042	5.442	3.579	3.960	250.000
-2.983	-3.480	-0.548	-1.858	-1.292	-0.118	2.839	2.460	3.004	2.541	1.315	0.849	0.583	0.183	-4.378	-3.533	-4.041	-3.391	-3.762	-4.485	-2.544	0.316	0.997	2.993	3.997	5.501	3.651	3.950	253.906
-2.893	-3.683	-0.306	-2.132	-1.380	-0.031	3.078	2.942	3.362	2.780	1.500	0.884	0.591	0.128	-4.325	-3.885	-4.344	-3.635	-4.075	-4.887	-2.792	0.101	0.853	3.059	3.951	5.571	3.677	3.907	257.812
-2.775	-3.866	-0.119	-2.379	-1.483	0.025	3.241	3.326	3.631	2.938	1.648	0.893	0.578	0.068	-4.246	-4.207	-4.592	-3.814	-4.327	-5.236	-2.998	-0.077	0.729	3.132	3.906	5.657	3.677	3.844	261.719
-2.651	-4.029	-0.022	-2.591	-1.593	0.047	3.339	3.589	3.806	3.034	1.781	0.905	0.576	0.033	-4.159	-4.484	-4.781	-3.935	-4.509	-5.515	-3.135	-0.196	0.629	3.228	3.866	5.765	3.679	3.783	265.625
-2.541	-4.181	-0.039	-2.771	-1.704	0.033	3.394	3.723	3.896	3.091	1.924	0.955	0.617	0.052	-4.085	-4.707	-4.917	-4.020	-4.618	-5.711	-3.180	-0.236	0.557	3.364	3.833	5.901	3.714	3.749	269.531
-2.466	-4.333	-0.180	-2.929	-1.809	-0.023	3.428	3.733	3.916	3.140	2.101	1.069	0.728	0.149	-4.042	-4.877	-5.005	-4.093	-4.651	-5.821	-3.117	-0.184	0.517	3.551	3.806	6.067	3.812	3.762	273.438
-2.443	-4.496	-0.439	-3.075	-1.904	-0.123	3.466	3.633	3.890	3.208	2.327	1.265	0.923	0.338	-4.044	-4.996	-5.054	-4.183	-4.611	-5.845	-2.942	-0.039	0.509	3.792	3.784	6.259	3.991	3.835	277.344
-2.475	-4.674	-0.795	-3.217	-1.982	-0.267	3.524	3.445	3.833	3.310	2.602	1.542	1.206	0.623	-4.091	-5.068	-5.065	-4.311	-4.502	-5.789	-2.659	0.192	0.534	4.083	3.762	6.468	4.254	3.969	281.250
-2.558	-4.863	-1.216	-3.352	-2.038	-0.454	3.610	3.187	3.758	3.454	2.910	1.881	1.566	0.992	-4.172	-5.098	-5.041	-4.492	-4.328	-5.658	-2.281	0.495	0.590	4.411	3.733	6.677	4.590	4.150	285.156
-2.674	-5.049	-1.665	-3.471	-2.063	-0.675	3.721	2.878	3.665	3.631	3.221	2.249	1.984	1.428	-4.266	-5.086	-4.976	-4.729	-4.094	-5.460	-1.829	0.853	0.677	4.758	3.692	6.862	4.971	4.352	289.062
-2.801	-5.213	-2.107	-3.559	-2.052	-0.922	3.846	2.531	3.546	3.824	3.497	2.601	2.432	1.906	-4.346	-5.031	-4.861	-5.010	-3.804	-5.197	-1.321	1.246	0.792	5.103	3.632	7.002	5.360	4.540	292.969
-2.912	-5.335	-2.514	-3.601	-2.000	-1.184	3.967	2.155	3.389	4.008	3.698	2.892	2.882	2.399	-4.384	-4.926	-4.686	-5.314	-3.459	-4.874	-0.779	1.661	0.934	5.429	3.551	7.074	5.715	4.676	296.875
-2.985	-5.399	-2.864	-3.586	-1.907	-1.450	4.065	1.756	3.179	4.155	3.793	3.080	3.306	2.884	-4.358	-4.767	-4.441	-5.610	-3.060	-4.493	-0.220	2.090	1.099	5.720	3.448	7.063	5.999	4.726	300.781
-3.001	-5.392	-3.145	-3.509	-1.775	-1.714	4.125	1.341	2.909	4.244	3.759	3.137	3.684	3.342	-4.258	-4.550	-4.121	-5.868	-2.607	-4.057	0.340	2.531	1.289	5.970	3.326	6.961	6.180	4.665	304.688
-2.953	-5.316	-3.356	-3.373	-1.614	-1.965	4.138	0.920	2.579	4.259	3.591	3.049	4.002	3.761	-4.083	-4.275	-3.728	-6.063	-2.103	-3.575	0.889	2.986	1.501	6.174	3.186	6.769	6.241	4.478	308.594
-2.843	-5.177	-3.504	-3.186	-1.428	-2.191	4.105	0.508	2.200	4.196	3.300	2.817	4.254	4.134	-3.841	-3.949	-3.273	-6.183	-1.556	-3.057	1.417	3.455	1.734	6.334	3.033	6.495	6.180	4.166	312.500
-2.680	-4.989	-3.605	-2.960	-1.222	-2.373	4.037	0.123	1.791	4.061	2.907	2.458	4.443	4.459	-3.552	-3.582	-2.776	-6.232	-0.979	-2.517	1.915	3.934	1.984	6.452	2.869	6.154	6.005	3.739	316.406
-2.482	-4.772	-3.682	-2.702	-0.998	-2.487	3.951	-0.216	1.379	3.868	2.442	1.997	4.574	4.740	-3.235	-3.188	-2.264	-6.225	-0.393	-1.972	2.376	4.416	2.245	6.528	2.698	5.762	5.735	3.218	320.312
-2.265	-4.544	-3.756	-2.420	-0.752	-2.512	3.864	-0.492	0.988	3.637	1.942	1.465	4.657	4.979	-2.913	-2.784	-1.766	-6.186	0.180	-1.440	2.796	4.884	2.509	6.564	2.522	5.338	5.397	2.630	324.219
-2.047	-4.321	-3.848	-2.116	-0.485	-2.434	3.793	-0.694	0.640	3.386	1.437	0.897	4.697	5.179	-2.604	-2.384	-1.310	-6.141	0.716	-0.938	3.169	5.323	2.770	6.558	2.347	4.896	5.016	2.005	328.125
-1.839	-4.117	-3.969	-1.797	-0.198	-2.256	3.742	-0.819	0.348	3.129	0.956	0.324	4.701	5.342	-2.322	-2.005	-0.919	-6.108	1.194	-0.483	3.491	5.715	3.019	6.511	2.181	4.456	4.618	1.375	332.031
-1.651	-3.939	-4.117	-1.472	0.097	-1.996	3.708	-0.873	0.115	2.876	0.519	-0.224	4.669	5.464	-2.078	-1.659	-0.604	-6.098	1.602	-0.087	3.759	6.047	3.253	6.425	2.033	4.034	4.226	0.772	335.938
-1.485	-3.792	-4.277	-1.153	0.379	-1.693	3.674	-0.871	-0.062	2.627	0.141	-0.721	4.601	5.542	-1.879	-1.357	-0.370	-6.111	1.932	0.241	3.968	6.310	3.466	6.305	1.918	3.649	3.861	0.229	339.844
-1.342	-3.671	-4.424	-0.857	0.624	-1.395	3.617	-0.834	-0.193	2.382	-0.172	-1.145	4.495	5.569	-1.728	-1.105	-0.214	-6.141	2.184	0.499	4.116	6.503	3.655	6.162	1.846	3.319	3.537	-0.226	343.750
-1.220	-3.571	-4.531	-0.598	0.809	-1.149	3.514	-0.786	-0.288	2.137	-0.416	-1.479	4.352	5.541	-1.624	-0.907	-0.128	-6.182	2.360	0.690	4.202	6.627	3.813	6.006	1.827	3.062	3.267	-0.573	347.656
-1.113	-3.480	-4.570	-0.386	0.918	-0.987	3.351	-0.745	-0.359	1.893	-0.589	-1.713	4.177	5.462	-1.565	-0.760	-0.105	-6.229	2.466	0.824	4.231	6.685	3.935	5.848	1.860	2.884	3.057	-0.801	351.562
-1.017	-3.388	-4.529	-0.224	0.951	-0.922	3.128	-0.726	-0.409	1.658	-0.693	-1.844	3.982	5.338	-1.546	-0.660	-0.138	-6.285	2.503	0.919	4.215	6.684	4.011	5.699	1.934	2.786	2.910	-0.912	355.469
-0.929	-3.289	-4.410	-0.105	0.923	-0.940	2.865	-0.727	-0.440	1.450	-0.726	-1.879	3.790	5.189	-1.559	-0.600	-0.225	-6.358	2.470	0.990	4.173	6.627	4.033	5.566	2.032	2.754	2.825	-0.924	359.375
-0.848	-3.181	-4.234	-0.019	0.860	-1.005	2.600	-0.739	-0.446	1.293	-0.687	-1.831	3.623	5.038	-1.597	-0.570	-0.366	-6.460	2.366	1.057	4.126	6.519	3.994	5.454	2.127	2.769	2.797	-0.863	363.281
-0.778	-3.068	-4.033	0.050	0.797	-1.070	2.380	-0.740	-0.415	1.218	-0.578	-1.721	3.510	4.914	-1.657	-0.563	-0.565	-6.601	2.186	1.132	4.096	6.368	3.887	5.365	2.191	2.802	2.818	-0.762	367.188
-0.727	-2.956	-3.843	0.114	0.769	-1.088	2.258	-0.705	-0.335	1.251	-0.400	-1.570	3.472	4.842	-1.735	-0.575	-0.823	-6.788	1.929	1.223	4.101	6.179	3.714	5.296	2.198	2.825	2.879	-0.651	371.094
-0.706	-2.858	-3.694	0.182	0.800	-1.025	2.275	-0.609	-0.194	1.413	-0.158	-1.398	3.525	4.841	-1.834	-0.602	-1.136	-7.022	1.600	1.327	4.150	5.964	3.477	5.245	2.128	2.819	2.969	-0.552	375.000
-0.720	-2.783	-3.601	0.255	0.900	-0.869	2.455	-0.437	0.017	1.709	0.143	-1.214	3.673	4.920	-1.957	-0.647	-1.501	-7.297	1.208	1.433	4.242	5.732	3.184	5.206	1.974	2.774	3.078	-0.471	378.906
-0.775	-2.740	-3.567	0.330	1.065	-0.635	2.795	-0.189	0.298	2.129	0.497	-1.017	3.909	5.075	-2.106	-0.710	-1.904	-7.604	0.768	1.524	4.365	5.492	2.846	5.173	1.740	2.693	3.200	-0.401	382.812
-0.867	-2.733	-3.579	0.399	1.274	-0.360	3.269	0.124	0.640	2.646	0.896	-0.796	4.215	5.291	-2.281	-0.796	-2.328	-7.926	0.300	1.580	4.500	5.253	2.479	5.144	1.441	2.593	3.329	-0.326	386.719
-0.985	-2.758	-3.619	0.455	1.499	-0.097	3.830	0.473	1.026	3.220	1.328	-0.537	4.568	5.546	-2.472	-0.901	-2.752	-8.247	-0.171	1.588	4.629	5.023	2.098	5.118	1.101	2.493	3.460	-0.226	390.625
-1.113	-2.806	-3.666	0.492	1.708	0.105	4.416	0.825	1.429	3.802	1.777	-0.230	4.939	5.815	-2.661	-1.021	-3.150	-8.547	-0.617	1.539	4.736	4.807	1.725	5.096	0.747	2.409	3.589	-0.090	394.531
-1.227	-2.862	-3.705	0.511	1.875	0.206	4.964	1.140	1.817	4.341	2.216	0.121	5.302	6.075	-2.822	-1.143	-3.492	-8.805	-1.011	1.441	4.815	4.615	1.381	5.082	0.404	2.348	3.707	0.081	398.438
-1.307	-2.906	-3.726	0.518	1.983	0.193	5.416	1.382	2.152	4.788	2.610	0.496	5.631	6.311	-2.926	-1.249	-3.747	-9.000	-1.324	1.311	4.867	4.460	1.093	5.080	0.094	2.305	3.805	0.263	402.344
-1.332	-2.922	-3.726	0.522	2.028	0.075	5.728	1.523	2.397	5.105	2.917	0.853	5.906	6.512	-2.944	-1.318	-3.888	-9.111	-1.529	1.177	4.902	4.357	0.885	5.095	-0.170	2.263	3.869	0.421	406.250
-1.293	-2.894	-3.709	0.533	2.017	-0.118	5.875	1.546	2.520	5.267	3.094	1.143	6.115	6.678	-2.857	-1.331	-3.891	-9.120	-1.605	1.070	4.937	4.322	0.779	5.126	-0.381	2.199	3.888	0.515	410.156
-1.189	-2.816	-3.684	0.558	1.965	-0.346	5.853	1.446	2.497	5.266	3.105	1.317	6.250	6.811	-2.658	-1.271	-3.743	-9.016	-1.537	1.019	4.987	4.367	0.791	5.174	-0.538	2.090	3.855	0.509	414.062
-1.033	-2.687	-3.663	0.602	1.889	-0.569	5.678	1.230	2.320	5.108	2.931	1.338	6.312	6.919	-2.354	-1.132	-3.442	-8.793	-1.325	1.044	5.065	4.499	0.926	5.237	-0.643	1.922	3.769	0.384	417.969
-0.844	-2.516	-3.659	0.663	1.801	-0.761	5.381	0.915	1.995	4.820	2.578	1.198	6.308	7.007	-1.967	-0.917	-3.001	-8.456	-0.978	1.151	5.175	4.712	1.173	5.309	-0.701	1.693	3.640	0.144	421.875
-0.649	-2.316	-3.682	0.735	1.710	-0.907	5.004	0.527	1.545	4.439	2.078	0.915	6.249	7.078	-1.530	-0.639	-2.446	-8.019	-0.521	1.334	5.315	4.990	1.508	5.385	-0.721	1.411	3.486	-0.185	425.781
-0.472	-2.106	-3.736	0.807	1.618	-1.008	4.595	0.101	1.011	4.013	1.490	0.539	6.152	7.134	-1.082	-0.320	-1.816	-7.508	0.008	1.573	5.470	5.308	1.895	5.460	-0.714	1.093	3.329	-0.557	429.688
-0.335	-1.904	-3.819	0.869	1.524	-1.078	4.198	-0.327	0.446	3.594	0.891	0.135	6.036	7.173	-0.665	0.014	-1.156	-6.960	0.565	1.842	5.625	5.634	2.288	5.526	-0.695	0.762	3.190	-0.923	433.594
-0.250	-1.727	-3.921	0.912	1.426	-1.130	3.851	-0.719	-0.094	3.227	0.357	-0.227	5.922	7.195	-0.314	0.333	-0.516	-6.418	1.102	2.111	5.760	5.937	2.638	5.575	-0.682	0.437	3.086	-1.232	437.500
-0.218	-1.588	-4.026	0.931	1.325	-1.176	3.580	-1.041	-0.555	2.952	-0.042	-0.484	5.827	7.201	-0.057	0.614	0.063	-5.926	1.578	2.352	5.861	6.187	2.902	5.600	-0.694	0.133	3.024	-1.449	441.406
-0.235	-1.494	-4.113	0.923	1.225	-1.221	3.396	-1.269	-0.896	2.787	-0.264	-0.600	5.765	7.192	0.096	0.837	0.545	-5.519	1.958	2.545	5.916	6.364	3.050	5.594	-0.748	-0.140	3.001	-1.556	445.312
-0.285	-1.448	-4.160	0.887	1.133	-1.262	3.298	-1.389	-1.099	2.734	-0.298	-0.564	5.741	7.172	0.146	0.991	0.911	-5.222	2.224	2.676	5.921	6.457	3.067	5.552	-0.851	-0.381	3.007	-1.557	449.219
-0.351	-1.446	-4.150	0.827	1.055	-1.286	3.273	-1.405	-1.163	2.778	-0.165	-0.397	5.754	7.142	0.113	1.074	1.159	-5.042	2.370	2.742	5.881	6.467	2.959	5.474	-1.004	-0.592	3.025	-1.471	453.125
-0.416	-1.478	-4.075	0.749	0.998	-1.282	3.300	-1.333	-1.112	2.888	0.087	-0.141	5.794	7.105	0.023	1.095	1.297	-4.967	2.407	2.747	5.803	6.405	2.749	5.364	-1.196	-0.775	3.038	-1.330	457.031
-0.467	-1.530	-3.943	0.663	0.964	-1.242	3.354	-1.199	-0.985	3.027	0.396	0.151	5.846	7.059	-0.092	1.068	1.349	-4.972	2.355	2.704	5.700	6.289	2.470	5.229	-1.406	-0.932	3.033	-1.170	460.938
-0.497	-1.586	-3.769	0.580	0.949	-1.165	3.413	-1.037	-0.826	3.159	0.699	0.426	5.893	7.000	-0.204	1.012	1.339	-5.027	2.239	2.628	5.585	6.141	2.164	5.080	-1.606	-1.063	3.005	-1.021	464.844
-0.509	-1.637	-3.584	0.507	0.948	-1.061	3.459	-0.878	-0.675	3.259	0.946	0.647	5.921	6.927	-0.294	0.946	1.294	-5.098	2.089	2.538	5.466	5.985	1.870	4.931	-1.768	-1.162	2.955	-0.900	468.750
-0.512	-1.679	-3.419	0.446	0.948	-0.949	3.481	-0.747	-0.559	3.314	1.109	0.797	5.920	6.835	-0.356	0.881	1.235	-5.159	1.927	2.446	5.351	5.840	1.618	4.798	-1.864	-1.219	2.895	-0.808	472.656
-0.521	-1.713	-3.308	0.398	0.941	-0.850	3.480	-0.658	-0.487	3.331	1.184	0.884	5.891	6.726	-0.397	0.827	1.173	-5.198	1.769	2.364	5.242	5.722	1.426	4.696	-1.879	-1.225	2.843	-0.734	476.562
-0.555	-1.752	-3.278	0.356	0.919	-0.783	3.465	-0.614	-0.451	3.328	1.194	0.933	5.842	6.608	-0.429	0.781	1.111	-5.211	1.620	2.294	5.139	5.638	1.298	4.634	-1.805	-1.172	2.819	-0.656	480.469
-0.628	-1.807	-3.343	0.313	0.881	-0.762	3.450	-0.604	-0.427	3.334	1.175	0.980	5.787	6.490	-0.470	0.735	1.044	-5.206	1.479	2.235	5.044	5.589	1.228	4.619	-1.653	-1.059	2.836	-0.553	484.375
-0.746	-1.892	-3.505	0.261	0.834	-0.789	3.456	-0.609	-0.386	3.378	1.168	1.059	5.746	6.387	-0.535	0.676	0.961	-5.194	1.335	2.181	4.957	5.571	1.199	4.650	-1.441	-0.891	2.904	-0.406	488.281
-0.908	-2.014	-3.751	0.193	0.784	-0.858	3.501	-0.608	-0.299	3.483	1.211	1.195	5.734	6.311	-0.632	0.590	0.849	-5.187	1.173	2.123	4.878	5.574	1.190	4.722	-1.199	-0.684	3.023	-0.211	492.188
-1.101	-2.176	-4.053	0.104	0.742	-0.957	3.595	-0.582	-0.148	3.659	1.325	1.398	5.763	6.270	-0.760	0.462	0.699	-5.195	0.982	2.049	4.807	5.586	1.184	4.822	-0.956	-0.456	3.182	0.029	496.094
-1.301	-2.373	-4.374	-0.009	0.713	-1.068	3.743	-0.515	0.070	3.901	1.513	1.659	5.834	6.266	-0.911	0.281	0.503	-5.217	0.753	1.945	4.741	5.596	1.169	4.937	-0.738	-0.231	3.365	0.296	500.000
-1.481	-2.592	-4.673	-0.148	0.698	-1.174	3.936	-0.406	0.341	4.185	1.757	1.950	5.940	6.294	-1.067	0.042	0.259	-5.245	0.485	1.800	4.674	5.597	1.144	5.056	-0.560	-0.027	3.552	0.567	503.906
-1.615	-2.822	-4.908	-0.313	0.692	-1.264	4.155	-0.263	0.633	4.475	2.020	2.237	6.064	6.344	-1.210	-0.254	-0.024	-5.262	0.186	1.604	4.599	5.584	1.114	5.169	-0.423	0.143	3.725	0.818	507.812
-1.679	-3.051	-5.048	-0.504	0.681	-1.329	4.367	-0.106	0.905	4.730	2.260	2.478	6.185	6.399	-1.318	-0.598	-0.331	-5.246	-0.129	1.354	4.509	5.563	1.092	5.271	-0.317	0.276	3.869	1.027	511.719
-1.661	-3.266	-5.074	-0.718	0.653	-1.373	4.539	0.035	1.113	4.904	2.432	2.640	6.281	6.445	-1.372	-0.974	-0.643	-5.175	-0.436	1.054	4.398	5.540	1.093	5.361	-0.220	0.377	3.978	1.182	515.625
-1.562	-3.459	-4.983	-0.946	0.593	-1.402	4.632	0.130	1.219	4.961	2.498	2.698	6.328	6.468	-1.361	-1.358	-0.931	-5.032	-0.709	0.719	4.267	5.528	1.132	5.441	-0.111	0.458	4.049	1.279	519.531
-1.392	-3.626	-4.792	-1.177	0.494	-1.428	4.617	0.149	1.195	4.879	2.437	2.642	6.311	6.458	-1.281	-1.723	-1.169	-4.810	-0.922	0.370	4.121	5.538	1.218	5.512	0.034	0.533	4.085	1.319	523.438
-1.173	-3.760	-4.530	-1.394	0.355	-1.460	4.476	0.074	1.036	4.652	2.241	2.477	6.217	6.411	-1.138	-2.040	-1.331	-4.514	-1.052	0.038	3.970	5.578	1.356	5.573	0.225	0.613	4.091	1.310	527.344
-0.929	-3.861	-4.236	-1.584	0.185	-1.505	4.207	-0.101	0.751	4.292	1.923	2.221	6.047	6.325	-0.944	-2.282	-1.397	-4.157	-1.085	-0.247	3.827	5.650	1.540	5.621	0.463	0.706	4.070	1.262	531.250
-0.686	-3.924	-3.952	-1.732	-0.004	-1.567	3.824	-0.366	0.368	3.826	1.508	1.901	5.805	6.207	-0.716	-2.428	-1.358	-3.763	-1.017	-0.455	3.705	5.749	1.762	5.652	0.733	0.809	4.024	1.179	535.156
-0.464	-3.950	-3.712	-1.827	-0.195	-1.649	3.355	-0.702	-0.075	3.292	1.033	1.546	5.510	6.064	-0.470	-2.465	-1.213	-3.357	-0.854	-0.564	3.618	5.868	2.008	5.660	1.014	0.916	3.952	1.065	539.062
-0.278	-3.936	-3.541	-1.864	-0.371	-1.752	2.840	-1.079	-0.535	2.733	0.537	1.184	5.180	5.907	-0.222	-2.387	-0.973	-2.968	-0.614	-0.561	3.574	5.992	2.262	5.641	1.277	1.012	3.852	0.919	542.969
-0.132	-3.881	-3.451	-1.841	-0.519	-1.876	2.318	-1.463	-0.971	2.189	0.060	0.836	4.840	5.750	0.019	-2.200	-0.659	-2.617	-0.324	-0.448	3.579	6.110	2.511	5.590	1.497	1.079	3.718	0.740	546.875
-0.026	-3.784	-3.435	-1.759	-0.626	-2.013	1.829	-1.824	-1.351	1.694	-0.365	0.515	4.512	5.602	0.243	-1.920	-0.299	-2.320	-0.016	-0.234	3.633	6.209	2.737	5.504	1.651	1.102	3.549	0.525	550.781
0.050	-3.647	-3.476	-1.621	-0.684	-2.151	1.405	-2.135	-1.654	1.275	-0.711	0.230	4.212	5.474	0.446	-1.572	0.075	-2.087	0.274	0.057	3.729	6.278	2.925	5.379	1.726	1.066	3.343	0.277	554.688
0.104	-3.472	-3.543	-1.433	-0.688	-2.273	1.069	-2.376	-1.869	0.946	-0.966	-0.019	3.952	5.371	0.622	-1.187	0.429	-1.917	0.514	0.392	3.855	6.310	3.059	5.214	1.719	0.967	3.104	0.004	558.594
0.146	-3.268	-3.607	-1.205	-0.639	-2.360	0.837	-2.536	-1.998	0.713	-1.126	-0.228	3.735	5.291	0.767	-0.800	0.734	-1.802	0.678	0.737	3.993	6.298	3.127	5.009	1.636	0.809	2.840	-0.278	562.500
0.184	-3.047	-3.639	-0.951	-0.542	-2.397	0.714	-2.611	-2.048	0.574	-1.197	-0.391	3.560	5.230	0.876	-0.443	0.963	-1.729	0.750	1.056	4.121	6.237	3.121	4.769	1.489	0.604	2.566	-0.544	566.406
0.220	-2.824	-3.621	-0.688	-0.410	-2.376	0.701	-2.603	-2.030	0.523	-1.190	-0.501	3.424	5.181	0.947	-0.145	1.103	-1.688	0.728	1.318	4.219	6.127	3.041	4.501	1.298	0.374	2.300	-0.768	570.312
0.253	-2.618	-3.546	-0.436	-0.255	-2.297	0.789	-2.521	-1.955	0.549	-1.118	-0.547	3.321	5.135	0.977	0.075	1.149	-1.669	0.619	1.503	4.271	5.969	2.896	4.221	1.080	0.142	2.062	-0.928	574.219
0.278	-2.443	-3.420	-0.214	-0.096	-2.167	0.967	-2.375	-1.832	0.644	-0.994	-0.520	3.251	5.086	0.967	0.211	1.107	-1.672	0.444	1.602	4.268	5.771	2.700	3.946	0.854	-0.068	1.867	-1.007	578.125
0.291	-2.314	-3.259	-0.039	0.053	-2.001	1.216	-2.173	-1.668	0.796	-0.834	-0.418	3.209	5.030	0.921	0.268	0.992	-1.700	0.226	1.622	4.211	5.544	2.475	3.693	0.632	-0.241	1.726	-1.007	582.031
0.289	-2.233	-3.082	0.080	0.181	-1.814	1.513	-1.928	-1.465	0.993	-0.649	-0.250	3.193	4.963	0.845	0.262	0.831	-1.760	-0.005	1.579	4.110	5.303	2.243	3.475	0.423	-0.374	1.638	-0.945	585.938
0.272	-2.199	-2.910	0.143	0.283	-1.623	1.833	-1.649	-1.228	1.219	-0.456	-0.043	3.199	4.889	0.750	0.219	0.650	-1.853	-0.223	1.498	3.981	5.067	2.025	3.300	0.234	-0.474	1.593	-0.852	589.844
0.248	-2.197	-2.755	0.158	0.360	-1.442	2.148	-1.347	-0.968	1.457	-0.273	0.168	3.218	4.810	0.646	0.166	0.480	-1.978	-0.407	1.408	3.845	4.854	1.839	3.168	0.065	-0.557	1.569	-0.773	593.750
0.226	-2.209	-2.621	0.137	0.414	-1.281	2.432	-1.036	-0.697	1.685	-0.122	0.340	3.240	4.729	0.544	0.131	0.345	-2.122	-0.541	1.336	3.724	4.680	1.699	3.071	-0.081	-0.645	1.544	-0.749	597.656
0.218	-2.214	-2.499	0.099	0.455	-1.147	2.665	-0.731	-0.438	1.878	-0.026	0.429	3.254	4.649	0.451	0.133	0.261	-2.268	-0.622	1.302	3.632	4.557	1.611	3.002	-0.203	-0.755	1.495	-0.813	601.562
0.234	-2.192	-2.374	0.061	0.488	-1.040	2.830	-0.452	-0.216	2.018	-0.001	0.409	3.250	4.572	0.371	0.180	0.232	-2.395	-0.654	1.315	3.576	4.486	1.575	2.949	-0.298	-0.893	1.411	-0.976	605.469
0.281	-2.131	-2.232	0.037	0.519	-0.954	2.919	-0.217	-0.055	2.088	-0.057	0.270	3.222	4.498	0.308	0.270	0.251	-2.484	-0.652	1.374	3.554	4.462	1.583	2.906	-0.361	-1.052	1.289	-1.226	609.375
0.360	-2.025	-2.063	0.040	0.551	-0.882	2.931	-0.043	0.026	2.084	-0.190	0.027	3.171	4.428	0.263	0.389	0.298	-2.522	-0.637	1.464	3.555	4.473	1.623	2.868	-0.387	-1.210	1.142	-1.528	613.281
0.464	-1.882	-1.869	0.075	0.586	-0.812	2.871	0.058	0.017	2.011	-0.384	-0.281	3.099	4.361	0.235	0.514	0.352	-2.504	-0.631	1.567	3.562	4.500	1.679	2.835	-0.369	-1.337	0.993	-1.831	617.188
0.583	-1.715	-1.661	0.141	0.624	-0.736	2.752	0.086	-0.077	1.884	-0.609	-0.604	3.015	4.295	0.227	0.620	0.387	-2.437	-0.657	1.660	3.556	4.524	1.734	2.810	-0.304	-1.400	0.867	-2.080	621.094
0.700	-1.549	-1.456	0.231	0.664	-0.650	2.590	0.047	-0.235	1.726	-0.827	-0.885	2.928	4.229	0.240	0.684	0.385	-2.334	-0.732	1.725	3.523	4.526	1.771	2.798	-0.193	-1.375	0.790	-2.226	625.000
0.804	-1.407	-1.270	0.329	0.701	-0.555	2.405	-0.042	-0.428	1.567	-1.002	-1.076	2.846	4.163	0.274	0.686	0.332	-2.213	-0.863	1.746	3.453	4.492	1.778	2.802	-0.040	-1.251	0.779	-2.239	628.906
0.883	-1.313	-1.116	0.414	0.727	-0.463	2.219	-0.158	-0.619	1.433	-1.102	-1.142	2.775	4.097	0.331	0.615	0.226	-2.090	-1.049	1.716	3.343	4.414	1.746	2.823	0.142	-1.034	0.841	-2.114	632.812
0.937	-1.285	-0.996	0.465	0.731	-0.390	2.050	-0.280	-0.774	1.343	-1.105	-1.071	2.718	4.032	0.408	0.469	0.074	-1.972	-1.278	1.635	3.198	4.296	1.676	2.861	0.338	-0.749	0.968	-1.868	636.719
0.969	-1.331	-0.904	0.459	0.700	-0.354	1.913	-0.387	-0.868	1.310	-1.007	-0.872	2.674	3.970	0.503	0.256	-0.108	-1.863	-1.527	1.508	3.030	4.144	1.575	2.911	0.527	-0.434	1.143	-1.537	640.625
0.990	-1.446	-0.827	0.386	0.626	-0.370	1.815	-0.468	-0.886	1.331	-0.816	-0.571	2.638	3.910	0.611	-0.006	-0.302	-1.756	-1.770	1.345	2.853	3.975	1.456	2.967	0.689	-0.130	1.340	-1.172	644.531
1.011	-1.615	-0.750	0.245	0.502	-0.441	1.759	-0.517	-0.832	1.395	-0.554	-0.207	2.605	3.854	0.727	-0.295	-0.485	-1.647	-1.977	1.158	2.680	3.803	1.336	3.020	0.804	0.122	1.530	-0.820	648.438
1.045	-1.812	-0.664	0.048	0.336	-0.557	1.740	-0.538	-0.722	1.485	-0.251	0.178	2.569	3.797	0.845	-0.581	-0.640	-1.531	-2.126	0.961	2.523	3.645	1.234	3.063	0.858	0.292	1.687	-0.526	652.344
1.104	-2.005	-0.559	-0.178	0.139	-0.700	1.749	-0.542	-0.586	1.575	0.058	0.542	2.525	3.740	0.961	-0.839	-0.755	-1.408	-2.204	0.768	2.389	3.510	1.164	3.087	0.841	0.362	1.789	-0.316	656.250
1.197	-2.164	-0.430	-0.400	-0.065	-0.844	1.772	-0.542	-0.456	1.644	0.338	0.849	2.471	3.678	1.075	-1.047	-0.824	-1.283	-2.208	0.588	2.279	3.405	1.134	3.089	0.754	0.334	1.823	-0.206	660.156
1.328	-2.260	-0.276	-0.584	-0.252	-0.963	1.794	-0.551	-0.365	1.671	0.559	1.073	2.405	3.610	1.188	-1.191	-0.851	-1.165	-2.148	0.431	2.191	3.331	1.149	3.069	0.610	0.221	1.788	-0.194	664.062
1.500	-2.279	-0.098	-0.703	-0.400	-1.040	1.799	-0.581	-0.337	1.642	0.694	1.198	2.329	3.536	1.302	-1.268	-0.844	-1.061	-2.040	0.300	2.119	3.288	1.208	3.034	0.430	0.050	1.694	-0.267	667.969
1.707	-2.221	0.103	-0.744	-0.493	-1.065	1.776	-0.635	-0.388	1.552	0.728	1.215	2.247	3.457	1.423	-1.287	-0.815	-0.976	-1.908	0.196	2.059	3.275	1.306	2.993	0.242	-0.149	1.556	-0.405	671.875
1.941	-2.096	0.320	-0.705	-0.523	-1.035	1.717	-0.708	-0.517	1.402	0.651	1.126	2.163	3.377	1.554	-1.261	-0.779	-0.913	-1.774	0.118	2.010	3.291	1.437	2.956	0.079	-0.344	1.397	-0.588	675.781
2.190	-1.926	0.543	-0.596	-0.493	-0.958	1.626	-0.790	-0.713	1.202	0.463	0.940	2.081	3.303	1.698	-1.210	-0.747	-0.872	-1.658	0.062	1.971	3.332	1.590	2.933	-0.031	-0.512	1.241	-0.796	679.688
2.438	-1.740	0.762	-0.437	-0.413	-0.843	1.511	-0.864	-0.953	0.969	0.178	0.672	2.008	3.244	1.854	-1.154	-0.727	-0.851	-1.572	0.025	1.947	3.392	1.756	2.930	-0.071	-0.634	1.107	-1.012	683.594
2.668	-1.561	0.964	-0.252	-0.300	-0.704	1.389	-0.916	-1.210	0.725	-0.181	0.343	1.952	3.209	2.015	-1.108	-0.724	-0.854	-1.525	0.006	1.944	3.463	1.924	2.950	-0.033	-0.702	1.014	-1.224	687.500
2.862	-1.414	1.138	-0.063	-0.170	-0.552	1.281	-0.934	-1.455	0.498	-0.582	-0.018	1.925	3.206	2.171	-1.083	-0.741	-0.887	-1.517	0.003	1.967	3.532	2.080	2.991	0.078	-0.716	0.972	-1.417	691.406
3.008	-1.311	1.274	0.110	-0.038	-0.395	1.208	-0.910	-1.664	0.315	-0.984	-0.378	1.939	3.244	2.305	-1.084	-0.782	-0.961	-1.548	0.015	2.018	3.585	2.211	3.050	0.245	-0.679	0.985	-1.580	695.312
3.097	-1.259	1.359	0.254	0.087	-0.240	1.185	-0.846	-1.815	0.199	-1.344	-0.704	2.003	3.324	2.403	-1.111	-0.846	-1.083	-1.610	0.038	2.096	3.609	2.305	3.120	0.447	-0.600	1.054	-1.702	699.219
3.125	-1.257	1.384	0.362	0.200	-0.091	1.219	-0.746	-1.898	0.167	-1.623	-0.962	2.125	3.443	2.454	-1.161	-0.935	-1.257	-1.697	0.070	2.196	3.593	2.355	3.199	0.662	-0.490	1.171	-1.772	703.125
3.095	-1.298	1.338	0.430	0.297	0.045	1.311	-0.620	-1.907	0.226	-1.793	-1.128	2.300	3.592	2.451	-1.224	-1.046	-1.478	-1.798	0.105	2.309	3.534	2.358	3.281	0.870	-0.362	1.325	-1.785	707.031
3.012	-1.373	1.216	0.462	0.377	0.161	1.446	-0.480	-1.849	0.367	-1.842	-1.191	2.518	3.757	2.399	-1.292	-1.174	-1.725	-1.902	0.138	2.422	3.436	2.317	3.363	1.059	-0.228	1.496	-1.745	710.938
2.888	-1.468	1.022	0.460	0.436	0.247	1.606	-0.339	-1.733	0.571	-1.776	-1.155	2.755	3.917	2.305	-1.351	-1.310	-1.970	-1.997	0.166	2.524	3.314	2.243	3.440	1.219	-0.103	1.667	-1.660	714.844
2.738	-1.571	0.776	0.431	0.471	0.292	1.763	-0.206	-1.575	0.808	-1.619	-1.040	2.983	4.051	2.188	-1.390	-1.443	-2.177	-2.073	0.189	2.605	3.182	2.152	3.506	1.346	0.001	1.813	-1.550	718.750
2.580	-1.671	0.508	0.379	0.477	0.292	1.892	-0.090	-1.393	1.041	-1.404	-0.878	3.170	4.139	2.065	-1.398	-1.558	-2.310	-2.119	0.210	2.655	3.059	2.058	3.551	1.440	0.070	1.915	-1.440	722.656
2.432	-1.757	0.261	0.312	0.451	0.245	1.971	0.003	-1.208	1.236	-1.172	-0.706	3.291	4.168	1.956	-1.364	-1.640	-2.344	-2.129	0.235	2.671	2.955	1.974	3.561	1.495	0.093	1.954	-1.355	726.562
2.310	-1.821	0.076	0.237	0.392	0.157	1.991	0.071	-1.035	1.367	-0.957	-0.558	3.328	4.131	1.876	-1.285	-1.677	-2.263	-2.100	0.273	2.655	2.875	1.907	3.526	1.510	0.061	1.923	-1.317	730.469
2.225	-1.860	-0.016	0.164	0.306	0.038	1.952	0.111	-0.889	1.419	-0.781	-0.457	3.277	4.035	1.838	-1.159	-1.660	-2.071	-2.034	0.330	2.617	2.817	1.859	3.440	1.476	-0.030	1.818	-1.340	734.375
2.183	-1.877	-0.002	0.099	0.200	-0.098	1.867	0.124	-0.778	1.393	-0.653	-0.413	3.148	3.896	1.847	-0.992	-1.585	-1.785	-1.934	0.416	2.569	2.774	1.824	3.303	1.389	-0.181	1.650	-1.425	738.281
2.181	-1.877	0.109	0.049	0.085	-0.238	1.760	0.110	-0.709	1.304	-0.567	-0.419	2.963	3.738	1.902	-0.795	-1.455	-1.435	-1.806	0.532	2.528	2.741	1.798	3.127	1.247	-0.385	1.436	-1.564	742.188
2.209	-1.871	0.291	0.017	-0.025	-0.372	1.658	0.070	-0.679	1.179	-0.507	-0.459	2.755	3.588	1.999	-0.582	-1.275	-1.052	-1.654	0.680	2.510	2.715	1.775	2.930	1.051	-0.633	1.202	-1.736	746.094
2.254	-1.870	0.502	0.001	-0.118	-0.488	1.584	0.008	-0.682	1.047	-0.451	-0.509	2.556	3.473	2.127	-0.368	-1.058	-0.670	-1.483	0.851	2.526	2.699	1.754	2.738	0.811	-0.910	0.974	-1.920	750.000
2.299	-1.887	0.702	-0.003	-0.183	-0.581	1.557	-0.072	-0.712	0.938	-0.384	-0.546	2.399	3.410	2.274	-0.170	-0.816	-0.321	-1.298	1.037	2.579	2.700	1.737	2.577	0.541	-1.197	0.781	-2.091	753.906
2.331	-1.926	0.850	0.000	-0.214	-0.647	1.585	-0.163	-0.758	0.872	-0.294	-0.551	2.305	3.408	2.426	-0.001	-0.563	-0.027	-1.103	1.222	2.664	2.724	1.729	2.469	0.262	-1.474	0.643	-2.228	757.812
2.341	-1.991	0.922	0.004	-0.209	-0.684	1.662	-0.263	-0.814	0.859	-0.183	-0.515	2.285	3.462	2.572	0.131	-0.313	0.196	-0.905	1.390	2.767	2.777	1.737	2.426	-0.002	-1.722	0.574	-2.319	761.719
2.330	-2.072	0.910	0.003	-0.173	-0.697	1.774	-0.366	-0.876	0.897	-0.064	-0.439	2.337	3.560	2.707	0.221	-0.078	0.343	-0.712	1.526	2.871	2.855	1.763	2.449	-0.228	-1.923	0.574	-2.359	765.625
2.307	-2.158	0.822	-0.002	-0.116	-0.690	1.899	-0.474	-0.949	0.974	0.044	-0.334	2.446	3.683	2.832	0.270	0.131	0.418	-0.534	1.619	2.958	2.951	1.808	2.531	-0.398	-2.067	0.636	-2.355	769.531
2.288	-2.228	0.684	-0.012	-0.054	-0.671	2.011	-0.592	-1.038	1.070	0.117	-0.215	2.592	3.809	2.956	0.281	0.309	0.436	-0.382	1.662	3.015	3.049	1.865	2.651	-0.499	-2.149	0.741	-2.318	773.438
2.293	-2.262	0.526	-0.022	-0.003	-0.651	2.087	-0.728	-1.155	1.165	0.134	-0.098	2.750	3.920	3.092	0.263	0.456	0.416	-0.263	1.654	3.031	3.133	1.926	2.788	-0.530	-2.172	0.866	-2.266	777.344
2.340	-2.241	0.379	-0.028	0.022	-0.643	2.107	-0.890	-1.310	1.241	0.080	0.001	2.897	4.003	3.254	0.225	0.575	0.383	-0.183	1.602	3.006	3.188	1.979	2.921	-0.496	-2.143	0.990	-2.216	781.250
2.438	-2.157	0.269	-0.026	0.010	-0.658	2.065	-1.084	-1.509	1.286	-0.047	0.075	3.016	4.052	3.454	0.177	0.673	0.357	-0.140	1.515	2.943	3.205	2.015	3.033	-0.409	-2.075	1.094	-2.178	785.156
2.589	-2.009	0.205	-0.015	-0.044	-0.702	1.962	-1.314	-1.752	1.298	-0.241	0.122	3.100	4.068	3.695	0.126	0.761	0.355	-0.128	1.404	2.852	3.182	2.029	3.117	-0.284	-1.980	1.170	-2.161	789.062
2.783	-1.811	0.187	0.004	-0.133	-0.774	1.811	-1.574	-2.032	1.280	-0.486	0.147	3.152	4.058	3.974	0.079	0.847	0.380	-0.137	1.283	2.742	3.127	2.023	3.173	-0.140	-1.873	1.218	-2.162	792.969
3.002	-1.585	0.200	0.029	-0.242	-0.864	1.635	-1.853	-2.334	1.243	-0.756	0.157	3.182	4.034	4.277	0.038	0.937	0.427	-0.153	1.161	2.625	3.054	2.004	3.210	0.008	-1.766	1.246	-2.179	796.875
