FP1	F3	F7	FC3	C3	C5	P3	P7	PO7	PO3	O1	Oz	Pz	CPz	FP2	Fz	F4	F8	FC4	FCz	Cz	C4	C6	P4	P8	PO8	PO4	O2	time
0.140	-0.697	-0.769	-0.797	-0.502	-2.413	-0.172	-0.564	0.026	-0.309	-0.266	-0.742	0.446	0.832	0.166	0.332	0.938	2.147	0.789	1.167	0.923	0.503	0.543	0.279	0.086	-0.940	0.101	-1.104	-199.219
0.015	-0.531	-0.787	-0.411	-0.256	-1.828	-0.351	-0.711	-0.007	-0.441	-0.268	-0.691	0.354	0.733	-0.056	0.433	0.801	1.835	0.883	1.168	1.003	0.592	0.610	0.247	0.134	-0.849	-0.026	-0.928	-195.312
-0.112	-0.384	-0.814	-0.066	-0.032	-1.294	-0.514	-0.850	-0.044	-0.557	-0.266	-0.627	0.272	0.633	-0.269	0.508	0.663	1.555	0.958	1.152	1.060	0.670	0.664	0.224	0.180	-0.736	-0.116	-0.735	-191.406
-0.246	-0.273	-0.857	0.205	0.153	-0.850	-0.639	-0.969	-0.078	-0.637	-0.255	-0.542	0.212	0.533	-0.463	0.540	0.529	1.327	1.003	1.108	1.077	0.726	0.693	0.217	0.220	-0.587	-0.139	-0.514	-187.500
-0.388	-0.209	-0.913	0.384	0.289	-0.518	-0.710	-1.052	-0.105	-0.664	-0.229	-0.431	0.182	0.439	-0.631	0.520	0.404	1.155	1.007	1.030	1.047	0.755	0.691	0.231	0.249	-0.401	-0.081	-0.267	-183.594
-0.535	-0.190	-0.973	0.469	0.377	-0.293	-0.711	-1.084	-0.116	-0.627	-0.181	-0.297	0.185	0.357	-0.775	0.450	0.293	1.028	0.966	0.923	0.974	0.750	0.653	0.265	0.257	-0.189	0.056	-0.004	-179.688
-0.680	-0.210	-1.023	0.475	0.426	-0.157	-0.634	-1.050	-0.100	-0.520	-0.106	-0.146	0.221	0.294	-0.894	0.343	0.201	0.921	0.882	0.797	0.870	0.711	0.579	0.314	0.236	0.031	0.254	0.257	-175.781
-0.818	-0.257	-1.050	0.425	0.449	-0.081	-0.479	-0.938	-0.045	-0.345	-0.001	0.010	0.285	0.259	-0.994	0.220	0.130	0.808	0.762	0.668	0.753	0.639	0.473	0.368	0.178	0.231	0.481	0.491	-171.875
-0.942	-0.319	-1.049	0.345	0.458	-0.039	-0.252	-0.749	0.056	-0.108	0.139	0.160	0.367	0.255	-1.074	0.100	0.084	0.668	0.620	0.551	0.642	0.537	0.340	0.419	0.082	0.388	0.701	0.676	-167.969
-1.048	-0.384	-1.022	0.258	0.465	-0.009	0.029	-0.495	0.204	0.171	0.310	0.293	0.456	0.282	-1.135	0.004	0.063	0.488	0.474	0.459	0.552	0.414	0.192	0.458	-0.049	0.480	0.879	0.794	-164.062
-1.131	-0.444	-0.978	0.183	0.476	0.024	0.340	-0.200	0.391	0.468	0.504	0.401	0.539	0.334	-1.174	-0.055	0.065	0.270	0.345	0.398	0.495	0.279	0.041	0.481	-0.205	0.499	0.991	0.836	-160.156
-1.187	-0.488	-0.927	0.133	0.497	0.068	0.653	0.106	0.598	0.754	0.705	0.475	0.603	0.402	-1.187	-0.070	0.087	0.025	0.246	0.373	0.472	0.146	-0.101	0.485	-0.370	0.444	1.023	0.802	-156.250
-1.212	-0.510	-0.879	0.117	0.531	0.131	0.937	0.389	0.801	0.997	0.889	0.508	0.639	0.474	-1.171	-0.045	0.120	-0.230	0.186	0.378	0.479	0.025	-0.222	0.471	-0.530	0.327	0.977	0.704	-152.344
-1.204	-0.504	-0.833	0.135	0.579	0.218	1.162	0.620	0.971	1.171	1.028	0.498	0.640	0.537	-1.126	0.012	0.156	-0.473	0.165	0.407	0.505	-0.074	-0.313	0.439	-0.667	0.165	0.863	0.556	-148.438
-1.158	-0.466	-0.780	0.181	0.636	0.326	1.308	0.779	1.082	1.255	1.096	0.441	0.602	0.578	-1.049	0.088	0.185	-0.684	0.172	0.447	0.535	-0.143	-0.369	0.392	-0.768	-0.020	0.703	0.381	-144.531
-1.072	-0.399	-0.704	0.241	0.691	0.446	1.359	0.861	1.116	1.242	1.078	0.340	0.528	0.588	-0.943	0.169	0.199	-0.849	0.194	0.486	0.554	-0.181	-0.387	0.330	-0.822	-0.202	0.517	0.200	-140.625
-0.946	-0.308	-0.586	0.295	0.731	0.561	1.312	0.873	1.064	1.133	0.966	0.203	0.421	0.559	-0.808	0.242	0.193	-0.962	0.213	0.509	0.547	-0.189	-0.370	0.255	-0.822	-0.362	0.327	0.030	-136.719
-0.783	-0.205	-0.416	0.323	0.738	0.654	1.173	0.831	0.933	0.944	0.772	0.039	0.291	0.488	-0.644	0.297	0.168	-1.021	0.213	0.505	0.502	-0.174	-0.320	0.169	-0.765	-0.484	0.149	-0.118	-132.812
-0.589	-0.099	-0.195	0.309	0.697	0.712	0.956	0.762	0.739	0.695	0.517	-0.138	0.144	0.377	-0.451	0.329	0.129	-1.032	0.186	0.465	0.413	-0.145	-0.245	0.075	-0.654	-0.563	-0.007	-0.240	-128.906
-0.374	-0.003	0.062	0.245	0.598	0.733	0.680	0.689	0.508	0.411	0.233	-0.312	-0.011	0.228	-0.231	0.335	0.084	-0.997	0.128	0.381	0.280	-0.117	-0.152	-0.023	-0.496	-0.600	-0.140	-0.339	-125.000
-0.149	0.075	0.325	0.132	0.440	0.725	0.368	0.632	0.266	0.117	-0.046	-0.468	-0.168	0.048	0.008	0.317	0.041	-0.920	0.043	0.254	0.104	-0.104	-0.049	-0.117	-0.302	-0.602	-0.250	-0.421	-121.094
0.074	0.128	0.560	-0.024	0.227	0.695	0.040	0.601	0.041	-0.166	-0.289	-0.591	-0.324	-0.153	0.258	0.276	0.006	-0.802	-0.062	0.088	-0.104	-0.114	0.057	-0.197	-0.085	-0.575	-0.340	-0.490	-117.188
0.282	0.148	0.733	-0.209	-0.030	0.650	-0.284	0.595	-0.149	-0.422	-0.470	-0.667	-0.475	-0.363	0.502	0.213	-0.019	-0.643	-0.175	-0.111	-0.332	-0.151	0.165	-0.255	0.146	-0.525	-0.411	-0.545	-113.281
0.462	0.133	0.815	-0.411	-0.315	0.584	-0.590	0.600	-0.294	-0.639	-0.577	-0.681	-0.615	-0.571	0.725	0.129	-0.035	-0.448	-0.287	-0.330	-0.565	-0.209	0.273	-0.277	0.379	-0.451	-0.459	-0.575	-109.375
0.606	0.080	0.794	-0.616	-0.611	0.487	-0.862	0.594	-0.396	-0.811	-0.608	-0.624	-0.738	-0.761	0.909	0.026	-0.048	-0.227	-0.388	-0.554	-0.786	-0.277	0.384	-0.254	0.610	-0.351	-0.477	-0.566	-105.469
0.706	-0.011	0.673	-0.808	-0.896	0.341	-1.090	0.552	-0.463	-0.933	-0.571	-0.491	-0.834	-0.920	1.044	-0.092	-0.063	0.003	-0.470	-0.766	-0.977	-0.339	0.501	-0.182	0.830	-0.221	-0.454	-0.503	-101.562
0.763	-0.132	0.473	-0.974	-1.151	0.134	-1.263	0.453	-0.510	-1.002	-0.481	-0.288	-0.890	-1.032	1.125	-0.219	-0.083	0.222	-0.526	-0.948	-1.121	-0.380	0.624	-0.063	1.034	-0.061	-0.382	-0.375	-97.656
0.782	-0.273	0.229	-1.101	-1.354	-0.138	-1.372	0.283	-0.553	-1.020	-0.362	-0.030	-0.896	-1.087	1.153	-0.346	-0.107	0.406	-0.553	-1.083	-1.203	-0.387	0.746	0.094	1.211	0.121	-0.261	-0.185	-93.750
0.771	-0.412	-0.018	-1.174	-1.489	-0.464	-1.409	0.042	-0.607	-0.989	-0.233	0.258	-0.843	-1.075	1.140	-0.461	-0.132	0.537	-0.546	-1.157	-1.216	-0.354	0.856	0.272	1.347	0.311	-0.097	0.054	-89.844
0.743	-0.527	-0.227	-1.181	-1.541	-0.813	-1.370	-0.255	-0.678	-0.917	-0.117	0.544	-0.728	-0.994	1.099	-0.549	-0.151	0.599	-0.508	-1.159	-1.156	-0.285	0.936	0.448	1.428	0.486	0.093	0.311	-85.938
0.710	-0.592	-0.370	-1.113	-1.501	-1.137	-1.251	-0.579	-0.763	-0.812	-0.028	0.792	-0.556	-0.846	1.044	-0.600	-0.156	0.584	-0.443	-1.089	-1.030	-0.189	0.970	0.597	1.437	0.623	0.286	0.551	-82.031
0.679	-0.587	-0.429	-0.964	-1.366	-1.382	-1.053	-0.890	-0.851	-0.682	0.027	0.970	-0.339	-0.642	0.989	-0.608	-0.145	0.491	-0.359	-0.953	-0.849	-0.083	0.942	0.698	1.363	0.700	0.453	0.737	-78.125
0.655	-0.506	-0.406	-0.742	-1.142	-1.494	-0.783	-1.147	-0.925	-0.536	0.047	1.057	-0.094	-0.399	0.936	-0.575	-0.120	0.328	-0.269	-0.769	-0.632	0.016	0.846	0.735	1.204	0.702	0.572	0.840	-74.219
0.637	-0.357	-0.320	-0.463	-0.846	-1.441	-0.454	-1.312	-0.965	-0.378	0.043	1.047	0.157	-0.138	0.882	-0.508	-0.088	0.107	-0.188	-0.562	-0.405	0.094	0.685	0.705	0.969	0.631	0.627	0.847	-70.312
0.622	-0.160	-0.198	-0.151	-0.502	-1.216	-0.087	-1.358	-0.956	-0.209	0.028	0.950	0.389	0.115	0.818	-0.423	-0.064	-0.154	-0.129	-0.358	-0.191	0.141	0.473	0.614	0.676	0.500	0.612	0.759	-66.406
0.600	0.052	-0.074	0.161	-0.143	-0.841	0.289	-1.275	-0.885	-0.032	0.019	0.786	0.581	0.337	0.733	-0.335	-0.060	-0.429	-0.105	-0.184	-0.013	0.155	0.232	0.475	0.354	0.334	0.537	0.599	-62.500
0.563	0.245	0.026	0.439	0.199	-0.363	0.642	-1.068	-0.749	0.153	0.031	0.588	0.716	0.507	0.616	-0.263	-0.088	-0.694	-0.120	-0.063	0.113	0.142	-0.016	0.311	0.034	0.164	0.418	0.399	-58.594
0.503	0.390	0.084	0.654	0.492	0.155	0.942	-0.761	-0.554	0.341	0.071	0.391	0.787	0.613	0.463	-0.219	-0.156	-0.924	-0.175	-0.005	0.178	0.111	-0.250	0.140	-0.253	0.020	0.277	0.197	-54.688
0.415	0.468	0.100	0.783	0.713	0.645	1.163	-0.386	-0.313	0.527	0.141	0.222	0.791	0.646	0.280	-0.207	-0.259	-1.095	-0.261	-0.013	0.181	0.069	-0.455	-0.021	-0.485	-0.072	0.136	0.028	-50.781
0.304	0.480	0.087	0.818	0.844	1.045	1.286	0.014	-0.048	0.697	0.229	0.104	0.732	0.609	0.081	-0.226	-0.386	-1.188	-0.364	-0.077	0.129	0.025	-0.625	-0.162	-0.648	-0.099	0.010	-0.083	-46.875
0.180	0.440	0.070	0.765	0.880	1.305	1.307	0.397	0.212	0.837	0.316	0.040	0.621	0.509	-0.112	-0.267	-0.518	-1.193	-0.466	-0.181	0.035	-0.020	-0.758	-0.283	-0.741	-0.063	-0.097	-0.128	-42.969
0.062	0.378	0.077	0.643	0.827	1.402	1.226	0.725	0.439	0.929	0.377	0.022	0.469	0.361	-0.272	-0.312	-0.629	-1.103	-0.548	-0.301	-0.086	-0.066	-0.861	-0.391	-0.772	0.024	-0.188	-0.114	-39.062
-0.029	0.329	0.135	0.481	0.701	1.336	1.057	0.965	0.603	0.957	0.388	0.029	0.287	0.181	-0.375	-0.344	-0.696	-0.923	-0.596	-0.415	-0.216	-0.118	-0.937	-0.496	-0.757	0.138	-0.277	-0.066	-35.156
-0.072	0.322	0.258	0.313	0.524	1.137	0.816	1.101	0.683	0.905	0.329	0.034	0.084	-0.016	-0.401	-0.346	-0.701	-0.664	-0.601	-0.502	-0.342	-0.180	-0.994	-0.608	-0.713	0.252	-0.381	-0.014	-31.250
-0.053	0.379	0.448	0.168	0.322	0.848	0.525	1.128	0.670	0.769	0.190	0.010	-0.132	-0.213	-0.343	-0.305	-0.636	-0.347	-0.565	-0.548	-0.449	-0.255	-1.036	-0.735	-0.657	0.343	-0.512	0.010	-27.344
0.031	0.503	0.693	0.069	0.120	0.521	0.206	1.058	0.568	0.552	-0.023	-0.060	-0.355	-0.395	-0.208	-0.216	-0.507	-0.001	-0.498	-0.544	-0.526	-0.342	-1.063	-0.877	-0.603	0.392	-0.680	-0.018	-23.438
0.175	0.685	0.969	0.023	-0.063	0.204	-0.119	0.910	0.394	0.267	-0.291	-0.183	-0.578	-0.550	-0.013	-0.081	-0.331	0.341	-0.416	-0.492	-0.567	-0.438	-1.078	-1.027	-0.561	0.392	-0.882	-0.112	-19.531
0.363	0.898	1.250	0.028	-0.213	-0.067	-0.428	0.716	0.178	-0.062	-0.586	-0.351	-0.792	-0.668	0.214	0.090	-0.136	0.644	-0.338	-0.397	-0.568	-0.532	-1.078	-1.174	-0.534	0.345	-1.106	-0.267	-15.625
0.574	1.109	1.512	0.070	-0.328	-0.267	-0.701	0.505	-0.046	-0.407	-0.870	-0.542	-0.988	-0.742	0.442	0.276	0.045	0.874	-0.285	-0.275	-0.531	-0.615	-1.063	-1.300	-0.523	0.265	-1.332	-0.466	-11.719
0.781	1.284	1.735	0.125	-0.412	-0.387	-0.923	0.306	-0.245	-0.736	-1.107	-0.728	-1.155	-0.768	0.641	0.453	0.179	1.007	-0.270	-0.147	-0.464	-0.674	-1.032	-1.389	-0.522	0.170	-1.532	-0.678	-7.812
0.964	1.391	1.908	0.166	-0.477	-0.429	-1.082	0.142	-0.392	-1.017	-1.264	-0.873	-1.282	-0.751	0.786	0.592	0.241	1.028	-0.304	-0.040	-0.383	-0.700	-0.981	-1.425	-0.521	0.086	-1.679	-0.867	-3.906
1.103	1.404	2.024	0.166	-0.543	-0.407	-1.173	0.025	-0.469	-1.224	-1.317	-0.944	-1.361	-0.701	0.864	0.662	0.212	0.937	-0.391	0.018	-0.310	-0.686	-0.907	-1.398	-0.507	0.037	-1.747	-0.993	0.000
1.185	1.313	2.082	0.103	-0.628	-0.344	-1.194	-0.042	-0.467	-1.340	-1.251	-0.914	-1.391	-0.633	0.871	0.640	0.089	0.750	-0.528	0.000	-0.269	-0.635	-0.810	-1.303	-0.466	0.045	-1.718	-1.023	3.906
1.207	1.119	2.079	-0.037	-0.747	-0.263	-1.151	-0.060	-0.390	-1.356	-1.063	-0.765	-1.372	-0.564	0.817	0.510	-0.120	0.496	-0.712	-0.112	-0.283	-0.555	-0.690	-1.144	-0.385	0.121	-1.587	-0.937	7.812
1.169	0.836	2.015	-0.253	-0.908	-0.192	-1.054	-0.036	-0.245	-1.270	-0.759	-0.493	-1.310	-0.514	0.718	0.271	-0.400	0.211	-0.937	-0.326	-0.369	-0.461	-0.554	-0.935	-0.260	0.270	-1.360	-0.726	11.719
1.081	0.491	1.885	-0.532	-1.107	-0.151	-0.913	0.021	-0.047	-1.092	-0.354	-0.105	-1.213	-0.495	0.594	-0.066	-0.726	-0.067	-1.195	-0.637	-0.533	-0.370	-0.415	-0.695	-0.092	0.485	-1.059	-0.401	15.625
0.955	0.118	1.692	-0.846	-1.329	-0.154	-0.742	0.103	0.188	-0.838	0.128	0.374	-1.089	-0.512	0.464	-0.474	-1.073	-0.313	-1.475	-1.021	-0.765	-0.299	-0.290	-0.445	0.109	0.750	-0.712	0.014	19.531
0.805	-0.243	1.441	-1.158	-1.550	-0.204	-0.556	0.200	0.443	-0.533	0.654	0.911	-0.950	-0.564	0.338	-0.913	-1.414	-0.510	-1.764	-1.443	-1.044	-0.257	-0.198	-0.207	0.323	1.041	-0.353	0.484	23.438
0.644	-0.556	1.144	-1.428	-1.742	-0.293	-0.368	0.304	0.698	-0.203	1.185	1.460	-0.805	-0.637	0.223	-1.338	-1.723	-0.659	-2.042	-1.855	-1.337	-0.247	-0.152	0.002	0.527	1.330	-0.016	0.963	27.344
0.483	-0.789	0.818	-1.621	-1.878	-0.403	-0.196	0.404	0.932	0.118	1.678	1.970	-0.662	-0.714	0.119	-1.697	-1.975	-0.771	-2.284	-2.208	-1.602	-0.260	-0.160	0.169	0.698	1.585	0.270	1.404	31.250
0.330	-0.922	0.486	-1.710	-1.937	-0.515	-0.051	0.489	1.123	0.399	2.087	2.387	-0.532	-0.773	0.022	-1.945	-2.147	-0.863	-2.459	-2.451	-1.798	-0.280	-0.215	0.291	0.815	1.780	0.485	1.762	35.156
0.190	-0.947	0.171	-1.687	-1.910	-0.610	0.055	0.549	1.251	0.611	2.370	2.662	-0.423	-0.796	-0.071	-2.045	-2.219	-0.947	-2.535	-2.545	-1.892	-0.285	-0.300	0.367	0.866	1.894	0.616	1.996	39.062
0.065	-0.869	-0.099	-1.558	-1.801	-0.675	0.116	0.577	1.302	0.732	2.492	2.752	-0.345	-0.771	-0.162	-1.978	-2.177	-1.029	-2.489	-2.468	-1.863	-0.249	-0.389	0.403	0.847	1.912	0.659	2.076	42.969
-0.043	-0.705	-0.305	-1.344	-1.623	-0.704	0.133	0.569	1.268	0.752	2.433	2.631	-0.304	-0.694	-0.252	-1.746	-2.019	-1.099	-2.307	-2.217	-1.710	-0.156	-0.453	0.404	0.760	1.831	0.614	1.987	46.875
-0.133	-0.477	-0.428	-1.073	-1.395	-0.697	0.114	0.532	1.157	0.674	2.193	2.292	-0.304	-0.574	-0.342	-1.371	-1.759	-1.141	-1.995	-1.816	-1.449	-0.001	-0.471	0.373	0.619	1.661	0.488	1.727	50.781
-0.203	-0.214	-0.462	-0.775	-1.140	-0.658	0.075	0.481	0.987	0.515	1.792	1.751	-0.345	-0.425	-0.431	-0.899	-1.423	-1.137	-1.583	-1.308	-1.114	0.205	-0.430	0.312	0.441	1.419	0.291	1.317	54.688
-0.254	0.057	-0.410	-0.477	-0.876	-0.590	0.031	0.439	0.790	0.300	1.269	1.047	-0.423	-0.270	-0.518	-0.387	-1.053	-1.074	-1.119	-0.756	-0.750	0.435	-0.335	0.220	0.248	1.137	0.041	0.794	58.594
-0.293	0.307	-0.287	-0.203	-0.623	-0.497	-0.005	0.432	0.603	0.061	0.681	0.237	-0.534	-0.134	-0.607	0.100	-0.697	-0.948	-0.664	-0.231	-0.409	0.649	-0.203	0.096	0.063	0.850	-0.244	0.213	62.500
-0.332	0.514	-0.114	0.027	-0.396	-0.377	-0.025	0.486	0.465	-0.173	0.088	-0.608	-0.674	-0.042	-0.698	0.502	-0.403	-0.771	-0.278	0.202	-0.137	0.803	-0.061	-0.056	-0.087	0.603	-0.537	-0.360	66.406
-0.387	0.657	0.076	0.199	-0.213	-0.232	-0.033	0.616	0.403	-0.383	-0.454	-1.417	-0.839	-0.017	-0.798	0.771	-0.207	-0.560	-0.009	0.486	0.025	0.858	0.064	-0.231	-0.177	0.437	-0.812	-0.857	70.312
-0.477	0.723	0.254	0.302	-0.088	-0.068	-0.043	0.827	0.431	-0.562	-0.902	-2.128	-1.030	-0.074	-0.912	0.882	-0.126	-0.335	0.115	0.589	0.054	0.789	0.151	-0.417	-0.185	0.387	-1.044	-1.217	74.219
-0.620	0.708	0.395	0.331	-0.039	0.100	-0.077	1.107	0.546	-0.719	-1.238	-2.702	-1.251	-0.223	-1.049	0.832	-0.159	-0.111	0.096	0.506	-0.057	0.593	0.191	-0.601	-0.097	0.476	-1.211	-1.398	78.125
-0.824	0.620	0.481	0.289	-0.077	0.252	-0.159	1.426	0.726	-0.868	-1.461	-3.120	-1.505	-0.460	-1.213	0.644	-0.284	0.104	-0.039	0.258	-0.294	0.288	0.187	-0.769	0.094	0.707	-1.301	-1.388	82.031
-1.084	0.475	0.512	0.185	-0.207	0.359	-0.305	1.747	0.942	-1.032	-1.593	-3.392	-1.790	-0.775	-1.403	0.360	-0.467	0.311	-0.248	-0.113	-0.630	-0.091	0.154	-0.910	0.379	1.065	-1.310	-1.202	85.938
-1.385	0.299	0.494	0.037	-0.422	0.402	-0.521	2.032	1.160	-1.221	-1.663	-3.545	-2.102	-1.145	-1.612	0.029	-0.670	0.512	-0.481	-0.553	-1.028	-0.495	0.108	-1.014	0.740	1.514	-1.247	-0.886	89.844
-1.700	0.118	0.447	-0.133	-0.702	0.369	-0.795	2.251	1.355	-1.439	-1.700	-3.618	-2.423	-1.541	-1.826	-0.302	-0.862	0.705	-0.699	-1.005	-1.444	-0.875	0.068	-1.080	1.144	2.005	-1.126	-0.501	93.750
-1.997	-0.044	0.389	-0.303	-1.016	0.266	-1.100	2.386	1.510	-1.668	-1.722	-3.643	-2.729	-1.930	-2.027	-0.597	-1.023	0.880	-0.876	-1.420	-1.838	-1.190	0.043	-1.106	1.553	2.484	-0.968	-0.116	97.656
-2.245	-0.172	0.334	-0.451	-1.323	0.115	-1.395	2.437	1.627	-1.876	-1.730	-3.645	-2.990	-2.276	-2.198	-0.835	-1.149	1.019	-1.006	-1.766	-2.176	-1.415	0.033	-1.096	1.923	2.898	-0.794	0.211	101.562
-2.419	-0.260	0.289	-0.560	-1.584	-0.053	-1.637	2.422	1.717	-2.019	-1.709	-3.628	-3.170	-2.544	-2.325	-1.012	-1.248	1.101	-1.098	-2.023	-2.432	-1.541	0.028	-1.054	2.215	3.207	-0.621	0.441	105.469
-2.507	-0.312	0.249	-0.624	-1.762	-0.205	-1.784	2.362	1.798	-2.052	-1.632	-3.581	-3.239	-2.704	-2.401	-1.134	-1.335	1.102	-1.170	-2.186	-2.587	-1.576	0.014	-0.983	2.395	3.381	-0.458	0.558	109.375
-2.504	-0.337	0.202	-0.639	-1.835	-0.312	-1.806	2.282	1.885	-1.942	-1.469	-3.482	-3.172	-2.734	-2.424	-1.212	-1.424	1.007	-1.238	-2.259	-2.632	-1.536	-0.026	-0.882	2.441	3.410	-0.309	0.567	113.281
-2.416	-0.345	0.135	-0.613	-1.794	-0.361	-1.694	2.197	1.984	-1.673	-1.201	-3.307	-2.957	-2.619	-2.393	-1.256	-1.520	0.816	-1.309	-2.249	-2.560	-1.442	-0.100	-0.753	2.341	3.297	-0.170	0.490	117.188
-2.255	-0.342	0.039	-0.551	-1.646	-0.356	-1.457	2.110	2.088	-1.257	-0.826	-3.037	-2.596	-2.356	-2.311	-1.270	-1.622	0.540	-1.382	-2.161	-2.371	-1.310	-0.210	-0.592	2.096	3.056	-0.036	0.356	121.094
-2.033	-0.326	-0.086	-0.463	-1.412	-0.312	-1.123	2.007	2.176	-0.730	-0.363	-2.671	-2.107	-1.952	-2.179	-1.250	-1.715	0.203	-1.442	-2.000	-2.069	-1.150	-0.345	-0.400	1.721	2.713	0.096	0.196	125.000
-1.765	-0.290	-0.230	-0.349	-1.121	-0.252	-0.736	1.868	2.219	-0.152	0.145	-2.224	-1.525	-1.429	-1.997	-1.189	-1.780	-0.164	-1.473	-1.763	-1.664	-0.968	-0.488	-0.181	1.238	2.295	0.225	0.035	128.906
-1.462	-0.219	-0.375	-0.209	-0.802	-0.196	-0.344	1.668	2.187	0.408	0.640	-1.731	-0.895	-0.818	-1.765	-1.073	-1.794	-0.530	-1.457	-1.448	-1.169	-0.768	-0.616	0.056	0.678	1.829	0.342	-0.116	132.812
-1.137	-0.099	-0.499	-0.035	-0.482	-0.156	0.001	1.391	2.056	0.878	1.061	-1.241	-0.273	-0.160	-1.491	-0.893	-1.743	-0.867	-1.383	-1.056	-0.609	-0.552	-0.707	0.296	0.076	1.340	0.431	-0.252	136.719
-0.804	0.080	-0.577	0.174	-0.184	-0.135	0.258	1.032	1.818	1.198	1.351	-0.807	0.286	0.500	-1.185	-0.645	-1.617	-1.156	-1.248	-0.595	-0.010	-0.325	-0.745	0.518	-0.529	0.853	0.471	-0.377	140.625
-0.479	0.314	-0.589	0.415	0.075	-0.125	0.395	0.605	1.481	1.329	1.471	-0.479	0.731	1.113	-0.868	-0.337	-1.423	-1.384	-1.060	-0.080	0.591	-0.097	-0.725	0.699	-1.096	0.387	0.444	-0.498	144.531
-0.184	0.590	-0.525	0.673	0.281	-0.121	0.398	0.142	1.075	1.255	1.409	-0.291	1.024	1.637	-0.569	0.014	-1.177	-1.547	-0.837	0.461	1.158	0.122	-0.650	0.822	-1.588	-0.033	0.335	-0.616	148.438
0.059	0.880	-0.385	0.927	0.424	-0.115	0.268	-0.313	0.644	0.989	1.177	-0.261	1.143	2.037	-0.319	0.380	-0.908	-1.646	-0.598	0.995	1.655	0.322	-0.531	0.874	-1.971	-0.387	0.142	-0.730	152.344
0.224	1.149	-0.186	1.150	0.499	-0.101	0.024	-0.712	0.238	0.566	0.811	-0.385	1.085	2.290	-0.151	0.726	-0.647	-1.688	-0.365	1.483	2.051	0.493	-0.383	0.856	-2.219	-0.651	-0.122	-0.829	156.250
0.291	1.357	0.040	1.316	0.509	-0.077	-0.304	-1.007	-0.094	0.035	0.364	-0.641	0.868	2.389	-0.093	1.017	-0.425	-1.686	-0.155	1.893	2.326	0.630	-0.224	0.776	-2.319	-0.806	-0.436	-0.898	160.156
0.240	1.475	0.252	1.408	0.459	-0.043	-0.679	-1.165	-0.311	-0.544	-0.109	-0.992	0.521	2.343	-0.163	1.225	-0.268	-1.654	0.018	2.199	2.474	0.734	-0.067	0.652	-2.274	-0.836	-0.768	-0.920	164.062
0.063	1.481	0.406	1.422	0.363	0.001	-1.059	-1.167	-0.387	-1.114	-0.555	-1.395	0.087	2.172	-0.366	1.332	-0.188	-1.604	0.150	2.389	2.502	0.805	0.078	0.504	-2.097	-0.736	-1.085	-0.882	167.969
-0.239	1.371	0.467	1.363	0.236	0.052	-1.405	-1.014	-0.316	-1.628	-0.932	-1.808	-0.391	1.905	-0.692	1.333	-0.190	-1.550	0.240	2.464	2.429	0.849	0.204	0.350	-1.817	-0.510	-1.358	-0.773	171.875
-0.653	1.160	0.415	1.249	0.094	0.108	-1.687	-0.725	-0.108	-2.048	-1.214	-2.190	-0.872	1.574	-1.120	1.239	-0.266	-1.500	0.290	2.440	2.278	0.867	0.307	0.208	-1.470	-0.171	-1.564	-0.592	175.781
-1.155	0.873	0.254	1.107	-0.051	0.164	-1.886	-0.334	0.208	-2.355	-1.393	-2.513	-1.322	1.209	-1.617	1.072	-0.401	-1.460	0.306	2.339	2.076	0.862	0.384	0.088	-1.092	0.258	-1.690	-0.342	179.688
-1.714	0.547	0.006	0.961	-0.190	0.215	-1.993	0.118	0.594	-2.542	-1.470	-2.758	-1.718	0.838	-2.147	0.859	-0.575	-1.430	0.290	2.188	1.843	0.837	0.433	-0.002	-0.713	0.750	-1.731	-0.033	183.594
-2.293	0.217	-0.293	0.833	-0.316	0.255	-2.014	0.587	1.008	-2.613	-1.459	-2.914	-2.043	0.480	-2.673	0.631	-0.770	-1.411	0.245	2.007	1.595	0.793	0.455	-0.055	-0.355	1.277	-1.686	0.321	187.500
-2.858	-0.087	-0.605	0.734	-0.429	0.278	-1.961	1.033	1.405	-2.582	-1.378	-2.983	-2.290	0.151	-3.162	0.412	-0.966	-1.399	0.171	1.814	1.340	0.736	0.455	-0.065	-0.024	1.812	-1.557	0.705	191.406
-3.379	-0.346	-0.900	0.663	-0.534	0.279	-1.850	1.425	1.750	-2.465	-1.244	-2.973	-2.455	-0.135	-3.587	0.220	-1.150	-1.391	0.072	1.617	1.080	0.676	0.443	-0.021	0.285	2.333	-1.348	1.102	195.312
-3.831	-0.556	-1.162	0.611	-0.633	0.250	-1.699	1.745	2.019	-2.280	-1.077	-2.897	-2.538	-0.370	-3.930	0.065	-1.310	-1.382	-0.050	1.414	0.814	0.624	0.436	0.083	0.587	2.823	-1.060	1.493	199.219
-4.199	-0.725	-1.390	0.559	-0.732	0.186	-1.521	1.985	2.197	-2.045	-0.892	-2.771	-2.542	-0.547	-4.181	-0.056	-1.444	-1.369	-0.191	1.201	0.542	0.595	0.454	0.256	0.897	3.271	-0.701	1.860	203.125
-4.473	-0.869	-1.595	0.487	-0.835	0.087	-1.320	2.150	2.288	-1.775	-0.701	-2.618	-2.470	-0.662	-4.338	-0.153	-1.551	-1.343	-0.345	0.966	0.263	0.602	0.518	0.500	1.229	3.668	-0.282	2.181	207.031
-4.650	-1.005	-1.788	0.378	-0.940	-0.039	-1.097	2.254	2.306	-1.483	-0.517	-2.458	-2.329	-0.714	-4.405	-0.242	-1.637	-1.300	-0.509	0.702	-0.019	0.652	0.640	0.808	1.586	4.004	0.180	2.435	210.938
-4.730	-1.145	-1.978	0.222	-1.041	-0.173	-0.850	2.319	2.272	-1.182	-0.350	-2.315	-2.126	-0.706	-4.390	-0.340	-1.711	-1.233	-0.680	0.404	-0.298	0.744	0.827	1.166	1.958	4.271	0.657	2.602	214.844
-4.715	-1.295	-2.163	0.021	-1.128	-0.287	-0.574	2.368	2.212	-0.883	-0.213	-2.211	-1.871	-0.644	-4.304	-0.462	-1.784	-1.136	-0.859	0.073	-0.564	0.868	1.070	1.549	2.328	4.457	1.116	2.664	218.750
-4.612	-1.449	-2.331	-0.214	-1.188	-0.347	-0.272	2.423	2.148	-0.596	-0.115	-2.164	-1.577	-0.537	-4.160	-0.615	-1.863	-1.012	-1.046	-0.282	-0.807	1.010	1.351	1.932	2.666	4.555	1.522	2.613	222.656
-4.431	-1.592	-2.463	-0.460	-1.204	-0.320	0.052	2.499	2.097	-0.333	-0.066	-2.184	-1.255	-0.394	-3.970	-0.798	-1.953	-0.865	-1.241	-0.644	-1.015	1.152	1.641	2.286	2.944	4.559	1.846	2.450	226.562
-4.187	-1.708	-2.538	-0.693	-1.169	-0.186	0.386	2.600	2.068	-0.100	-0.073	-2.272	-0.916	-0.223	-3.744	-1.004	-2.057	-0.708	-1.443	-0.995	-1.177	1.276	1.906	2.587	3.135	4.471	2.064	2.187	230.469
-3.898	-1.783	-2.540	-0.892	-1.081	0.054	0.714	2.726	2.064	0.099	-0.133	-2.415	-0.568	-0.032	-3.494	-1.221	-2.171	-0.557	-1.648	-1.319	-1.289	1.369	2.114	2.821	3.222	4.304	2.171	1.852	234.375
-3.585	-1.815	-2.459	-1.046	-0.951	0.373	1.023	2.868	2.085	0.267	-0.235	-2.590	-0.217	0.177	-3.230	-1.439	-2.291	-0.429	-1.853	-1.605	-1.349	1.423	2.238	2.981	3.202	4.077	2.176	1.480	238.281
-3.269	-1.812	-2.303	-1.159	-0.799	0.724	1.300	3.017	2.130	0.411	-0.355	-2.765	0.135	0.399	-2.965	-1.652	-2.414	-0.344	-2.051	-1.852	-1.360	1.434	2.261	3.073	3.085	3.819	2.106	1.114	242.188
-2.973	-1.794	-2.088	-1.244	-0.649	1.052	1.541	3.164	2.202	0.547	-0.465	-2.901	0.487	0.635	-2.713	-1.861	-2.540	-0.316	-2.241	-2.066	-1.331	1.401	2.179	3.112	2.894	3.565	1.997	0.797	246.094
-2.714	-1.788	-1.846	-1.321	-0.526	1.300	1.751	3.304	2.302	0.691	-0.530	-2.964	0.837	0.883	-2.493	-2.073	-2.677	-0.359	-2.423	-2.262	-1.271	1.326	1.998	3.118	2.660	3.349	1.894	0.566	250.000
-2.510	-1.820	-1.614	-1.411	-0.448	1.433	1.940	3.435	2.434	0.860	-0.519	-2.925	1.184	1.141	-2.321	-2.298	-2.834	-0.479	-2.601	-2.454	-1.192	1.214	1.736	3.114	2.414	3.200	1.837	0.450	253.906
-2.373	-1.909	-1.431	-1.532	-0.425	1.433	2.120	3.556	2.602	1.066	-0.407	-2.769	1.524	1.403	-2.215	-2.547	-3.022	-0.681	-2.778	-2.655	-1.103	1.072	1.416	3.126	2.188	3.145	1.860	0.466	257.812
-2.311	-2.070	-1.330	-1.696	-0.457	1.310	2.308	3.671	2.805	1.318	-0.179	-2.488	1.855	1.663	-2.187	-2.828	-3.251	-0.961	-2.959	-2.874	-1.011	0.913	1.065	3.172	2.007	3.197	1.983	0.620	261.719
-2.331	-2.309	-1.333	-1.909	-0.541	1.089	2.516	3.780	3.042	1.622	0.168	-2.089	2.172	1.911	-2.246	-3.143	-3.526	-1.316	-3.143	-3.113	-0.925	0.751	0.712	3.271	1.889	3.363	2.215	0.906	265.625
-2.433	-2.626	-1.451	-2.175	-0.669	0.806	2.750	3.881	3.307	1.976	0.623	-1.583	2.477	2.139	-2.394	-3.492	-3.843	-1.734	-3.328	-3.368	-0.849	0.604	0.384	3.433	1.844	3.637	2.553	1.313	269.531
-2.614	-3.012	-1.682	-2.489	-0.830	0.500	3.014	3.971	3.591	2.377	1.168	-0.993	2.772	2.343	-2.626	-3.868	-4.192	-2.204	-3.508	-3.632	-0.784	0.489	0.104	3.664	1.874	4.005	2.985	1.819	273.438
-2.864	-3.454	-2.013	-2.840	-1.010	0.203	3.304	4.045	3.882	2.816	1.771	-0.342	3.064	2.522	-2.931	-4.262	-4.555	-2.712	-3.671	-3.893	-0.730	0.418	-0.111	3.961	1.976	4.443	3.491	2.400	277.344
-3.169	-3.930	-2.425	-3.211	-1.191	-0.058	3.612	4.093	4.165	3.280	2.399	0.337	3.359	2.682	-3.290	-4.656	-4.910	-3.241	-3.806	-4.137	-0.681	0.399	-0.253	4.318	2.139	4.921	4.046	3.024	281.250
-3.510	-4.413	-2.895	-3.576	-1.353	-0.268	3.924	4.110	4.426	3.753	3.015	1.012	3.665	2.832	-3.680	-5.032	-5.229	-3.772	-3.900	-4.348	-0.627	0.434	-0.318	4.721	2.348	5.403	4.623	3.658	285.156
-3.867	-4.872	-3.403	-3.906	-1.471	-0.416	4.226	4.088	4.651	4.215	3.585	1.646	3.982	2.986	-4.075	-5.365	-5.486	-4.285	-3.938	-4.513	-0.556	0.519	-0.308	5.154	2.586	5.854	5.191	4.264	289.062
-4.220	-5.277	-3.930	-4.169	-1.528	-0.506	4.500	4.026	4.828	4.645	4.082	2.205	4.305	3.155	-4.451	-5.631	-5.659	-4.763	-3.910	-4.613	-0.454	0.649	-0.231	5.598	2.831	6.245	5.722	4.805	292.969
-4.552	-5.601	-4.466	-4.341	-1.512	-0.545	4.731	3.923	4.952	5.023	4.487	2.660	4.623	3.347	-4.785	-5.808	-5.729	-5.188	-3.803	-4.635	-0.309	0.815	-0.095	6.035	3.064	6.548	6.189	5.244	296.875
-4.847	-5.824	-4.999	-4.404	-1.421	-0.552	4.905	3.782	5.022	5.334	4.790	2.989	4.924	3.564	-5.059	-5.875	-5.685	-5.549	-3.611	-4.565	-0.112	1.008	0.091	6.447	3.264	6.746	6.569	5.552	300.781
-5.094	-5.935	-5.516	-4.354	-1.267	-0.550	5.017	3.607	5.039	5.565	4.985	3.178	5.192	3.804	-5.260	-5.818	-5.525	-5.838	-3.329	-4.394	0.141	1.224	0.314	6.819	3.416	6.831	6.848	5.707	304.688
-5.283	-5.929	-6.000	-4.199	-1.071	-0.561	5.064	3.403	5.005	5.712	5.071	3.224	5.416	4.057	-5.378	-5.631	-5.257	-6.055	-2.960	-4.120	0.447	1.460	0.562	7.138	3.507	6.803	7.017	5.698	308.594
-5.405	-5.812	-6.430	-3.958	-0.855	-0.603	5.053	3.171	4.919	5.773	5.050	3.132	5.590	4.312	-5.410	-5.318	-4.898	-6.209	-2.515	-3.745	0.798	1.714	0.825	7.396	3.533	6.668	7.076	5.525	312.500
-5.454	-5.593	-6.783	-3.654	-0.641	-0.683	4.992	2.915	4.780	5.754	4.923	2.917	5.715	4.557	-5.358	-4.891	-4.475	-6.310	-2.013	-3.283	1.183	1.983	1.090	7.589	3.497	6.443	7.031	5.202	316.406
-5.427	-5.289	-7.036	-3.314	-0.443	-0.792	4.894	2.641	4.588	5.661	4.695	2.597	5.793	4.782	-5.227	-4.376	-4.019	-6.373	-1.478	-2.752	1.585	2.264	1.348	7.718	3.408	6.145	6.895	4.752	320.312
-5.324	-4.919	-7.176	-2.963	-0.266	-0.910	4.768	2.353	4.343	5.501	4.376	2.195	5.831	4.973	-5.030	-3.804	-3.563	-6.408	-0.942	-2.181	1.985	2.547	1.593	7.783	3.282	5.796	6.684	4.207	324.219
-5.148	-4.507	-7.197	-2.621	-0.112	-1.014	4.619	2.061	4.050	5.284	3.984	1.736	5.829	5.120	-4.781	-3.211	-3.135	-6.419	-0.433	-1.603	2.361	2.821	1.819	7.789	3.139	5.421	6.416	3.605	328.125
-4.912	-4.077	-7.109	-2.307	0.023	-1.084	4.448	1.778	3.718	5.017	3.543	1.247	5.786	5.212	-4.497	-2.635	-2.757	-6.404	0.024	-1.051	2.691	3.071	2.025	7.738	2.999	5.042	6.108	2.984	332.031
-4.632	-3.659	-6.934	-2.037	0.138	-1.112	4.251	1.514	3.363	4.709	3.082	0.756	5.698	5.238	-4.192	-2.110	-2.438	-6.356	0.409	-0.559	2.954	3.283	2.212	7.635	2.882	4.681	5.776	2.383	335.938
-4.333	-3.278	-6.710	-1.820	0.231	-1.100	4.023	1.284	3.008	4.371	2.637	0.291	5.556	5.196	-3.881	-1.660	-2.180	-6.268	0.714	-0.153	3.135	3.447	2.382	7.482	2.805	4.358	5.434	1.836	339.844
-4.040	-2.958	-6.478	-1.661	0.296	-1.062	3.765	1.099	2.677	4.015	2.240	-0.122	5.358	5.085	-3.574	-1.305	-1.978	-6.135	0.935	0.151	3.228	3.557	2.534	7.287	2.774	4.085	5.095	1.371	343.750
-3.776	-2.715	-6.278	-1.559	0.329	-1.012	3.484	0.967	2.396	3.659	1.918	-0.459	5.106	4.917	-3.282	-1.049	-1.826	-5.964	1.075	0.350	3.234	3.610	2.669	7.056	2.790	3.868	4.768	1.005	347.656
-3.562	-2.554	-6.141	-1.503	0.329	-0.959	3.194	0.892	2.185	3.322	1.689	-0.705	4.811	4.708	-3.011	-0.890	-1.720	-5.767	1.136	0.453	3.169	3.609	2.780	6.797	2.841	3.708	4.461	0.745	351.562
-3.406	-2.467	-6.083	-1.477	0.303	-0.906	2.918	0.876	2.057	3.024	1.557	-0.855	4.495	4.483	-2.773	-0.816	-1.660	-5.572	1.125	0.480	3.054	3.558	2.860	6.522	2.907	3.599	4.181	0.587	355.469
-3.307	-2.437	-6.098	-1.457	0.265	-0.849	2.681	0.917	2.015	2.785	1.515	-0.915	4.184	4.267	-2.576	-0.814	-1.650	-5.408	1.043	0.457	2.919	3.463	2.902	6.241	2.965	3.532	3.932	0.518	359.375
-3.253	-2.440	-6.161	-1.424	0.232	-0.783	2.507	1.009	2.053	2.618	1.547	-0.901	3.906	4.086	-2.430	-0.865	-1.701	-5.303	0.896	0.414	2.793	3.328	2.898	5.967	2.991	3.497	3.719	0.518	363.281
-3.228	-2.453	-6.235	-1.363	0.228	-0.702	2.415	1.146	2.158	2.533	1.629	-0.840	3.688	3.960	-2.344	-0.955	-1.820	-5.279	0.687	0.374	2.702	3.161	2.845	5.711	2.968	3.481	3.542	0.564	367.188
-3.211	-2.458	-6.277	-1.269	0.270	-0.603	2.413	1.320	2.311	2.530	1.735	-0.758	3.550	3.902	-2.321	-1.070	-2.015	-5.345	0.424	0.351	2.663	2.966	2.741	5.483	2.885	3.474	3.405	0.633	371.094
-3.187	-2.450	-6.252	-1.147	0.372	-0.486	2.499	1.519	2.494	2.603	1.847	-0.677	3.500	3.916	-2.357	-1.203	-2.285	-5.494	0.115	0.350	2.682	2.754	2.591	5.289	2.743	3.468	3.305	0.710	375.000
-3.144	-2.435	-6.139	-1.017	0.533	-0.357	2.657	1.730	2.689	2.740	1.954	-0.607	3.537	3.998	-2.440	-1.352	-2.623	-5.711	-0.230	0.365	2.756	2.535	2.402	5.135	2.556	3.460	3.242	0.788	378.906
-3.079	-2.429	-5.943	-0.904	0.740	-0.228	2.865	1.938	2.882	2.927	2.058	-0.542	3.649	4.132	-2.555	-1.518	-3.015	-5.972	-0.599	0.383	2.868	2.321	2.185	5.026	2.343	3.453	3.216	0.869	382.812
-2.995	-2.455	-5.685	-0.837	0.968	-0.114	3.094	2.128	3.064	3.146	2.172	-0.459	3.816	4.303	-2.685	-1.704	-3.441	-6.252	-0.976	0.387	3.000	2.126	1.955	4.962	2.130	3.455	3.229	0.965	386.719
-2.896	-2.532	-5.405	-0.836	1.185	-0.037	3.315	2.281	3.229	3.381	2.312	-0.331	4.014	4.490	-2.814	-1.912	-3.876	-6.525	-1.350	0.360	3.130	1.963	1.727	4.945	1.941	3.477	3.282	1.092	390.625
-2.789	-2.669	-5.144	-0.911	1.360	-0.013	3.502	2.383	3.368	3.615	2.490	-0.136	4.218	4.678	-2.927	-2.141	-4.293	-6.773	-1.704	0.292	3.240	1.841	1.517	4.971	1.791	3.525	3.373	1.259	394.531
-2.672	-2.859	-4.939	-1.049	1.474	-0.045	3.639	2.419	3.470	3.828	2.704	0.134	4.407	4.854	-3.012	-2.383	-4.667	-6.980	-2.025	0.183	3.324	1.765	1.337	5.030	1.688	3.599	3.495	1.459	398.438
-2.539	-3.079	-4.807	-1.224	1.524	-0.124	3.718	2.381	3.521	4.006	2.930	0.458	4.567	5.014	-3.058	-2.619	-4.969	-7.132	-2.299	0.046	3.383	1.738	1.198	5.110	1.622	3.689	3.631	1.672	402.344
-2.377	-3.293	-4.749	-1.392	1.523	-0.225	3.740	2.265	3.502	4.134	3.130	0.795	4.688	5.161	-3.053	-2.829	-5.180	-7.219	-2.511	-0.099	3.431	1.758	1.106	5.194	1.577	3.773	3.758	1.857	406.250
-2.175	-3.457	-4.745	-1.508	1.500	-0.310	3.714	2.075	3.396	4.200	3.255	1.082	4.772	5.302	-2.983	-2.987	-5.281	-7.234	-2.648	-0.221	3.489	1.823	1.063	5.264	1.527	3.823	3.847	1.966	410.156
-1.924	-3.533	-4.761	-1.534	1.489	-0.340	3.658	1.823	3.191	4.201	3.262	1.257	4.826	5.451	-2.842	-3.066	-5.265	-7.175	-2.702	-0.288	3.581	1.928	1.063	5.306	1.444	3.804	3.868	1.954	414.062
-1.625	-3.492	-4.759	-1.448	1.522	-0.284	3.589	1.528	2.890	4.141	3.121	1.270	4.866	5.619	-2.631	-3.049	-5.133	-7.049	-2.667	-0.272	3.728	2.070	1.097	5.309	1.303	3.689	3.799	1.789	417.969
-1.290	-3.328	-4.704	-1.248	1.619	-0.130	3.528	1.219	2.511	4.033	2.833	1.098	4.908	5.815	-2.362	-2.926	-4.899	-6.869	-2.546	-0.155	3.942	2.241	1.150	5.266	1.087	3.457	3.630	1.463	421.875
-0.941	-3.050	-4.577	-0.957	1.785	0.115	3.497	0.929	2.091	3.900	2.428	0.758	4.968	6.039	-2.056	-2.700	-4.587	-6.660	-2.352	0.068	4.223	2.430	1.204	5.179	0.788	3.102	3.362	0.995	425.781
-0.607	-2.689	-4.372	-0.609	2.006	0.421	3.510	0.691	1.676	3.769	1.964	0.297	5.057	6.284	-1.745	-2.388	-4.226	-6.448	-2.104	0.383	4.555	2.620	1.240	5.050	0.411	2.635	3.014	0.429	429.688
-0.318	-2.286	-4.106	-0.251	2.255	0.742	3.577	0.533	1.321	3.667	1.514	-0.208	5.177	6.534	-1.459	-2.016	-3.849	-6.263	-1.831	0.764	4.912	2.795	1.245	4.886	-0.025	2.082	2.615	-0.173	433.594
-0.100	-1.890	-3.811	0.077	2.499	1.031	3.696	0.475	1.070	3.616	1.151	-0.675	5.319	6.765	-1.226	-1.615	-3.488	-6.130	-1.563	1.178	5.259	2.937	1.210	4.698	-0.491	1.484	2.202	-0.747	437.500
0.031	-1.541	-3.527	0.341	2.706	1.245	3.857	0.518	0.955	3.627	0.929	-1.030	5.469	6.956	-1.063	-1.217	-3.165	-6.065	-1.326	1.589	5.561	3.033	1.134	4.499	-0.951	0.887	1.813	-1.235	441.406
0.065	-1.274	-3.298	0.519	2.849	1.358	4.040	0.651	0.986	3.701	0.877	-1.225	5.610	7.090	-0.978	-0.852	-2.891	-6.070	-1.139	1.963	5.789	3.080	1.027	4.304	-1.364	0.341	1.481	-1.595	445.312
0.004	-1.108	-3.156	0.603	2.913	1.362	4.221	0.847	1.148	3.828	0.990	-1.247	5.722	7.159	-0.967	-0.540	-2.667	-6.138	-1.010	2.276	5.926	3.082	0.907	4.131	-1.696	-0.109	1.232	-1.810	449.219
-0.139	-1.047	-3.122	0.597	2.896	1.267	4.380	1.074	1.412	3.990	1.233	-1.115	5.793	7.164	-1.019	-0.294	-2.485	-6.247	-0.935	2.514	5.969	3.051	0.794	3.997	-1.918	-0.435	1.080	-1.885	453.125
-0.348	-1.084	-3.200	0.511	2.806	1.099	4.497	1.297	1.733	4.166	1.553	-0.872	5.818	7.116	-1.114	-0.119	-2.332	-6.374	-0.902	2.672	5.928	3.002	0.707	3.915	-2.017	-0.620	1.028	-1.841	457.031
-0.603	-1.201	-3.378	0.362	2.662	0.886	4.566	1.484	2.065	4.339	1.892	-0.571	5.800	7.029	-1.233	-0.015	-2.194	-6.494	-0.891	2.752	5.820	2.951	0.662	3.895	-1.991	-0.666	1.070	-1.708	460.938
-0.884	-1.374	-3.637	0.170	2.482	0.656	4.589	1.613	2.367	4.491	2.202	-0.262	5.747	6.920	-1.356	0.024	-2.062	-6.592	-0.887	2.761	5.665	2.906	0.665	3.942	-1.854	-0.590	1.195	-1.517	464.844
-1.171	-1.577	-3.947	-0.046	2.286	0.434	4.572	1.672	2.608	4.613	2.450	0.019	5.673	6.799	-1.469	0.008	-1.933	-6.663	-0.875	2.708	5.483	2.874	0.715	4.051	-1.626	-0.419	1.389	-1.293	468.750
-1.448	-1.784	-4.279	-0.265	2.092	0.232	4.530	1.656	2.768	4.700	2.621	0.253	5.591	6.673	-1.561	-0.050	-1.811	-6.715	-0.852	2.604	5.285	2.852	0.804	4.214	-1.332	-0.184	1.635	-1.051	472.656
-1.701	-1.966	-4.599	-0.467	1.914	0.060	4.475	1.571	2.841	4.750	2.721	0.439	5.511	6.543	-1.629	-0.134	-1.707	-6.765	-0.819	2.460	5.082	2.834	0.918	4.415	-1.002	0.083	1.917	-0.800	476.562
-1.919	-2.104	-4.882	-0.634	1.761	-0.076	4.417	1.429	2.832	4.763	2.764	0.587	5.440	6.408	-1.674	-0.227	-1.633	-6.829	-0.784	2.288	4.876	2.811	1.038	4.637	-0.662	0.351	2.219	-0.543	480.469
-2.097	-2.183	-5.106	-0.751	1.638	-0.171	4.359	1.244	2.754	4.739	2.769	0.713	5.381	6.263	-1.702	-0.314	-1.598	-6.919	-0.757	2.103	4.670	2.773	1.145	4.859	-0.338	0.599	2.523	-0.280	484.375
-2.235	-2.196	-5.260	-0.811	1.547	-0.223	4.299	1.035	2.623	4.677	2.752	0.830	5.334	6.107	-1.721	-0.379	-1.610	-7.034	-0.748	1.919	4.470	2.714	1.224	5.061	-0.047	0.815	2.813	-0.011	488.281
-2.340	-2.152	-5.345	-0.814	1.485	-0.232	4.227	0.819	2.461	4.576	2.724	0.948	5.293	5.942	-1.741	-0.414	-1.667	-7.158	-0.760	1.751	4.278	2.627	1.265	5.227	0.196	0.995	3.078	0.263	492.188
-2.420	-2.071	-5.369	-0.776	1.442	-0.209	4.131	0.615	2.284	4.434	2.687	1.067	5.252	5.770	-1.768	-0.418	-1.759	-7.267	-0.787	1.606	4.101	2.514	1.267	5.342	0.390	1.142	3.305	0.541	496.094
-2.490	-1.983	-5.348	-0.722	1.407	-0.174	4.001	0.435	2.108	4.254	2.637	1.184	5.202	5.594	-1.804	-0.398	-1.871	-7.325	-0.821	1.488	3.942	2.378	1.239	5.400	0.538	1.266	3.488	0.821	500.000
-2.557	-1.924	-5.298	-0.681	1.364	-0.148	3.827	0.291	1.944	4.037	2.567	1.289	5.132	5.416	-1.847	-0.369	-1.988	-7.304	-0.848	1.392	3.800	2.227	1.195	5.395	0.653	1.378	3.623	1.099	503.906
-2.627	-1.927	-5.232	-0.684	1.298	-0.153	3.609	0.192	1.797	3.790	2.474	1.373	5.032	5.236	-1.886	-0.350	-2.092	-7.180	-0.860	1.303	3.668	2.074	1.156	5.328	0.749	1.487	3.709	1.371	507.812
-2.693	-2.014	-5.157	-0.750	1.202	-0.201	3.354	0.141	1.668	3.524	2.353	1.429	4.891	5.051	-1.907	-0.362	-2.173	-6.950	-0.851	1.207	3.536	1.930	1.138	5.204	0.843	1.596	3.744	1.628	511.719
-2.746	-2.190	-5.072	-0.881	1.076	-0.291	3.076	0.136	1.555	3.250	2.207	1.452	4.704	4.861	-1.891	-0.418	-2.225	-6.624	-0.823	1.087	3.393	1.807	1.152	5.030	0.946	1.701	3.729	1.858	515.625
-2.766	-2.439	-4.975	-1.067	0.927	-0.412	2.795	0.174	1.456	2.979	2.046	1.439	4.469	4.661	-1.819	-0.524	-2.248	-6.226	-0.781	0.935	3.228	1.717	1.204	4.817	1.062	1.791	3.663	2.044	519.531
-2.740	-2.733	-4.864	-1.283	0.770	-0.540	2.533	0.242	1.367	2.724	1.881	1.392	4.195	4.453	-1.678	-0.675	-2.243	-5.786	-0.736	0.750	3.037	1.667	1.289	4.579	1.192	1.856	3.549	2.167	523.438
-2.658	-3.033	-4.743	-1.499	0.619	-0.650	2.307	0.327	1.286	2.493	1.727	1.314	3.894	4.240	-1.464	-0.858	-2.215	-5.330	-0.692	0.543	2.823	1.664	1.401	4.331	1.328	1.882	3.390	2.212	527.344
-2.521	-3.301	-4.618	-1.689	0.491	-0.716	2.132	0.416	1.217	2.296	1.597	1.208	3.589	4.030	-1.187	-1.051	-2.165	-4.879	-0.651	0.332	2.598	1.714	1.529	4.092	1.461	1.859	3.193	2.167	531.250
-2.344	-3.510	-4.504	-1.834	0.392	-0.724	2.015	0.496	1.163	2.139	1.505	1.080	3.302	3.832	-0.872	-1.236	-2.093	-4.441	-0.612	0.138	2.376	1.816	1.667	3.876	1.583	1.785	2.969	2.033	535.156
-2.150	-3.646	-4.416	-1.930	0.324	-0.673	1.959	0.557	1.133	2.032	1.458	0.936	3.055	3.657	-0.553	-1.394	-2.000	-4.017	-0.567	-0.019	2.175	1.965	1.808	3.700	1.686	1.661	2.730	1.820	539.062
-1.969	-3.711	-4.367	-1.982	0.281	-0.579	1.957	0.599	1.136	1.978	1.461	0.783	2.866	3.514	-0.266	-1.515	-1.887	-3.600	-0.509	-0.125	2.010	2.149	1.951	3.571	1.767	1.497	2.491	1.547	542.969
-1.828	-3.720	-4.365	-2.005	0.252	-0.469	2.003	0.623	1.182	1.983	1.513	0.625	2.746	3.410	-0.044	-1.592	-1.755	-3.186	-0.435	-0.171	1.892	2.354	2.094	3.493	1.825	1.301	2.263	1.242	546.875
-1.748	-3.692	-4.410	-2.015	0.225	-0.376	2.083	0.637	1.277	2.044	1.607	0.469	2.694	3.349	0.091	-1.627	-1.609	-2.772	-0.342	-0.157	1.825	2.560	2.235	3.462	1.860	1.087	2.055	0.928	550.781
-1.736	-3.650	-4.489	-2.029	0.191	-0.327	2.188	0.651	1.422	2.159	1.733	0.321	2.704	3.329	0.136	-1.622	-1.459	-2.364	-0.238	-0.090	1.809	2.745	2.369	3.464	1.873	0.861	1.871	0.628	554.688
-1.784	-3.609	-4.584	-2.053	0.146	-0.339	2.306	0.677	1.614	2.319	1.881	0.185	2.759	3.344	0.103	-1.584	-1.314	-1.972	-0.134	0.016	1.837	2.888	2.489	3.482	1.860	0.632	1.707	0.355	558.594
-1.874	-3.576	-4.669	-2.089	0.092	-0.412	2.429	0.726	1.846	2.511	2.041	0.069	2.840	3.381	0.018	-1.525	-1.190	-1.609	-0.050	0.146	1.894	2.969	2.586	3.495	1.819	0.402	1.555	0.115	562.500
-1.977	-3.550	-4.721	-2.128	0.034	-0.531	2.553	0.805	2.108	2.723	2.204	-0.020	2.925	3.428	-0.088	-1.455	-1.100	-1.290	-0.002	0.280	1.962	2.975	2.649	3.483	1.743	0.174	1.407	-0.090	566.406
-2.065	-3.521	-4.720	-2.157	-0.020	-0.672	2.672	0.920	2.386	2.939	2.360	-0.079	2.996	3.466	-0.184	-1.387	-1.054	-1.026	-0.007	0.397	2.021	2.899	2.667	3.432	1.630	-0.052	1.255	-0.263	570.312
-2.114	-3.476	-4.657	-2.157	-0.061	-0.802	2.781	1.068	2.661	3.140	2.502	-0.105	3.038	3.481	-0.246	-1.330	-1.055	-0.827	-0.074	0.482	2.052	2.743	2.636	3.334	1.484	-0.269	1.099	-0.409	574.219
-2.103	-3.400	-4.531	-2.112	-0.080	-0.891	2.869	1.239	2.908	3.307	2.612	-0.103	3.042	3.462	-0.263	-1.287	-1.099	-0.700	-0.200	0.527	2.042	2.517	2.559	3.194	1.313	-0.469	0.941	-0.532	578.125
-2.024	-3.277	-4.344	-2.010	-0.069	-0.915	2.925	1.414	3.097	3.418	2.670	-0.088	3.004	3.404	-0.231	-1.255	-1.172	-0.642	-0.375	0.530	1.986	2.240	2.441	3.024	1.134	-0.639	0.791	-0.638	582.031
-1.876	-3.099	-4.104	-1.847	-0.023	-0.862	2.933	1.568	3.195	3.452	2.650	-0.080	2.927	3.307	-0.156	-1.226	-1.256	-0.647	-0.576	0.502	1.889	1.939	2.299	2.841	0.967	-0.765	0.663	-0.731	585.938
-1.665	-2.861	-3.817	-1.629	0.061	-0.730	2.879	1.671	3.169	3.387	2.521	-0.104	2.819	3.180	-0.046	-1.184	-1.327	-0.700	-0.778	0.462	1.763	1.643	2.150	2.669	0.834	-0.833	0.570	-0.817	589.844
-1.402	-2.564	-3.492	-1.367	0.178	-0.535	2.751	1.691	2.994	3.211	2.262	-0.188	2.689	3.036	0.092	-1.110	-1.361	-0.781	-0.953	0.433	1.631	1.384	2.015	2.528	0.750	-0.834	0.521	-0.904	593.750
-1.104	-2.216	-3.138	-1.079	0.323	-0.297	2.544	1.603	2.656	2.918	1.860	-0.351	2.550	2.892	0.252	-0.989	-1.341	-0.871	-1.079	0.442	1.517	1.189	1.910	2.435	0.725	-0.767	0.520	-0.999	597.656
-0.787	-1.825	-2.767	-0.779	0.488	-0.041	2.258	1.388	2.159	2.512	1.318	-0.605	2.411	2.764	0.434	-0.808	-1.259	-0.951	-1.141	0.509	1.445	1.077	1.851	2.398	0.759	-0.639	0.566	-1.112	601.562
-0.467	-1.406	-2.392	-0.480	0.663	0.207	1.903	1.042	1.525	2.008	0.657	-0.949	2.279	2.664	0.639	-0.560	-1.114	-1.009	-1.133	0.648	1.431	1.057	1.846	2.417	0.845	-0.469	0.647	-1.248	605.469
-0.160	-0.975	-2.032	-0.188	0.840	0.427	1.493	0.576	0.791	1.431	-0.089	-1.369	2.158	2.598	0.869	-0.251	-0.915	-1.035	-1.058	0.861	1.484	1.126	1.898	2.482	0.966	-0.280	0.748	-1.412	609.375
0.123	-0.552	-1.706	0.092	1.007	0.600	1.045	0.017	0.008	0.813	-0.872	-1.839	2.044	2.566	1.125	0.109	-0.675	-1.020	-0.928	1.134	1.598	1.270	2.001	2.573	1.102	-0.096	0.846	-1.601	613.281
0.369	-0.159	-1.432	0.356	1.156	0.717	0.583	-0.592	-0.767	0.194	-1.638	-2.326	1.934	2.558	1.402	0.498	-0.412	-0.956	-0.756	1.444	1.757	1.467	2.145	2.666	1.233	0.060	0.918	-1.807	617.188
0.569	0.177	-1.227	0.595	1.276	0.774	0.129	-1.196	-1.474	-0.385	-2.330	-2.788	1.821	2.563	1.686	0.887	-0.144	-0.834	-0.559	1.755	1.936	1.688	2.311	2.736	1.339	0.172	0.945	-2.019	621.094
0.715	0.433	-1.100	0.797	1.358	0.774	-0.291	-1.737	-2.056	-0.882	-2.897	-3.187	1.702	2.567	1.958	1.244	0.110	-0.648	-0.354	2.031	2.109	1.904	2.477	2.760	1.407	0.230	0.911	-2.218	625.000
0.801	0.588	-1.055	0.947	1.395	0.725	-0.652	-2.157	-2.466	-1.263	-3.293	-3.486	1.579	2.560	2.194	1.537	0.333	-0.397	-0.158	2.240	2.249	2.091	2.623	2.723	1.424	0.235	0.812	-2.387	628.906
0.823	0.627	-1.084	1.027	1.382	0.639	-0.932	-2.410	-2.672	-1.503	-3.489	-3.662	1.455	2.533	2.371	1.741	0.508	-0.089	0.015	2.355	2.336	2.230	2.726	2.622	1.388	0.193	0.653	-2.511	632.812
0.782	0.546	-1.172	1.023	1.318	0.528	-1.112	-2.466	-2.659	-1.590	-3.473	-3.702	1.336	2.483	2.469	1.839	0.621	0.261	0.150	2.366	2.357	2.311	2.773	2.464	1.302	0.118	0.450	-2.578	636.719
0.679	0.350	-1.301	0.926	1.205	0.407	-1.186	-2.321	-2.432	-1.528	-3.254	-3.609	1.231	2.409	2.475	1.827	0.663	0.625	0.236	2.276	2.310	2.332	2.759	2.268	1.178	0.028	0.225	-2.583	640.625
0.521	0.055	-1.452	0.737	1.048	0.285	-1.157	-1.991	-2.018	-1.336	-2.859	-3.397	1.145	2.313	2.391	1.713	0.632	0.973	0.266	2.101	2.199	2.298	2.686	2.057	1.031	-0.056	0.003	-2.526	644.531
0.319	-0.310	-1.608	0.471	0.859	0.174	-1.038	-1.516	-1.460	-1.045	-2.333	-3.092	1.081	2.197	2.228	1.519	0.530	1.271	0.240	1.871	2.037	2.216	2.567	1.857	0.881	-0.115	-0.188	-2.414	648.438
0.085	-0.709	-1.758	0.154	0.652	0.078	-0.852	-0.953	-0.815	-0.695	-1.732	-2.727	1.039	2.067	2.011	1.277	0.371	1.491	0.163	1.622	1.843	2.096	2.420	1.689	0.746	-0.137	-0.327	-2.259	652.344
-0.162	-1.100	-1.892	-0.180	0.444	0.004	-0.628	-0.369	-0.149	-0.329	-1.119	-2.340	1.013	1.930	1.771	1.024	0.175	1.614	0.047	1.391	1.641	1.947	2.265	1.565	0.636	-0.115	-0.402	-2.080	656.250
-0.400	-1.445	-2.004	-0.492	0.255	-0.048	-0.396	0.169	0.474	0.013	-0.548	-1.967	0.999	1.797	1.543	0.798	-0.032	1.636	-0.093	1.214	1.456	1.776	2.122	1.487	0.558	-0.055	-0.411	-1.898	660.156
-0.607	-1.713	-2.091	-0.749	0.104	-0.075	-0.183	0.602	0.996	0.300	-0.066	-1.638	0.991	1.681	1.359	0.626	-0.224	1.567	-0.237	1.119	1.310	1.592	2.008	1.449	0.508	0.027	-0.361	-1.735	664.062
-0.761	-1.885	-2.153	-0.927	0.009	-0.080	-0.007	0.886	1.375	0.509	0.295	-1.375	0.987	1.594	1.246	0.527	-0.374	1.433	-0.367	1.120	1.222	1.403	1.934	1.436	0.479	0.111	-0.270	-1.609	667.969
-0.848	-1.954	-2.193	-1.015	-0.023	-0.074	0.120	0.998	1.582	0.630	0.521	-1.192	0.988	1.550	1.222	0.510	-0.462	1.269	-0.464	1.219	1.205	1.219	1.905	1.432	0.459	0.173	-0.161	-1.534	671.875
-0.857	-1.926	-2.211	-1.017	0.008	-0.076	0.197	0.934	1.609	0.664	0.611	-1.094	0.996	1.556	1.294	0.568	-0.474	1.114	-0.512	1.406	1.261	1.055	1.923	1.425	0.438	0.193	-0.057	-1.519	675.781
-0.787	-1.817	-2.212	-0.950	0.091	-0.107	0.231	0.709	1.465	0.620	0.577	-1.076	1.016	1.616	1.454	0.690	-0.406	0.999	-0.500	1.658	1.384	0.928	1.984	1.407	0.411	0.162	0.024	-1.561	679.688
-0.644	-1.646	-2.198	-0.840	0.209	-0.187	0.234	0.352	1.170	0.511	0.436	-1.128	1.055	1.729	1.685	0.854	-0.264	0.946	-0.424	1.946	1.561	0.854	2.083	1.380	0.378	0.082	0.072	-1.653	683.594
-0.442	-1.434	-2.172	-0.713	0.342	-0.323	0.220	-0.096	0.756	0.356	0.211	-1.235	1.118	1.887	1.963	1.040	-0.066	0.957	-0.288	2.241	1.775	0.850	2.211	1.352	0.345	-0.032	0.089	-1.779	687.500
-0.200	-1.202	-2.142	-0.588	0.473	-0.502	0.205	-0.591	0.258	0.172	-0.077	-1.382	1.208	2.081	2.257	1.226	0.165	1.023	-0.105	2.515	2.007	0.920	2.356	1.340	0.317	-0.158	0.085	-1.925	691.406
0.061	-0.964	-2.114	-0.478	0.593	-0.696	0.199	-1.089	-0.284	-0.024	-0.409	-1.555	1.327	2.300	2.537	1.395	0.400	1.119	0.103	2.750	2.239	1.062	2.504	1.359	0.301	-0.270	0.077	-2.074	695.312
0.320	-0.731	-2.092	-0.383	0.699	-0.864	0.210	-1.551	-0.830	-0.216	-0.766	-1.741	1.471	2.531	2.779	1.536	0.611	1.218	0.308	2.936	2.460	1.259	2.638	1.422	0.298	-0.346	0.083	-2.214	699.219
0.557	-0.510	-2.077	-0.299	0.796	-0.969	0.239	-1.944	-1.342	-0.394	-1.131	-1.932	1.636	2.762	2.970	1.643	0.775	1.293	0.485	3.074	2.662	1.485	2.741	1.535	0.304	-0.372	0.119	-2.339	703.125
0.760	-0.308	-2.063	-0.217	0.891	-0.985	0.281	-2.242	-1.785	-0.547	-1.485	-2.121	1.812	2.982	3.107	1.717	0.878	1.322	0.609	3.171	2.843	1.705	2.802	1.692	0.310	-0.350	0.193	-2.450	707.031
0.922	-0.127	-2.035	-0.130	0.990	-0.899	0.328	-2.430	-2.127	-0.669	-1.808	-2.301	1.991	3.178	3.196	1.760	0.914	1.293	0.665	3.235	3.001	1.884	2.811	1.876	0.303	-0.293	0.303	-2.550	710.938
1.043	0.027	-1.975	-0.038	1.099	-0.721	0.369	-2.498	-2.345	-0.756	-2.078	-2.470	2.159	3.340	3.251	1.777	0.887	1.206	0.649	3.272	3.133	1.992	2.766	2.062	0.268	-0.223	0.437	-2.650	714.844
1.130	0.151	-1.866	0.055	1.214	-0.472	0.393	-2.446	-2.425	-0.806	-2.273	-2.619	2.303	3.455	3.288	1.768	0.805	1.071	0.562	3.282	3.235	2.005	2.673	2.218	0.195	-0.166	0.571	-2.754	718.750
1.193	0.239	-1.698	0.139	1.327	-0.186	0.395	-2.280	-2.365	-0.821	-2.374	-2.742	2.410	3.514	3.319	1.731	0.678	0.905	0.413	3.259	3.297	1.914	2.541	2.314	0.083	-0.144	0.681	-2.866	722.656
1.244	0.289	-1.468	0.203	1.425	0.099	0.369	-2.014	-2.173	-0.802	-2.368	-2.827	2.466	3.506	3.356	1.660	0.516	0.730	0.212	3.193	3.303	1.724	2.381	2.323	-0.061	-0.170	0.742	-2.980	726.562
1.294	0.297	-1.182	0.236	1.490	0.349	0.319	-1.669	-1.870	-0.754	-2.251	-2.864	2.461	3.421	3.400	1.547	0.325	0.566	-0.031	3.069	3.238	1.450	2.208	2.231	-0.220	-0.239	0.736	-3.086	730.469
1.348	0.262	-0.857	0.230	1.504	0.537	0.248	-1.273	-1.486	-0.681	-2.028	-2.841	2.385	3.254	3.448	1.383	0.108	0.427	-0.306	2.877	3.088	1.118	2.033	2.039	-0.369	-0.332	0.658	-3.162	734.375
1.409	0.183	-0.516	0.183	1.456	0.646	0.164	-0.857	-1.057	-0.588	-1.719	-2.751	2.236	3.006	3.492	1.168	-0.130	0.319	-0.603	2.616	2.846	0.761	1.864	1.759	-0.484	-0.423	0.514	-3.190	738.281
1.470	0.062	-0.190	0.099	1.341	0.674	0.075	-0.453	-0.624	-0.483	-1.353	-2.595	2.021	2.687	3.518	0.908	-0.384	0.241	-0.907	2.296	2.519	0.415	1.707	1.420	-0.542	-0.480	0.322	-3.151	742.188
1.519	-0.096	0.088	-0.009	1.168	0.632	-0.010	-0.095	-0.228	-0.375	-0.968	-2.384	1.755	2.319	3.511	0.621	-0.643	0.188	-1.199	1.941	2.128	0.116	1.565	1.060	-0.531	-0.475	0.108	-3.036	746.094
1.544	-0.280	0.283	-0.124	0.957	0.543	-0.084	0.191	0.095	-0.275	-0.602	-2.141	1.465	1.936	3.464	0.332	-0.891	0.156	-1.458	1.585	1.710	-0.105	1.440	0.721	-0.449	-0.395	-0.099	-2.848	750.000
1.531	-0.479	0.370	-0.224	0.733	0.434	-0.141	0.384	0.318	-0.192	-0.293	-1.894	1.182	1.580	3.374	0.074	-1.108	0.143	-1.660	1.271	1.310	-0.225	1.332	0.443	-0.310	-0.244	-0.275	-2.604	753.906
1.476	-0.677	0.339	-0.292	0.524	0.329	-0.174	0.477	0.427	-0.136	-0.067	-1.678	0.938	1.293	3.252	-0.125	-1.274	0.153	-1.787	1.035	0.977	-0.235	1.242	0.256	-0.135	-0.040	-0.402	-2.336	757.812
1.380	-0.858	0.200	-0.317	0.355	0.244	-0.178	0.472	0.426	-0.108	0.062	-1.522	0.762	1.108	3.116	-0.240	-1.374	0.193	-1.831	0.904	0.747	-0.141	1.169	0.172	0.045	0.184	-0.475	-2.078	761.719
1.256	-1.007	-0.014	-0.299	0.242	0.184	-0.147	0.389	0.333	-0.105	0.096	-1.443	0.671	1.044	2.989	-0.263	-1.401	0.267	-1.794	0.888	0.642	0.040	1.114	0.188	0.200	0.389	-0.499	-1.867	765.625
1.124	-1.115	-0.250	-0.245	0.191	0.144	-0.077	0.256	0.179	-0.120	0.055	-1.445	0.670	1.097	2.896	-0.198	-1.361	0.378	-1.694	0.977	0.661	0.278	1.077	0.279	0.302	0.537	-0.487	-1.732	769.531
1.009	-1.173	-0.445	-0.170	0.195	0.104	0.031	0.108	0.003	-0.138	-0.034	-1.517	0.749	1.244	2.852	-0.060	-1.270	0.518	-1.556	1.144	0.779	0.536	1.056	0.412	0.336	0.599	-0.458	-1.687	773.438
0.933	-1.180	-0.536	-0.098	0.240	0.044	0.172	-0.021	-0.158	-0.149	-0.136	-1.635	0.889	1.448	2.868	0.126	-1.150	0.677	-1.412	1.350	0.958	0.779	1.048	0.549	0.295	0.559	-0.430	-1.730	777.344
0.914	-1.138	-0.470	-0.050	0.304	-0.060	0.338	-0.101	-0.274	-0.139	-0.216	-1.771	1.062	1.664	2.945	0.330	-1.023	0.842	-1.290	1.554	1.150	0.977	1.050	0.653	0.185	0.417	-0.419	-1.848	781.250
0.957	-1.055	-0.221	-0.043	0.367	-0.226	0.517	-0.119	-0.328	-0.105	-0.252	-1.900	1.245	1.854	3.078	0.531	-0.908	1.003	-1.209	1.725	1.314	1.113	1.058	0.701	0.022	0.183	-0.434	-2.020	785.156
1.061	-0.942	0.207	-0.087	0.411	-0.460	0.702	-0.072	-0.318	-0.046	-0.231	-2.002	1.417	1.994	3.256	0.712	-0.817	1.153	-1.178	1.842	1.423	1.186	1.070	0.685	-0.178	-0.120	-0.477	-2.222	789.062
1.211	-0.812	0.777	-0.175	0.430	-0.754	0.884	0.027	-0.255	0.035	-0.160	-2.074	1.569	2.079	3.463	0.869	-0.751	1.291	-1.191	1.906	1.473	1.208	1.083	0.612	-0.395	-0.467	-0.545	-2.434	792.969
1.386	-0.677	1.425	-0.293	0.428	-1.086	1.064	0.158	-0.160	0.129	-0.053	-2.119	1.701	2.122	3.682	1.004	-0.705	1.420	-1.234	1.931	1.477	1.201	1.094	0.501	-0.614	-0.830	-0.630	-2.642	796.875
