FP1	F3	F7	FC3	C3	C5	P3	P7	PO7	PO3	O1	Oz	Pz	CPz	FP2	Fz	F4	F8	FC4	FCz	Cz	C4	C6	P4	P8	PO8	PO4	O2	time
1.078	0.541	-2.364	0.640	0.925	-0.896	0.144	-0.855	-1.402	-0.598	-1.025	-0.642	0.719	1.133	0.032	0.839	0.283	0.543	0.801	1.268	1.475	1.249	0.453	0.639	-0.176	-0.443	-0.144	-0.814	-199.219
1.029	0.569	-1.987	0.675	0.844	-0.518	-0.090	-0.915	-1.563	-0.557	-1.017	-0.624	0.604	1.022	0.223	0.849	0.284	0.438	0.785	1.201	1.350	1.250	0.527	0.630	-0.202	-0.479	-0.109	-0.762	-195.312
0.978	0.584	-1.631	0.698	0.756	-0.184	-0.319	-0.968	-1.694	-0.520	-1.004	-0.591	0.491	0.907	0.399	0.852	0.296	0.360	0.772	1.127	1.223	1.241	0.595	0.622	-0.224	-0.507	-0.074	-0.699	-191.406
0.916	0.577	-1.315	0.702	0.658	0.071	-0.536	-1.003	-1.764	-0.486	-0.977	-0.531	0.383	0.784	0.542	0.840	0.320	0.322	0.760	1.040	1.095	1.211	0.647	0.614	-0.236	-0.520	-0.041	-0.615	-187.500
0.839	0.540	-1.053	0.679	0.548	0.228	-0.728	-1.009	-1.751	-0.450	-0.931	-0.440	0.284	0.654	0.644	0.810	0.356	0.326	0.747	0.937	0.964	1.154	0.676	0.605	-0.237	-0.512	-0.010	-0.509	-183.594
0.743	0.471	-0.851	0.629	0.432	0.287	-0.884	-0.976	-1.646	-0.402	-0.859	-0.322	0.198	0.520	0.696	0.758	0.395	0.360	0.730	0.819	0.830	1.070	0.681	0.593	-0.225	-0.481	0.017	-0.385	-179.688
0.630	0.371	-0.712	0.551	0.314	0.260	-0.991	-0.899	-1.451	-0.334	-0.758	-0.184	0.132	0.388	0.698	0.685	0.427	0.402	0.705	0.690	0.697	0.960	0.663	0.578	-0.206	-0.430	0.040	-0.253	-175.781
0.503	0.248	-0.629	0.451	0.202	0.172	-1.036	-0.776	-1.180	-0.235	-0.626	-0.042	0.090	0.268	0.652	0.597	0.436	0.424	0.668	0.556	0.568	0.835	0.629	0.559	-0.182	-0.362	0.059	-0.126	-171.875
0.369	0.115	-0.590	0.341	0.104	0.054	-1.012	-0.610	-0.856	-0.102	-0.465	0.090	0.077	0.168	0.563	0.500	0.409	0.402	0.615	0.429	0.447	0.703	0.584	0.534	-0.162	-0.287	0.071	-0.017	-167.969
0.237	-0.013	-0.578	0.233	0.026	-0.065	-0.918	-0.412	-0.508	0.062	-0.282	0.198	0.094	0.095	0.442	0.404	0.339	0.317	0.547	0.319	0.342	0.574	0.533	0.503	-0.152	-0.215	0.076	0.060	-164.062
0.119	-0.119	-0.578	0.142	-0.026	-0.158	-0.761	-0.196	-0.169	0.247	-0.089	0.272	0.139	0.052	0.303	0.319	0.227	0.171	0.465	0.235	0.259	0.456	0.478	0.463	-0.158	-0.158	0.071	0.096	-160.156
0.024	-0.186	-0.572	0.082	-0.050	-0.210	-0.558	0.019	0.131	0.437	0.098	0.305	0.202	0.039	0.162	0.258	0.089	-0.020	0.376	0.187	0.203	0.357	0.423	0.410	-0.186	-0.129	0.049	0.088	-156.250
-0.038	-0.204	-0.548	0.061	-0.047	-0.215	-0.334	0.213	0.370	0.609	0.262	0.296	0.273	0.050	0.036	0.229	-0.052	-0.221	0.292	0.178	0.176	0.281	0.369	0.342	-0.236	-0.134	0.007	0.033	-152.344
-0.062	-0.170	-0.496	0.081	-0.022	-0.177	-0.120	0.366	0.528	0.742	0.388	0.252	0.338	0.076	-0.058	0.238	-0.168	-0.389	0.225	0.208	0.179	0.231	0.319	0.259	-0.307	-0.177	-0.059	-0.060	-148.438
-0.048	-0.091	-0.414	0.135	0.017	-0.111	0.055	0.459	0.598	0.814	0.464	0.180	0.383	0.109	-0.106	0.281	-0.233	-0.485	0.188	0.270	0.205	0.207	0.280	0.162	-0.392	-0.252	-0.148	-0.180	-144.531
0.000	0.016	-0.302	0.210	0.056	-0.034	0.163	0.482	0.580	0.812	0.486	0.094	0.396	0.137	-0.102	0.351	-0.228	-0.478	0.188	0.354	0.248	0.210	0.256	0.060	-0.478	-0.346	-0.253	-0.310	-140.625
0.073	0.129	-0.168	0.286	0.081	0.035	0.186	0.429	0.483	0.728	0.454	0.007	0.371	0.155	-0.042	0.432	-0.149	-0.362	0.226	0.442	0.295	0.238	0.252	-0.038	-0.551	-0.440	-0.364	-0.429	-136.719
0.157	0.225	-0.020	0.346	0.080	0.080	0.117	0.307	0.323	0.563	0.375	-0.068	0.307	0.156	0.066	0.507	-0.008	-0.151	0.295	0.518	0.336	0.284	0.268	-0.120	-0.595	-0.511	-0.465	-0.518	-132.812
0.240	0.284	0.130	0.373	0.044	0.094	-0.039	0.129	0.124	0.331	0.261	-0.124	0.209	0.140	0.209	0.557	0.170	0.119	0.381	0.566	0.362	0.341	0.301	-0.177	-0.596	-0.541	-0.541	-0.561	-128.906
0.307	0.291	0.271	0.357	-0.028	0.076	-0.261	-0.079	-0.088	0.054	0.125	-0.154	0.088	0.108	0.366	0.568	0.352	0.399	0.465	0.574	0.366	0.400	0.345	-0.203	-0.547	-0.517	-0.581	-0.551	-125.000
0.351	0.241	0.394	0.298	-0.132	0.034	-0.519	-0.289	-0.282	-0.237	-0.014	-0.157	-0.040	0.068	0.508	0.530	0.501	0.639	0.531	0.535	0.347	0.451	0.391	-0.198	-0.450	-0.436	-0.576	-0.488	-121.094
0.365	0.138	0.489	0.203	-0.256	-0.020	-0.773	-0.469	-0.429	-0.506	-0.139	-0.135	-0.158	0.026	0.608	0.439	0.589	0.796	0.563	0.450	0.306	0.485	0.431	-0.167	-0.312	-0.306	-0.525	-0.380	-117.188
0.347	-0.005	0.549	0.085	-0.385	-0.072	-0.982	-0.591	-0.506	-0.719	-0.233	-0.091	-0.251	-0.009	0.642	0.301	0.597	0.848	0.553	0.327	0.250	0.494	0.456	-0.121	-0.151	-0.144	-0.435	-0.244	-113.281
0.297	-0.172	0.567	-0.039	-0.500	-0.110	-1.111	-0.633	-0.498	-0.849	-0.282	-0.031	-0.306	-0.031	0.598	0.127	0.522	0.792	0.502	0.180	0.187	0.477	0.462	-0.073	0.011	0.028	-0.317	-0.098	-109.375
0.216	-0.341	0.540	-0.152	-0.589	-0.127	-1.131	-0.586	-0.402	-0.879	-0.280	0.037	-0.318	-0.036	0.475	-0.063	0.377	0.646	0.416	0.028	0.126	0.433	0.447	-0.035	0.150	0.185	-0.188	0.038	-105.469
0.107	-0.492	0.468	-0.241	-0.640	-0.123	-1.030	-0.454	-0.228	-0.805	-0.224	0.106	-0.286	-0.023	0.287	-0.251	0.187	0.443	0.307	-0.113	0.074	0.368	0.408	-0.016	0.247	0.306	-0.064	0.149	-101.562
-0.024	-0.611	0.356	-0.301	-0.651	-0.101	-0.813	-0.253	0.004	-0.638	-0.120	0.168	-0.219	0.007	0.059	-0.418	-0.019	0.219	0.189	-0.229	0.035	0.286	0.347	-0.019	0.288	0.377	0.043	0.227	-97.656
-0.168	-0.687	0.210	-0.330	-0.625	-0.072	-0.499	-0.008	0.267	-0.400	0.022	0.222	-0.126	0.046	-0.180	-0.548	-0.212	0.006	0.074	-0.313	0.009	0.194	0.265	-0.043	0.270	0.396	0.128	0.271	-93.750
-0.315	-0.718	0.042	-0.338	-0.568	-0.050	-0.124	0.252	0.530	-0.118	0.189	0.266	-0.020	0.090	-0.403	-0.634	-0.369	-0.174	-0.028	-0.363	-0.007	0.099	0.166	-0.076	0.204	0.372	0.190	0.291	-89.844
-0.452	-0.710	-0.130	-0.336	-0.493	-0.047	0.270	0.494	0.764	0.175	0.364	0.303	0.090	0.132	-0.589	-0.674	-0.477	-0.312	-0.111	-0.383	-0.016	0.007	0.055	-0.105	0.108	0.320	0.239	0.300	-85.938
-0.567	-0.670	-0.288	-0.335	-0.411	-0.071	0.638	0.694	0.945	0.450	0.534	0.336	0.193	0.167	-0.727	-0.676	-0.537	-0.409	-0.176	-0.382	-0.023	-0.076	-0.061	-0.118	0.006	0.264	0.287	0.313	-82.031
-0.651	-0.610	-0.415	-0.344	-0.330	-0.126	0.942	0.830	1.057	0.682	0.682	0.369	0.285	0.194	-0.814	-0.649	-0.555	-0.474	-0.223	-0.368	-0.032	-0.148	-0.174	-0.104	-0.076	0.224	0.345	0.341	-78.125
-0.700	-0.540	-0.494	-0.365	-0.258	-0.207	1.153	0.892	1.090	0.851	0.798	0.401	0.360	0.207	-0.855	-0.606	-0.544	-0.514	-0.258	-0.351	-0.047	-0.208	-0.276	-0.060	-0.119	0.216	0.419	0.387	-74.219
-0.712	-0.468	-0.513	-0.398	-0.198	-0.304	1.260	0.879	1.047	0.948	0.872	0.429	0.412	0.206	-0.857	-0.559	-0.518	-0.536	-0.286	-0.337	-0.071	-0.259	-0.360	0.009	-0.112	0.243	0.508	0.448	-70.312
-0.692	-0.398	-0.466	-0.436	-0.152	-0.400	1.265	0.799	0.938	0.967	0.899	0.448	0.437	0.186	-0.827	-0.516	-0.483	-0.538	-0.312	-0.334	-0.107	-0.303	-0.422	0.088	-0.057	0.301	0.601	0.512	-66.406
-0.646	-0.330	-0.357	-0.470	-0.117	-0.479	1.182	0.668	0.782	0.910	0.873	0.452	0.426	0.142	-0.768	-0.482	-0.443	-0.515	-0.338	-0.343	-0.162	-0.348	-0.464	0.158	0.034	0.375	0.679	0.562	-62.500
-0.583	-0.262	-0.193	-0.493	-0.093	-0.523	1.036	0.508	0.602	0.786	0.797	0.431	0.375	0.071	-0.682	-0.457	-0.393	-0.462	-0.368	-0.366	-0.237	-0.398	-0.489	0.199	0.143	0.443	0.722	0.583	-58.594
-0.509	-0.189	0.010	-0.498	-0.075	-0.521	0.856	0.342	0.426	0.608	0.675	0.383	0.279	-0.030	-0.570	-0.439	-0.331	-0.376	-0.402	-0.401	-0.335	-0.460	-0.503	0.192	0.250	0.488	0.711	0.564	-54.688
-0.432	-0.110	0.235	-0.483	-0.061	-0.466	0.670	0.192	0.276	0.393	0.518	0.303	0.141	-0.159	-0.437	-0.426	-0.255	-0.261	-0.441	-0.448	-0.453	-0.537	-0.515	0.128	0.337	0.493	0.635	0.501	-50.781
-0.358	-0.025	0.465	-0.449	-0.047	-0.359	0.503	0.077	0.173	0.160	0.338	0.195	-0.032	-0.310	-0.290	-0.414	-0.167	-0.129	-0.487	-0.503	-0.586	-0.631	-0.532	0.006	0.393	0.454	0.494	0.397	-46.875
-0.290	0.063	0.684	-0.399	-0.028	-0.207	0.373	0.009	0.126	-0.069	0.152	0.067	-0.227	-0.471	-0.143	-0.404	-0.075	0.000	-0.541	-0.564	-0.726	-0.741	-0.560	-0.163	0.415	0.375	0.301	0.268	-42.969
-0.236	0.148	0.880	-0.341	-0.001	-0.025	0.290	-0.007	0.136	-0.273	-0.020	-0.069	-0.425	-0.628	-0.011	-0.395	0.009	0.106	-0.605	-0.626	-0.862	-0.864	-0.601	-0.357	0.408	0.271	0.079	0.133	-39.062
-0.199	0.224	1.046	-0.281	0.034	0.167	0.258	0.023	0.194	-0.436	-0.162	-0.195	-0.605	-0.763	0.088	-0.389	0.069	0.169	-0.679	-0.686	-0.980	-0.992	-0.656	-0.550	0.383	0.163	-0.141	0.017	-35.156
-0.184	0.283	1.177	-0.227	0.075	0.346	0.270	0.089	0.284	-0.543	-0.259	-0.293	-0.748	-0.863	0.138	-0.389	0.095	0.174	-0.762	-0.740	-1.071	-1.118	-0.723	-0.714	0.357	0.078	-0.324	-0.055	-31.250
-0.191	0.323	1.270	-0.185	0.118	0.491	0.319	0.176	0.387	-0.588	-0.303	-0.346	-0.841	-0.917	0.132	-0.396	0.080	0.113	-0.852	-0.784	-1.127	-1.232	-0.797	-0.826	0.344	0.037	-0.440	-0.065	-27.344
-0.221	0.339	1.321	-0.160	0.156	0.583	0.394	0.267	0.482	-0.568	-0.290	-0.340	-0.874	-0.922	0.071	-0.412	0.022	-0.010	-0.946	-0.817	-1.145	-1.327	-0.869	-0.870	0.359	0.059	-0.466	-0.001	-23.438
-0.270	0.331	1.330	-0.155	0.180	0.612	0.482	0.349	0.555	-0.491	-0.223	-0.272	-0.848	-0.881	-0.037	-0.435	-0.072	-0.183	-1.037	-0.840	-1.127	-1.395	-0.935	-0.842	0.409	0.149	-0.394	0.134	-19.531
-0.332	0.300	1.297	-0.173	0.184	0.575	0.573	0.411	0.599	-0.369	-0.111	-0.148	-0.773	-0.806	-0.176	-0.465	-0.189	-0.385	-1.121	-0.852	-1.080	-1.436	-0.988	-0.748	0.493	0.302	-0.234	0.325	-15.625
-0.399	0.247	1.228	-0.214	0.165	0.480	0.657	0.448	0.613	-0.220	0.032	0.012	-0.664	-0.710	-0.325	-0.498	-0.311	-0.587	-1.191	-0.855	-1.013	-1.450	-1.027	-0.607	0.601	0.499	-0.008	0.545	-11.719
-0.459	0.179	1.133	-0.275	0.122	0.343	0.725	0.458	0.602	-0.066	0.185	0.180	-0.540	-0.610	-0.464	-0.529	-0.418	-0.757	-1.241	-0.850	-0.935	-1.442	-1.053	-0.442	0.721	0.711	0.249	0.760	-7.812
-0.505	0.103	1.029	-0.351	0.062	0.186	0.769	0.443	0.575	0.070	0.328	0.328	-0.423	-0.523	-0.575	-0.551	-0.491	-0.867	-1.267	-0.835	-0.858	-1.423	-1.070	-0.284	0.834	0.906	0.500	0.939	-3.906
-0.528	0.027	0.931	-0.432	-0.010	0.030	0.784	0.410	0.540	0.167	0.443	0.427	-0.330	-0.462	-0.646	-0.558	-0.517	-0.895	-1.264	-0.812	-0.792	-1.399	-1.082	-0.157	0.927	1.055	0.706	1.053	0.000
-0.524	-0.041	0.857	-0.509	-0.081	-0.104	0.765	0.365	0.510	0.209	0.515	0.461	-0.277	-0.436	-0.675	-0.548	-0.487	-0.832	-1.233	-0.779	-0.744	-1.380	-1.094	-0.083	0.989	1.139	0.842	1.090	3.906
-0.495	-0.095	0.819	-0.574	-0.145	-0.202	0.712	0.315	0.492	0.190	0.543	0.430	-0.272	-0.450	-0.664	-0.521	-0.407	-0.684	-1.178	-0.740	-0.721	-1.372	-1.105	-0.072	1.019	1.152	0.892	1.051	7.812
-0.445	-0.135	0.824	-0.621	-0.195	-0.257	0.628	0.267	0.495	0.113	0.530	0.348	-0.315	-0.501	-0.623	-0.482	-0.288	-0.475	-1.105	-0.698	-0.725	-1.380	-1.119	-0.125	1.023	1.102	0.859	0.955	11.719
-0.384	-0.159	0.868	-0.650	-0.227	-0.269	0.519	0.231	0.524	-0.011	0.492	0.242	-0.400	-0.586	-0.565	-0.438	-0.151	-0.241	-1.026	-0.658	-0.755	-1.405	-1.135	-0.233	1.011	1.008	0.755	0.827	15.625
-0.325	-0.172	0.940	-0.661	-0.241	-0.242	0.401	0.212	0.579	-0.162	0.445	0.140	-0.514	-0.693	-0.500	-0.398	-0.020	-0.024	-0.956	-0.625	-0.810	-1.446	-1.156	-0.379	0.996	0.896	0.602	0.698	19.531
-0.278	-0.175	1.023	-0.658	-0.239	-0.183	0.289	0.216	0.657	-0.316	0.405	0.069	-0.638	-0.810	-0.441	-0.371	0.083	0.134	-0.906	-0.602	-0.879	-1.502	-1.184	-0.541	0.986	0.786	0.425	0.590	23.438
-0.250	-0.172	1.099	-0.644	-0.223	-0.102	0.207	0.246	0.753	-0.448	0.386	0.039	-0.752	-0.922	-0.391	-0.361	0.139	0.203	-0.888	-0.589	-0.954	-1.568	-1.224	-0.699	0.986	0.696	0.247	0.516	27.344
-0.246	-0.160	1.151	-0.618	-0.197	-0.007	0.172	0.301	0.854	-0.533	0.390	0.050	-0.838	-1.012	-0.354	-0.368	0.140	0.169	-0.905	-0.585	-1.021	-1.641	-1.278	-0.832	0.994	0.633	0.086	0.476	31.250
-0.268	-0.141	1.167	-0.583	-0.163	0.092	0.204	0.377	0.948	-0.555	0.411	0.083	-0.879	-1.067	-0.329	-0.389	0.087	0.037	-0.954	-0.584	-1.069	-1.713	-1.341	-0.923	1.005	0.598	-0.042	0.459	35.156
-0.313	-0.115	1.145	-0.537	-0.124	0.186	0.311	0.464	1.018	-0.502	0.434	0.107	-0.867	-1.077	-0.317	-0.418	-0.011	-0.168	-1.028	-0.583	-1.088	-1.780	-1.408	-0.956	1.014	0.591	-0.126	0.454	39.062
-0.378	-0.086	1.086	-0.484	-0.084	0.266	0.495	0.552	1.050	-0.372	0.441	0.091	-0.800	-1.041	-0.319	-0.452	-0.141	-0.412	-1.115	-0.582	-1.076	-1.834	-1.466	-0.925	1.020	0.612	-0.155	0.452	42.969
-0.460	-0.060	0.997	-0.429	-0.046	0.323	0.745	0.631	1.035	-0.173	0.410	0.003	-0.687	-0.962	-0.343	-0.492	-0.289	-0.659	-1.205	-0.583	-1.035	-1.872	-1.506	-0.823	1.032	0.669	-0.118	0.455	46.875
-0.560	-0.048	0.884	-0.383	-0.018	0.351	1.045	0.692	0.973	0.084	0.329	-0.173	-0.544	-0.855	-0.400	-0.543	-0.444	-0.881	-1.292	-0.597	-0.980	-1.896	-1.520	-0.653	1.063	0.777	0.000	0.480	50.781
-0.682	-0.062	0.751	-0.359	-0.006	0.347	1.372	0.737	0.878	0.380	0.196	-0.436	-0.389	-0.740	-0.509	-0.618	-0.606	-1.065	-1.377	-0.636	-0.927	-1.911	-1.508	-0.419	1.135	0.959	0.213	0.555	54.688
-0.839	-0.115	0.600	-0.369	-0.017	0.316	1.703	0.779	0.782	0.701	0.027	-0.766	-0.244	-0.637	-0.691	-0.732	-0.781	-1.218	-1.470	-0.715	-0.900	-1.926	-1.480	-0.132	1.270	1.236	0.532	0.715	58.594
-1.049	-0.220	0.427	-0.427	-0.057	0.260	2.022	0.844	0.733	1.037	-0.145	-1.122	-0.124	-0.567	-0.970	-0.903	-0.985	-1.363	-1.583	-0.847	-0.917	-1.955	-1.450	0.197	1.488	1.630	0.964	0.995	62.500
-1.337	-0.390	0.225	-0.544	-0.136	0.186	2.316	0.970	0.795	1.387	-0.270	-1.450	-0.041	-0.547	-1.364	-1.147	-1.236	-1.535	-1.732	-1.043	-0.996	-2.011	-1.441	0.553	1.803	2.151	1.510	1.423	66.406
-1.730	-0.635	-0.013	-0.733	-0.261	0.098	2.586	1.198	1.036	1.758	-0.289	-1.688	0.006	-0.585	-1.889	-1.475	-1.554	-1.773	-1.931	-1.310	-1.148	-2.102	-1.470	0.924	2.221	2.801	2.161	2.012	70.312
-2.252	-0.968	-0.292	-1.001	-0.441	-0.003	2.837	1.565	1.516	2.160	-0.147	-1.777	0.021	-0.682	-2.549	-1.896	-1.956	-2.106	-2.190	-1.653	-1.377	-2.235	-1.553	1.300	2.737	3.571	2.899	2.758	74.219
-2.917	-1.395	-0.616	-1.357	-0.681	-0.121	3.081	2.097	2.276	2.606	0.201	-1.670	0.017	-0.835	-3.339	-2.413	-2.450	-2.549	-2.514	-2.073	-1.682	-2.412	-1.699	1.669	3.339	4.437	3.698	3.643	78.125
-3.721	-1.915	-0.978	-1.801	-0.985	-0.259	3.329	2.799	3.328	3.105	0.776	-1.340	0.007	-1.036	-4.239	-3.022	-3.033	-3.097	-2.898	-2.572	-2.059	-2.631	-1.907	2.023	4.005	5.367	4.525	4.626	82.031
-4.637	-2.518	-1.369	-2.325	-1.347	-0.419	3.590	3.651	4.641	3.653	1.567	-0.790	0.005	-1.272	-5.215	-3.708	-3.686	-3.721	-3.331	-3.144	-2.498	-2.884	-2.163	2.347	4.704	6.315	5.340	5.654	85.938
-5.616	-3.179	-1.771	-2.908	-1.758	-0.600	3.866	4.606	6.144	4.237	2.529	-0.052	0.020	-1.531	-6.217	-4.444	-4.380	-4.376	-3.791	-3.773	-2.983	-3.158	-2.446	2.629	5.395	7.227	6.097	6.657	89.844
-6.586	-3.860	-2.162	-3.517	-2.196	-0.793	4.153	5.600	7.734	4.829	3.591	0.810	0.058	-1.798	-7.182	-5.190	-5.069	-5.007	-4.246	-4.430	-3.489	-3.436	-2.730	2.853	6.026	8.039	6.751	7.561	93.750
-7.466	-4.509	-2.520	-4.107	-2.636	-0.984	4.438	6.553	9.282	5.390	4.657	1.712	0.121	-2.057	-8.038	-5.894	-5.700	-5.555	-4.658	-5.074	-3.986	-3.697	-2.982	3.003	6.541	8.686	7.259	8.293	97.656
-8.173	-5.070	-2.819	-4.626	-3.047	-1.155	4.708	7.388	10.655	5.880	5.629	2.564	0.206	-2.290	-8.717	-6.498	-6.219	-5.970	-4.989	-5.653	-4.435	-3.919	-3.178	3.069	6.881	9.106	7.589	8.788	101.562
-8.633	-5.485	-3.039	-5.022	-3.395	-1.289	4.943	8.035	11.733	6.257	6.418	3.280	0.310	-2.477	-9.155	-6.940	-6.572	-6.214	-5.199	-6.107	-4.797	-4.083	-3.298	3.043	6.990	9.247	7.717	8.999	105.469
-8.791	-5.703	-3.160	-5.250	-3.649	-1.369	5.127	8.438	12.416	6.487	6.953	3.793	0.428	-2.598	-9.305	-7.165	-6.716	-6.264	-5.259	-6.379	-5.031	-4.172	-3.336	2.926	6.823	9.072	7.635	8.902	109.375
-8.616	-5.683	-3.167	-5.276	-3.783	-1.383	5.242	8.563	12.638	6.548	7.192	4.056	0.556	-2.634	-9.138	-7.132	-6.620	-6.111	-5.149	-6.422	-5.103	-4.171	-3.294	2.727	6.350	8.565	7.349	8.496	113.281
-8.104	-5.404	-3.050	-5.085	-3.779	-1.324	5.274	8.398	12.370	6.428	7.119	4.054	0.692	-2.569	-8.652	-6.817	-6.271	-5.758	-4.859	-6.203	-4.988	-4.072	-3.184	2.458	5.562	7.734	6.877	7.803	117.188
-7.277	-4.862	-2.806	-4.678	-3.630	-1.194	5.208	7.950	11.621	6.128	6.748	3.797	0.831	-2.391	-7.867	-6.220	-5.675	-5.220	-4.395	-5.715	-4.677	-3.868	-3.020	2.141	4.475	6.612	6.249	6.868	121.094
-6.182	-4.081	-2.440	-4.080	-3.340	-1.004	5.034	7.242	10.432	5.659	6.113	3.317	0.969	-2.100	-6.829	-5.366	-4.860	-4.520	-3.773	-4.972	-4.174	-3.557	-2.817	1.798	3.133	5.259	5.508	5.755	125.000
-4.887	-3.107	-1.970	-3.331	-2.929	-0.773	4.747	6.317	8.879	5.043	5.268	2.667	1.098	-1.704	-5.605	-4.304	-3.870	-3.694	-3.020	-4.016	-3.505	-3.141	-2.583	1.452	1.605	3.756	4.698	4.541	128.906
-3.478	-2.009	-1.420	-2.487	-2.430	-0.528	4.351	5.231	7.066	4.311	4.280	1.915	1.208	-1.228	-4.278	-3.106	-2.771	-2.782	-2.175	-2.909	-2.712	-2.630	-2.326	1.122	-0.018	2.200	3.870	3.308	132.812
-2.051	-0.870	-0.828	-1.613	-1.886	-0.298	3.860	4.053	5.119	3.502	3.226	1.130	1.284	-0.707	-2.938	-1.855	-1.636	-1.838	-1.284	-1.731	-1.849	-2.042	-2.049	0.824	-1.628	0.694	3.070	2.140	136.719
-0.708	0.220	-0.234	-0.775	-1.345	-0.110	3.301	2.861	3.179	2.665	2.188	0.385	1.313	-0.186	-1.675	-0.642	-0.542	-0.916	-0.398	-0.570	-0.982	-1.410	-1.759	0.565	-3.118	-0.662	2.340	1.112	140.625
0.459	1.176	0.317	-0.035	-0.856	0.018	2.707	1.738	1.388	1.851	1.245	-0.256	1.280	0.286	-0.570	0.446	0.437	-0.072	0.429	0.487	-0.178	-0.774	-1.464	0.345	-4.389	-1.784	1.711	0.282	144.531
1.375	1.931	0.785	0.559	-0.461	0.075	2.118	0.760	-0.126	1.113	0.467	-0.741	1.173	0.663	0.314	1.337	1.240	0.641	1.146	1.364	0.501	-0.182	-1.179	0.159	-5.361	-2.613	1.202	-0.311	148.438
1.994	2.440	1.139	0.976	-0.189	0.066	1.575	-0.009	-1.262	0.498	-0.093	-1.037	0.990	0.908	0.938	1.981	1.821	1.181	1.706	2.005	1.005	0.316	-0.921	-0.002	-5.988	-3.116	0.819	-0.648	152.344
2.300	2.685	1.358	1.205	-0.055	0.002	1.114	-0.524	-1.958	0.045	-0.403	-1.128	0.736	1.002	1.283	2.355	2.155	1.518	2.078	2.378	1.304	0.680	-0.713	-0.144	-6.254	-3.292	0.563	-0.733	156.250
2.310	2.679	1.435	1.254	-0.055	-0.097	0.764	-0.764	-2.193	-0.216	-0.454	-1.018	0.427	0.945	1.354	2.459	2.237	1.634	2.241	2.480	1.391	0.880	-0.577	-0.270	-6.180	-3.167	0.422	-0.587	160.156
2.065	2.455	1.377	1.145	-0.169	-0.209	0.549	-0.732	-1.992	-0.267	-0.260	-0.728	0.091	0.756	1.176	2.318	2.078	1.530	2.195	2.332	1.281	0.905	-0.529	-0.379	-5.817	-2.789	0.385	-0.244	164.062
1.621	2.062	1.197	0.917	-0.366	-0.312	0.481	-0.449	-1.412	-0.105	0.147	-0.291	-0.238	0.472	0.787	1.972	1.707	1.220	1.957	1.975	1.007	0.764	-0.580	-0.464	-5.236	-2.225	0.435	0.253	167.969
1.040	1.556	0.917	0.609	-0.607	-0.387	0.568	0.044	-0.538	0.261	0.722	0.251	-0.524	0.139	0.234	1.471	1.165	0.739	1.558	1.465	0.618	0.481	-0.729	-0.516	-4.521	-1.544	0.556	0.853	171.875
0.376	0.991	0.560	0.263	-0.854	-0.421	0.807	0.699	0.533	0.809	1.413	0.855	-0.735	-0.196	-0.434	0.869	0.502	0.129	1.043	0.860	0.164	0.095	-0.965	-0.524	-3.755	-0.817	0.734	1.510	175.781
-0.322	0.416	0.154	-0.087	-1.073	-0.410	1.185	1.461	1.704	1.506	2.169	1.480	-0.845	-0.490	-1.167	0.213	-0.232	-0.560	0.461	0.219	-0.302	-0.348	-1.266	-0.482	-3.010	-0.106	0.957	2.181	179.688
-1.023	-0.135	-0.273	-0.415	-1.242	-0.354	1.682	2.278	2.890	2.310	2.945	2.093	-0.842	-0.712	-1.927	-0.455	-0.990	-1.280	-0.139	-0.410	-0.740	-0.805	-1.604	-0.385	-2.340	0.544	1.216	2.831	183.594
-1.702	-0.638	-0.696	-0.709	-1.350	-0.264	2.266	3.103	4.021	3.173	3.704	2.671	-0.723	-0.846	-2.682	-1.106	-1.729	-1.991	-0.717	-0.992	-1.119	-1.237	-1.949	-0.234	-1.780	1.104	1.504	3.439	187.500
-2.345	-1.083	-1.097	-0.965	-1.396	-0.154	2.900	3.895	5.050	4.047	4.419	3.200	-0.497	-0.887	-3.408	-1.722	-2.422	-2.665	-1.243	-1.503	-1.423	-1.616	-2.273	-0.035	-1.339	1.565	1.819	3.992	191.406
-2.944	-1.471	-1.463	-1.189	-1.389	-0.041	3.544	4.626	5.948	4.885	5.072	3.674	-0.184	-0.845	-4.092	-2.291	-3.048	-3.284	-1.699	-1.937	-1.648	-1.927	-2.554	0.203	-1.013	1.931	2.157	4.488	195.312
-3.490	-1.807	-1.789	-1.389	-1.346	0.058	4.159	5.273	6.704	5.647	5.651	4.093	0.194	-0.734	-4.723	-2.810	-3.601	-3.837	-2.079	-2.293	-1.799	-2.162	-2.775	0.466	-0.783	2.215	2.514	4.928	199.219
-3.978	-2.101	-2.077	-1.577	-1.283	0.129	4.712	5.823	7.320	6.302	6.152	4.458	0.610	-0.573	-5.291	-3.279	-4.079	-4.324	-2.386	-2.580	-1.883	-2.323	-2.928	0.743	-0.626	2.438	2.884	5.317	203.125
-4.401	-2.358	-2.330	-1.757	-1.215	0.166	5.180	6.272	7.805	6.832	6.571	4.770	1.040	-0.378	-5.788	-3.695	-4.488	-4.745	-2.629	-2.805	-1.914	-2.418	-3.011	1.020	-0.518	2.615	3.254	5.654	207.031
-4.751	-2.581	-2.551	-1.932	-1.150	0.168	5.554	6.620	8.169	7.229	6.907	5.027	1.465	-0.162	-6.204	-4.055	-4.832	-5.106	-2.818	-2.977	-1.900	-2.454	-3.030	1.285	-0.445	2.756	3.611	5.938	210.938
-5.023	-2.769	-2.741	-2.093	-1.091	0.148	5.834	6.871	8.422	7.497	7.157	5.226	1.869	0.066	-6.530	-4.352	-5.118	-5.409	-2.962	-3.099	-1.846	-2.442	-2.992	1.529	-0.396	2.862	3.937	6.159	214.844
-5.212	-2.915	-2.895	-2.228	-1.034	0.120	6.029	7.033	8.567	7.648	7.322	5.360	2.245	0.304	-6.759	-4.580	-5.348	-5.657	-3.065	-3.170	-1.755	-2.388	-2.910	1.746	-0.370	2.929	4.215	6.307	218.750
-5.319	-3.008	-3.009	-2.321	-0.970	0.101	6.152	7.112	8.604	7.698	7.402	5.424	2.590	0.551	-6.887	-4.730	-5.521	-5.850	-3.131	-3.184	-1.627	-2.294	-2.795	1.932	-0.373	2.947	4.432	6.373	222.656
-5.346	-3.042	-3.080	-2.357	-0.892	0.105	6.220	7.112	8.532	7.663	7.401	5.416	2.903	0.810	-6.915	-4.796	-5.634	-5.986	-3.156	-3.134	-1.457	-2.160	-2.657	2.090	-0.409	2.907	4.578	6.352	226.562
-5.302	-3.013	-3.108	-2.327	-0.794	0.134	6.243	7.038	8.347	7.559	7.325	5.338	3.188	1.083	-6.853	-4.777	-5.681	-6.061	-3.133	-3.014	-1.244	-1.981	-2.503	2.224	-0.483	2.805	4.653	6.243	230.469
-5.200	-2.923	-3.099	-2.230	-0.675	0.181	6.231	6.894	8.052	7.399	7.181	5.194	3.450	1.372	-6.714	-4.678	-5.658	-6.073	-3.055	-2.822	-0.987	-1.750	-2.333	2.345	-0.593	2.645	4.663	6.056	234.375
-5.055	-2.785	-3.066	-2.079	-0.540	0.230	6.192	6.686	7.658	7.192	6.981	4.993	3.692	1.676	-6.521	-4.511	-5.564	-6.019	-2.916	-2.564	-0.692	-1.461	-2.144	2.462	-0.727	2.439	4.620	5.805	238.281
-4.886	-2.614	-3.026	-1.892	-0.400	0.263	6.132	6.424	7.186	6.950	6.738	4.748	3.917	1.991	-6.299	-4.290	-5.404	-5.905	-2.713	-2.252	-0.364	-1.114	-1.928	2.591	-0.870	2.210	4.541	5.513	242.188
-4.713	-2.434	-2.999	-1.695	-0.273	0.259	6.059	6.125	6.665	6.680	6.465	4.473	4.130	2.312	-6.077	-4.039	-5.190	-5.743	-2.451	-1.905	-0.017	-0.709	-1.680	2.744	-0.994	1.988	4.449	5.205	246.094
-4.554	-2.266	-3.005	-1.516	-0.173	0.204	5.982	5.807	6.130	6.395	6.178	4.183	4.333	2.633	-5.879	-3.781	-4.940	-5.553	-2.137	-1.546	0.337	-0.258	-1.398	2.933	-1.072	1.806	4.365	4.907	250.000
-4.428	-2.131	-3.058	-1.377	-0.117	0.086	5.909	5.494	5.619	6.106	5.891	3.891	4.529	2.947	-5.727	-3.536	-4.679	-5.359	-1.789	-1.199	0.683	0.225	-1.087	3.164	-1.079	1.694	4.312	4.643	253.906
-4.354	-2.039	-3.167	-1.293	-0.115	-0.095	5.849	5.206	5.167	5.827	5.615	3.609	4.724	3.249	-5.634	-3.323	-4.432	-5.185	-1.427	-0.883	1.008	0.717	-0.759	3.440	-0.993	1.677	4.305	4.430	257.812
-4.346	-1.996	-3.331	-1.268	-0.169	-0.334	5.806	4.962	4.800	5.572	5.359	3.344	4.917	3.534	-5.604	-3.151	-4.219	-5.050	-1.070	-0.611	1.302	1.195	-0.433	3.757	-0.807	1.768	4.358	4.277	261.719
-4.416	-1.994	-3.541	-1.296	-0.273	-0.617	5.780	4.775	4.535	5.354	5.128	3.099	5.112	3.798	-5.635	-3.026	-4.056	-4.968	-0.738	-0.388	1.561	1.635	-0.129	4.103	-0.522	1.965	4.476	4.184	265.625
-4.572	-2.024	-3.786	-1.362	-0.412	-0.924	5.771	4.650	4.375	5.184	4.924	2.876	5.307	4.039	-5.718	-2.942	-3.949	-4.942	-0.446	-0.211	1.781	2.016	0.133	4.465	-0.151	2.257	4.655	4.142	269.531
-4.809	-2.073	-4.051	-1.449	-0.562	-1.231	5.776	4.592	4.317	5.074	4.750	2.675	5.504	4.256	-5.847	-2.894	-3.897	-4.967	-0.202	-0.070	1.965	2.326	0.338	4.825	0.284	2.623	4.890	4.141	273.438
-5.118	-2.131	-4.321	-1.539	-0.702	-1.518	5.794	4.596	4.346	5.033	4.607	2.498	5.701	4.452	-6.017	-2.872	-3.892	-5.034	-0.009	0.047	2.119	2.559	0.480	5.164	0.754	3.034	5.167	4.166	277.344
-5.478	-2.192	-4.585	-1.620	-0.811	-1.768	5.825	4.658	4.446	5.069	4.501	2.351	5.901	4.629	-6.229	-2.867	-3.923	-5.132	0.136	0.152	2.252	2.719	0.562	5.468	1.230	3.461	5.472	4.206	281.250
-5.862	-2.254	-4.837	-1.684	-0.875	-1.972	5.874	4.768	4.599	5.188	4.436	2.239	6.106	4.794	-6.484	-2.874	-3.980	-5.249	0.241	0.256	2.372	2.821	0.592	5.725	1.687	3.876	5.789	4.250	285.156
-6.242	-2.320	-5.076	-1.730	-0.891	-2.131	5.947	4.915	4.784	5.387	4.416	2.172	6.318	4.950	-6.782	-2.887	-4.049	-5.374	0.316	0.363	2.487	2.880	0.585	5.932	2.104	4.258	6.102	4.296	289.062
-6.589	-2.393	-5.303	-1.762	-0.866	-2.254	6.047	5.085	4.985	5.655	4.441	2.154	6.538	5.103	-7.120	-2.902	-4.118	-5.495	0.373	0.474	2.604	2.917	0.557	6.088	2.468	4.593	6.398	4.340	292.969
-6.883	-2.474	-5.524	-1.782	-0.816	-2.352	6.172	5.263	5.183	5.971	4.508	2.188	6.762	5.255	-7.484	-2.916	-4.174	-5.600	0.424	0.587	2.724	2.951	0.523	6.201	2.775	4.877	6.663	4.386	296.875
-7.110	-2.556	-5.742	-1.795	-0.757	-2.440	6.316	5.432	5.362	6.306	4.601	2.265	6.984	5.402	-7.855	-2.923	-4.207	-5.678	0.479	0.700	2.845	2.995	0.495	6.277	3.027	5.112	6.888	4.432	300.781
-7.268	-2.628	-5.958	-1.796	-0.707	-2.523	6.463	5.576	5.511	6.625	4.704	2.370	7.190	5.539	-8.205	-2.915	-4.206	-5.721	0.545	0.809	2.962	3.055	0.480	6.327	3.232	5.304	7.067	4.477	304.688
-7.361	-2.673	-6.166	-1.780	-0.677	-2.601	6.596	5.687	5.619	6.892	4.794	2.482	7.367	5.657	-8.508	-2.883	-4.170	-5.724	0.626	0.913	3.067	3.130	0.478	6.356	3.402	5.461	7.194	4.517	308.594
-7.398	-2.675	-6.355	-1.737	-0.668	-2.664	6.698	5.758	5.684	7.080	4.849	2.573	7.499	5.745	-8.739	-2.821	-4.099	-5.695	0.721	1.014	3.153	3.212	0.487	6.367	3.546	5.590	7.269	4.542	312.500
-7.394	-2.617	-6.511	-1.654	-0.674	-2.697	6.755	5.794	5.709	7.170	4.851	2.619	7.575	5.795	-8.883	-2.722	-4.002	-5.646	0.824	1.116	3.217	3.292	0.504	6.361	3.672	5.691	7.292	4.539	316.406
-7.360	-2.493	-6.621	-1.524	-0.681	-2.681	6.763	5.802	5.701	7.158	4.790	2.597	7.588	5.802	-8.937	-2.584	-3.890	-5.594	0.930	1.222	3.257	3.361	0.528	6.333	3.782	5.763	7.264	4.495	320.312
-7.305	-2.304	-6.677	-1.344	-0.672	-2.602	6.724	5.792	5.666	7.049	4.661	2.491	7.537	5.767	-8.908	-2.411	-3.772	-5.552	1.034	1.338	3.279	3.416	0.564	6.282	3.877	5.797	7.188	4.397	324.219
-7.234	-2.059	-6.679	-1.118	-0.630	-2.454	6.648	5.772	5.609	6.857	4.465	2.295	7.429	5.697	-8.814	-2.210	-3.656	-5.529	1.134	1.466	3.292	3.461	0.620	6.204	3.953	5.785	7.069	4.236	328.125
-7.146	-1.775	-6.635	-0.856	-0.544	-2.240	6.544	5.744	5.527	6.601	4.209	2.015	7.276	5.602	-8.677	-1.993	-3.545	-5.523	1.232	1.609	3.306	3.508	0.707	6.101	4.004	5.720	6.912	4.013	332.031
-7.034	-1.473	-6.555	-0.572	-0.414	-1.975	6.423	5.703	5.412	6.298	3.905	1.670	7.090	5.495	-8.518	-1.772	-3.435	-5.521	1.334	1.763	3.333	3.570	0.835	5.977	4.025	5.600	6.725	3.737	335.938
-6.891	-1.174	-6.456	-0.284	-0.245	-1.681	6.286	5.635	5.248	5.964	3.565	1.289	6.887	5.390	-8.355	-1.558	-3.321	-5.508	1.447	1.927	3.382	3.661	1.006	5.844	4.017	5.433	6.519	3.428	339.844
-6.709	-0.900	-6.350	-0.010	-0.053	-1.388	6.130	5.524	5.020	5.611	3.208	0.913	6.681	5.297	-8.197	-1.364	-3.199	-5.466	1.573	2.092	3.456	3.788	1.218	5.713	3.982	5.232	6.309	3.114	343.750
-6.486	-0.668	-6.251	0.232	0.143	-1.127	5.948	5.354	4.717	5.248	2.852	0.584	6.486	5.224	-8.047	-1.199	-3.070	-5.386	1.712	2.250	3.554	3.950	1.454	5.598	3.926	5.021	6.112	2.830	347.656
-6.223	-0.493	-6.167	0.426	0.323	-0.924	5.730	5.115	4.333	4.884	2.518	0.344	6.312	5.173	-7.900	-1.072	-2.941	-5.262	1.856	2.392	3.668	4.137	1.695	5.513	3.862	4.827	5.947	2.608	351.562
-5.930	-0.388	-6.103	0.560	0.470	-0.799	5.471	4.803	3.876	4.524	2.222	0.224	6.168	5.142	-7.751	-0.990	-2.824	-5.104	1.991	2.505	3.786	4.330	1.915	5.465	3.801	4.679	5.832	2.475	355.469
-5.624	-0.359	-6.059	0.629	0.575	-0.757	5.175	4.430	3.366	4.178	1.978	0.234	6.060	5.126	-7.594	-0.958	-2.738	-4.925	2.096	2.580	3.894	4.508	2.095	5.459	3.759	4.599	5.781	2.449	359.375
-5.328	-0.408	-6.029	0.634	0.638	-0.788	4.852	4.018	2.833	3.854	1.789	0.362	5.989	5.118	-7.432	-0.980	-2.703	-4.751	2.155	2.609	3.977	4.650	2.220	5.494	3.748	4.605	5.800	2.529	363.281
-5.066	-0.528	-6.006	0.581	0.664	-0.869	4.525	3.601	2.317	3.564	1.652	0.572	5.955	5.112	-7.271	-1.057	-2.737	-4.607	2.152	2.590	4.026	4.741	2.287	5.566	3.779	4.700	5.888	2.702	367.188
-4.864	-0.710	-5.983	0.485	0.667	-0.965	4.222	3.221	1.862	3.319	1.555	0.809	5.953	5.101	-7.125	-1.184	-2.853	-4.523	2.077	2.526	4.035	4.774	2.302	5.665	3.855	4.879	6.035	2.940	371.094
-4.743	-0.940	-5.955	0.363	0.661	-1.042	3.973	2.922	1.516	3.133	1.484	1.012	5.975	5.082	-7.012	-1.356	-3.056	-4.524	1.930	2.423	4.006	4.748	2.279	5.781	3.975	5.123	6.224	3.205	375.000
-4.719	-1.203	-5.923	0.229	0.657	-1.069	3.809	2.744	1.319	3.023	1.434	1.131	6.010	5.054	-6.950	-1.562	-3.345	-4.627	1.716	2.291	3.943	4.669	2.231	5.902	4.132	5.408	6.433	3.458	378.906
-4.800	-1.484	-5.894	0.097	0.660	-1.029	3.750	2.717	1.303	3.005	1.411	1.135	6.048	5.014	-6.952	-1.792	-3.709	-4.836	1.448	2.141	3.855	4.550	2.172	6.017	4.313	5.707	6.641	3.668	382.812
-4.979	-1.772	-5.879	-0.027	0.668	-0.923	3.798	2.849	1.482	3.090	1.433	1.033	6.076	4.962	-7.028	-2.035	-4.128	-5.139	1.145	1.984	3.749	4.404	2.110	6.113	4.503	5.991	6.829	3.815	386.719
-5.235	-2.059	-5.889	-0.142	0.667	-0.770	3.937	3.125	1.842	3.278	1.531	0.863	6.087	4.894	-7.176	-2.280	-4.577	-5.511	0.830	1.828	3.632	4.245	2.048	6.177	4.688	6.240	6.982	3.898	390.625
-5.531	-2.336	-5.931	-0.253	0.636	-0.609	4.128	3.503	2.347	3.555	1.732	0.694	6.074	4.806	-7.384	-2.519	-5.025	-5.911	0.524	1.677	3.505	4.087	1.987	6.199	4.857	6.441	7.094	3.932	394.531
-5.816	-2.599	-6.002	-0.366	0.556	-0.483	4.314	3.920	2.932	3.887	2.052	0.601	6.031	4.695	-7.630	-2.744	-5.444	-6.294	0.248	1.536	3.369	3.940	1.923	6.173	5.007	6.588	7.161	3.942	398.438
-6.035	-2.837	-6.089	-0.488	0.410	-0.436	4.437	4.299	3.513	4.228	2.480	0.643	5.960	4.559	-7.882	-2.944	-5.807	-6.612	0.015	1.408	3.227	3.812	1.854	6.095	5.136	6.681	7.186	3.954	402.344
-6.137	-3.040	-6.166	-0.618	0.198	-0.497	4.444	4.566	4.005	4.524	2.976	0.844	5.863	4.404	-8.102	-3.108	-6.093	-6.828	-0.164	1.300	3.085	3.710	1.781	5.968	5.248	6.721	7.167	3.982	406.250
-6.086	-3.191	-6.202	-0.747	-0.066	-0.672	4.306	4.664	4.324	4.719	3.466	1.177	5.747	4.244	-8.250	-3.219	-6.285	-6.917	-0.280	1.227	2.959	3.643	1.710	5.795	5.340	6.701	7.096	4.019	410.156
-5.867	-3.268	-6.167	-0.855	-0.353	-0.943	4.019	4.559	4.413	4.771	3.856	1.565	5.623	4.101	-8.290	-3.254	-6.370	-6.874	-0.322	1.209	2.871	3.624	1.654	5.582	5.408	6.609	6.959	4.033	414.062
-5.486	-3.252	-6.038	-0.915	-0.619	-1.271	3.609	4.251	4.240	4.654	4.053	1.901	5.500	3.998	-8.192	-3.190	-6.336	-6.704	-0.278	1.270	2.850	3.666	1.628	5.334	5.437	6.423	6.732	3.976	417.969
-4.970	-3.126	-5.808	-0.900	-0.823	-1.604	3.126	3.769	3.812	4.367	3.984	2.071	5.386	3.959	-7.940	-3.007	-6.179	-6.427	-0.136	1.434	2.921	3.779	1.649	5.054	5.407	6.121	6.394	3.794	421.875
-4.359	-2.884	-5.490	-0.789	-0.930	-1.891	2.629	3.168	3.170	3.932	3.620	1.993	5.288	3.999	-7.536	-2.698	-5.899	-6.071	0.112	1.716	3.100	3.967	1.724	4.741	5.294	5.684	5.929	3.443	425.781
-3.700	-2.534	-5.112	-0.576	-0.920	-2.090	2.180	2.515	2.386	3.397	2.986	1.635	5.207	4.120	-6.998	-2.268	-5.506	-5.667	0.458	2.113	3.387	4.221	1.851	4.396	5.077	5.105	5.338	2.910	429.688
-3.040	-2.099	-4.719	-0.269	-0.793	-2.180	1.828	1.883	1.547	2.824	2.164	1.030	5.143	4.312	-6.362	-1.745	-5.022	-5.243	0.883	2.604	3.763	4.518	2.013	4.022	4.744	4.394	4.637	2.211	433.594
-2.423	-1.617	-4.357	0.104	-0.571	-2.160	1.606	1.334	0.747	2.289	1.274	0.269	5.096	4.553	-5.677	-1.170	-4.479	-4.825	1.351	3.152	4.194	4.827	2.186	3.626	4.291	3.578	3.863	1.398	437.500
-1.880	-1.131	-4.067	0.507	-0.287	-2.053	1.522	0.915	0.065	1.862	0.452	-0.522	5.065	4.813	-4.996	-0.594	-3.915	-4.436	1.820	3.707	4.636	5.112	2.337	3.223	3.728	2.698	3.064	0.543	441.406
-1.431	-0.680	-3.874	0.901	0.019	-1.891	1.565	0.648	-0.443	1.597	-0.178	-1.212	5.049	5.061	-4.369	-0.064	-3.368	-4.089	2.249	4.221	5.047	5.341	2.440	2.828	3.076	1.802	2.297	-0.271	445.312
-1.081	-0.299	-3.787	1.253	0.308	-1.716	1.705	0.532	-0.753	1.520	-0.530	-1.693	5.048	5.270	-3.834	0.381	-2.872	-3.794	2.607	4.654	5.392	5.495	2.475	2.464	2.361	0.938	1.609	-0.972	449.219
-0.825	-0.004	-3.798	1.541	0.552	-1.562	1.900	0.542	-0.874	1.629	-0.570	-1.900	5.060	5.421	-3.412	0.723	-2.449	-3.556	2.878	4.983	5.648	5.571	2.436	2.148	1.615	0.146	1.040	-1.510	453.125
-0.649	0.204	-3.884	1.755	0.733	-1.455	2.108	0.645	-0.840	1.886	-0.320	-1.823	5.082	5.506	-3.106	0.960	-2.108	-3.373	3.060	5.202	5.811	5.578	2.331	1.896	0.870	-0.545	0.609	-1.860	457.031
-0.533	0.335	-4.016	1.902	0.846	-1.408	2.289	0.797	-0.701	2.237	0.153	-1.501	5.106	5.525	-2.902	1.107	-1.848	-3.244	3.168	5.323	5.891	5.539	2.175	1.715	0.159	-1.116	0.317	-2.029	460.938
-0.461	0.409	-4.164	1.992	0.897	-1.418	2.417	0.962	-0.509	2.617	0.754	-1.003	5.125	5.489	-2.778	1.186	-1.659	-3.164	3.222	5.369	5.903	5.476	1.988	1.603	-0.490	-1.559	0.152	-2.042	464.844
-0.417	0.445	-4.307	2.041	0.895	-1.475	2.479	1.113	-0.304	2.966	1.387	-0.416	5.128	5.407	-2.707	1.222	-1.525	-3.128	3.242	5.362	5.870	5.410	1.792	1.552	-1.050	-1.874	0.088	-1.938	468.750
-0.396	0.456	-4.431	2.059	0.852	-1.559	2.476	1.236	-0.112	3.241	1.971	0.181	5.106	5.295	-2.667	1.232	-1.433	-3.129	3.244	5.326	5.809	5.353	1.604	1.549	-1.502	-2.066	0.097	-1.760	472.656
-0.394	0.449	-4.534	2.053	0.779	-1.652	2.423	1.333	0.062	3.423	2.453	0.727	5.050	5.160	-2.644	1.226	-1.373	-3.160	3.238	5.271	5.732	5.308	1.440	1.576	-1.833	-2.144	0.154	-1.541	476.562
-0.413	0.424	-4.625	2.022	0.682	-1.738	2.339	1.415	0.229	3.515	2.813	1.186	4.957	5.011	-2.632	1.206	-1.338	-3.214	3.226	5.202	5.642	5.273	1.306	1.620	-2.037	-2.120	0.239	-1.305	480.469
-0.459	0.375	-4.716	1.964	0.562	-1.808	2.248	1.499	0.406	3.535	3.057	1.548	4.826	4.852	-2.634	1.166	-1.324	-3.285	3.204	5.120	5.542	5.241	1.208	1.673	-2.118	-2.005	0.339	-1.066	484.375
-0.537	0.295	-4.821	1.874	0.422	-1.862	2.166	1.596	0.611	3.509	3.211	1.818	4.661	4.684	-2.662	1.101	-1.332	-3.368	3.171	5.020	5.430	5.205	1.147	1.730	-2.083	-1.811	0.454	-0.822	488.281
-0.652	0.181	-4.947	1.752	0.260	-1.905	2.102	1.715	0.851	3.461	3.304	2.012	4.470	4.511	-2.724	1.009	-1.362	-3.457	3.125	4.902	5.306	5.168	1.124	1.795	-1.946	-1.549	0.584	-0.570	492.188
-0.806	0.038	-5.095	1.602	0.079	-1.948	2.053	1.850	1.119	3.402	3.360	2.147	4.262	4.334	-2.827	0.892	-1.412	-3.547	3.070	4.770	5.171	5.134	1.140	1.874	-1.719	-1.229	0.737	-0.302	496.094
-0.995	-0.126	-5.256	1.433	-0.116	-1.999	2.009	1.987	1.395	3.335	3.390	2.235	4.044	4.156	-2.968	0.760	-1.480	-3.632	3.016	4.630	5.033	5.115	1.194	1.973	-1.419	-0.861	0.914	-0.013	500.000
-1.213	-0.298	-5.417	1.258	-0.317	-2.060	1.953	2.106	1.648	3.247	3.391	2.278	3.821	3.981	-3.134	0.625	-1.561	-3.706	2.971	4.494	4.898	5.119	1.288	2.094	-1.063	-0.457	1.112	0.292	503.906
-1.444	-0.461	-5.560	1.091	-0.510	-2.132	1.867	2.187	1.849	3.122	3.352	2.276	3.596	3.813	-3.309	0.499	-1.648	-3.763	2.946	4.371	4.774	5.154	1.415	2.232	-0.669	-0.030	1.323	0.605	507.812
-1.673	-0.601	-5.673	0.944	-0.681	-2.205	1.738	2.214	1.973	2.945	3.259	2.225	3.367	3.652	-3.470	0.395	-1.731	-3.796	2.945	4.271	4.668	5.219	1.567	2.377	-0.257	0.405	1.533	0.911	511.719
-1.880	-0.708	-5.747	0.825	-0.818	-2.271	1.562	2.178	2.008	2.709	3.101	2.122	3.134	3.500	-3.598	0.319	-1.805	-3.800	2.968	4.196	4.582	5.305	1.729	2.513	0.156	0.833	1.726	1.191	515.625
-2.048	-0.778	-5.786	0.736	-0.917	-2.324	1.340	2.081	1.954	2.418	2.876	1.970	2.895	3.357	-3.681	0.270	-1.862	-3.772	3.010	4.146	4.517	5.401	1.887	2.626	0.551	1.238	1.888	1.432	519.531
-2.170	-0.816	-5.802	0.671	-0.978	-2.359	1.086	1.933	1.826	2.091	2.596	1.778	2.652	3.221	-3.713	0.245	-1.896	-3.710	3.063	4.117	4.470	5.490	2.026	2.704	0.916	1.611	2.012	1.622	523.438
-2.245	-0.833	-5.816	0.622	-1.012	-2.379	0.815	1.752	1.648	1.754	2.286	1.563	2.410	3.092	-3.696	0.237	-1.906	-3.618	3.119	4.100	4.436	5.561	2.138	2.741	1.241	1.945	2.100	1.760	527.344
-2.284	-0.843	-5.849	0.576	-1.033	-2.391	0.548	1.555	1.448	1.440	1.978	1.349	2.178	2.970	-3.642	0.237	-1.891	-3.504	3.168	4.089	4.409	5.605	2.220	2.741	1.524	2.240	2.159	1.850	531.250
-2.304	-0.863	-5.920	0.519	-1.059	-2.403	0.302	1.363	1.248	1.182	1.711	1.162	1.972	2.856	-3.563	0.236	-1.855	-3.377	3.206	4.075	4.387	5.622	2.275	2.715	1.766	2.497	2.204	1.909	535.156
-2.324	-0.905	-6.036	0.441	-1.105	-2.425	0.091	1.188	1.067	1.001	1.516	1.030	1.805	2.754	-3.477	0.229	-1.804	-3.250	3.228	4.053	4.365	5.613	2.309	2.679	1.971	2.724	2.254	1.954	539.062
-2.359	-0.976	-6.195	0.337	-1.182	-2.464	-0.082	1.034	0.910	0.909	1.415	0.973	1.689	2.668	-3.397	0.212	-1.744	-3.131	3.234	4.020	4.342	5.587	2.334	2.652	2.148	2.925	2.325	2.005	542.969
-2.418	-1.077	-6.380	0.205	-1.292	-2.523	-0.220	0.899	0.771	0.902	1.415	1.006	1.632	2.602	-3.332	0.182	-1.683	-3.026	3.224	3.974	4.316	5.553	2.357	2.648	2.305	3.107	2.427	2.079	546.875
-2.498	-1.200	-6.569	0.049	-1.434	-2.604	-0.334	0.772	0.639	0.960	1.506	1.128	1.634	2.557	-3.288	0.142	-1.623	-2.933	3.199	3.920	4.288	5.517	2.385	2.675	2.448	3.270	2.562	2.182	550.781
-2.587	-1.336	-6.734	-0.123	-1.596	-2.706	-0.439	0.640	0.497	1.057	1.663	1.325	1.687	2.536	-3.261	0.096	-1.567	-2.841	3.165	3.859	4.257	5.488	2.420	2.733	2.581	3.410	2.720	2.313	554.688
-2.667	-1.471	-6.850	-0.300	-1.764	-2.826	-0.548	0.490	0.334	1.156	1.853	1.573	1.775	2.535	-3.242	0.048	-1.510	-2.737	3.124	3.797	4.226	5.467	2.461	2.815	2.701	3.517	2.881	2.454	558.594
-2.721	-1.592	-6.900	-0.469	-1.921	-2.956	-0.669	0.317	0.146	1.224	2.035	1.834	1.880	2.551	-3.218	0.007	-1.446	-2.610	3.085	3.740	4.195	5.457	2.502	2.905	2.804	3.580	3.019	2.583	562.500
-2.731	-1.688	-6.877	-0.618	-2.053	-3.087	-0.806	0.124	-0.058	1.235	2.175	2.071	1.982	2.577	-3.171	-0.019	-1.370	-2.449	3.052	3.694	4.166	5.455	2.542	2.986	2.877	3.587	3.106	2.668	566.406
-2.688	-1.751	-6.783	-0.738	-2.149	-3.209	-0.953	-0.079	-0.265	1.171	2.246	2.247	2.063	2.608	-3.085	-0.024	-1.276	-2.254	3.031	3.662	4.140	5.460	2.579	3.039	2.913	3.526	3.115	2.685	570.312
-2.588	-1.776	-6.632	-0.821	-2.202	-3.309	-1.102	-0.277	-0.455	1.027	2.231	2.334	2.107	2.634	-2.947	-0.002	-1.163	-2.031	3.025	3.648	4.116	5.467	2.614	3.050	2.901	3.395	3.033	2.614	574.219
-2.436	-1.761	-6.444	-0.863	-2.214	-3.376	-1.245	-0.453	-0.608	0.811	2.127	2.316	2.108	2.648	-2.751	0.051	-1.031	-1.794	3.035	3.652	4.095	5.471	2.649	3.009	2.839	3.197	2.855	2.450	578.125
-2.241	-1.706	-6.241	-0.863	-2.191	-3.401	-1.374	-0.596	-0.714	0.537	1.941	2.191	2.063	2.645	-2.501	0.135	-0.886	-1.561	3.057	3.672	4.073	5.467	2.688	2.915	2.730	2.943	2.590	2.198	582.031
-2.016	-1.615	-6.047	-0.825	-2.142	-3.377	-1.488	-0.698	-0.770	0.227	1.691	1.970	1.973	2.619	-2.208	0.248	-0.734	-1.348	3.085	3.705	4.051	5.450	2.731	2.771	2.583	2.653	2.261	1.877	585.938
-1.775	-1.498	-5.876	-0.756	-2.081	-3.304	-1.587	-0.761	-0.783	-0.095	1.398	1.672	1.848	2.571	-1.890	0.385	-0.583	-1.170	3.113	3.744	4.026	5.416	2.778	2.589	2.412	2.351	1.897	1.513	589.844
-1.528	-1.364	-5.739	-0.666	-2.022	-3.189	-1.676	-0.793	-0.767	-0.409	1.089	1.323	1.697	2.501	-1.569	0.534	-0.440	-1.036	3.130	3.781	3.997	5.364	2.826	2.386	2.233	2.060	1.531	1.136	593.750
-1.286	-1.227	-5.638	-0.569	-1.976	-3.045	-1.761	-0.806	-0.740	-0.695	0.788	0.953	1.534	2.415	-1.268	0.684	-0.310	-0.944	3.132	3.811	3.963	5.293	2.867	2.181	2.064	1.801	1.193	0.771	597.656
-1.056	-1.099	-5.563	-0.477	-1.949	-2.887	-1.846	-0.815	-0.720	-0.943	0.512	0.583	1.372	2.317	-1.005	0.823	-0.196	-0.887	3.114	3.827	3.926	5.206	2.896	1.992	1.917	1.587	0.906	0.441	601.562
-0.842	-0.986	-5.498	-0.397	-1.943	-2.729	-1.934	-0.831	-0.722	-1.148	0.270	0.234	1.223	2.215	-0.795	0.942	-0.094	-0.852	3.075	3.826	3.884	5.109	2.908	1.834	1.803	1.426	0.684	0.158	605.469
-0.648	-0.894	-5.425	-0.335	-1.955	-2.585	-2.024	-0.864	-0.755	-1.309	0.062	-0.088	1.096	2.116	-0.645	1.034	-0.002	-0.819	3.019	3.808	3.838	5.007	2.901	1.716	1.723	1.314	0.530	-0.073	609.375
-0.475	-0.818	-5.325	-0.292	-1.979	-2.463	-2.109	-0.916	-0.821	-1.431	-0.121	-0.378	0.997	2.024	-0.555	1.097	0.084	-0.774	2.952	3.774	3.788	4.908	2.878	1.641	1.677	1.244	0.436	-0.254	613.281
-0.327	-0.753	-5.186	-0.266	-2.006	-2.365	-2.177	-0.984	-0.913	-1.517	-0.289	-0.641	0.926	1.942	-0.517	1.132	0.170	-0.705	2.879	3.724	3.731	4.815	2.844	1.603	1.656	1.201	0.389	-0.394	617.188
-0.209	-0.690	-5.004	-0.253	-2.032	-2.291	-2.212	-1.055	-1.017	-1.569	-0.451	-0.880	0.882	1.870	-0.522	1.144	0.254	-0.609	2.804	3.660	3.666	4.731	2.806	1.593	1.651	1.173	0.371	-0.501	621.094
-0.125	-0.623	-4.788	-0.246	-2.053	-2.237	-2.199	-1.116	-1.114	-1.585	-0.611	-1.097	0.861	1.804	-0.556	1.136	0.332	-0.493	2.730	3.583	3.590	4.654	2.766	1.597	1.651	1.148	0.368	-0.583	625.000
-0.080	-0.548	-4.555	-0.243	-2.068	-2.197	-2.124	-1.149	-1.181	-1.561	-0.759	-1.288	0.858	1.742	-0.607	1.113	0.397	-0.374	2.655	3.491	3.498	4.579	2.724	1.601	1.646	1.120	0.368	-0.645	628.906
-0.072	-0.467	-4.325	-0.241	-2.081	-2.167	-1.982	-1.142	-1.201	-1.490	-0.880	-1.443	0.867	1.677	-0.664	1.077	0.438	-0.273	2.574	3.386	3.389	4.496	2.673	1.593	1.630	1.088	0.367	-0.686	632.812
-0.099	-0.387	-4.118	-0.242	-2.098	-2.145	-1.776	-1.087	-1.161	-1.369	-0.951	-1.548	0.879	1.603	-0.721	1.028	0.448	-0.209	2.483	3.269	3.262	4.396	2.606	1.564	1.598	1.052	0.362	-0.705	636.719
-0.149	-0.317	-3.949	-0.250	-2.126	-2.130	-1.525	-0.986	-1.056	-1.195	-0.949	-1.589	0.888	1.516	-0.772	0.966	0.423	-0.193	2.377	3.144	3.117	4.272	2.516	1.510	1.550	1.017	0.354	-0.699	640.625
-0.212	-0.268	-3.825	-0.271	-2.172	-2.122	-1.253	-0.846	-0.893	-0.975	-0.855	-1.553	0.888	1.414	-0.815	0.894	0.362	-0.229	2.253	3.014	2.957	4.119	2.398	1.431	1.487	0.987	0.344	-0.667	644.531
-0.272	-0.247	-3.743	-0.310	-2.242	-2.120	-0.996	-0.683	-0.683	-0.722	-0.664	-1.433	0.873	1.296	-0.843	0.816	0.274	-0.311	2.111	2.886	2.787	3.934	2.247	1.328	1.412	0.962	0.332	-0.612	648.438
-0.320	-0.255	-3.694	-0.368	-2.339	-2.123	-0.786	-0.516	-0.449	-0.455	-0.384	-1.233	0.841	1.165	-0.851	0.737	0.171	-0.425	1.957	2.765	2.613	3.722	2.067	1.210	1.331	0.941	0.317	-0.540	652.344
-0.343	-0.291	-3.663	-0.444	-2.461	-2.128	-0.650	-0.368	-0.214	-0.200	-0.038	-0.966	0.793	1.029	-0.832	0.666	0.068	-0.554	1.798	2.657	2.444	3.491	1.863	1.082	1.251	0.921	0.294	-0.458	656.250
-0.336	-0.345	-3.636	-0.532	-2.602	-2.133	-0.606	-0.255	-0.007	0.013	0.335	-0.653	0.731	0.895	-0.778	0.611	-0.023	-0.679	1.643	2.567	2.286	3.253	1.649	0.955	1.178	0.897	0.260	-0.376	660.156
-0.295	-0.409	-3.601	-0.620	-2.751	-2.131	-0.653	-0.194	0.149	0.158	0.689	-0.327	0.662	0.773	-0.687	0.577	-0.092	-0.789	1.503	2.500	2.149	3.022	1.438	0.835	1.121	0.867	0.211	-0.300	664.062
-0.220	-0.472	-3.553	-0.699	-2.894	-2.117	-0.778	-0.189	0.236	0.213	0.978	-0.022	0.594	0.674	-0.562	0.564	-0.135	-0.877	1.384	2.457	2.041	2.814	1.246	0.731	1.086	0.831	0.145	-0.239	667.969
-0.114	-0.526	-3.490	-0.758	-3.016	-2.085	-0.952	-0.239	0.244	0.168	1.160	0.224	0.535	0.608	-0.410	0.573	-0.155	-0.941	1.292	2.439	1.968	2.642	1.088	0.649	1.077	0.792	0.064	-0.199	671.875
0.017	-0.565	-3.417	-0.790	-3.100	-2.031	-1.142	-0.335	0.172	0.022	1.207	0.378	0.494	0.584	-0.243	0.598	-0.157	-0.985	1.230	2.446	1.937	2.516	0.973	0.596	1.097	0.755	-0.029	-0.184	675.781
0.165	-0.585	-3.340	-0.793	-3.133	-1.953	-1.310	-0.463	0.030	-0.209	1.109	0.419	0.478	0.604	-0.077	0.635	-0.147	-1.013	1.198	2.478	1.949	2.444	0.908	0.577	1.144	0.727	-0.126	-0.198	679.688
0.320	-0.586	-3.268	-0.771	-3.111	-1.855	-1.428	-0.604	-0.165	-0.501	0.875	0.336	0.491	0.668	0.077	0.679	-0.130	-1.031	1.191	2.531	2.002	2.424	0.894	0.593	1.214	0.713	-0.219	-0.244	683.594
0.468	-0.567	-3.203	-0.735	-3.037	-1.744	-1.474	-0.741	-0.390	-0.820	0.531	0.134	0.530	0.767	0.208	0.729	-0.104	-1.044	1.208	2.601	2.090	2.454	0.928	0.647	1.298	0.717	-0.298	-0.319	687.500
0.595	-0.532	-3.148	-0.697	-2.925	-1.631	-1.441	-0.857	-0.619	-1.128	0.118	-0.166	0.589	0.889	0.308	0.782	-0.068	-1.052	1.245	2.679	2.201	2.524	1.002	0.733	1.387	0.740	-0.356	-0.418	691.406
0.687	-0.485	-3.104	-0.672	-2.796	-1.527	-1.330	-0.938	-0.823	-1.388	-0.313	-0.530	0.657	1.014	0.376	0.840	-0.016	-1.055	1.297	2.756	2.318	2.619	1.105	0.844	1.468	0.776	-0.386	-0.533	695.312
0.733	-0.434	-3.070	-0.672	-2.675	-1.442	-1.154	-0.974	-0.981	-1.568	-0.711	-0.916	0.720	1.124	0.412	0.905	0.058	-1.047	1.361	2.823	2.426	2.726	1.224	0.967	1.530	0.819	-0.388	-0.653	699.219
0.728	-0.383	-3.046	-0.705	-2.586	-1.382	-0.933	-0.965	-1.076	-1.648	-1.032	-1.281	0.765	1.199	0.419	0.977	0.155	-1.024	1.434	2.871	2.506	2.828	1.345	1.085	1.559	0.856	-0.367	-0.766	703.125
0.675	-0.340	-3.030	-0.771	-2.547	-1.346	-0.692	-0.913	-1.104	-1.620	-1.243	-1.587	0.782	1.228	0.405	1.057	0.275	-0.981	1.511	2.892	2.548	2.912	1.455	1.181	1.546	0.874	-0.331	-0.860	707.031
0.586	-0.307	-3.019	-0.864	-2.566	-1.332	-0.459	-0.830	-1.073	-1.494	-1.333	-1.806	0.765	1.205	0.379	1.142	0.409	-0.918	1.588	2.884	2.545	2.965	1.541	1.240	1.484	0.863	-0.293	-0.929	710.938
0.475	-0.287	-3.009	-0.969	-2.638	-1.328	-0.256	-0.732	-0.999	-1.292	-1.306	-1.924	0.716	1.133	0.354	1.227	0.547	-0.837	1.658	2.849	2.499	2.980	1.596	1.253	1.375	0.816	-0.264	-0.969	714.844
0.362	-0.280	-2.993	-1.069	-2.748	-1.322	-0.103	-0.638	-0.910	-1.048	-1.185	-1.944	0.643	1.024	0.342	1.306	0.672	-0.747	1.714	2.790	2.419	2.955	1.613	1.222	1.224	0.731	-0.254	-0.982	718.750
0.264	-0.281	-2.966	-1.148	-2.870	-1.300	-0.011	-0.567	-0.837	-0.801	-1.003	-1.881	0.562	0.899	0.356	1.374	0.773	-0.656	1.750	2.718	2.323	2.893	1.592	1.154	1.046	0.612	-0.267	-0.974	722.656
0.196	-0.284	-2.924	-1.189	-2.977	-1.251	0.017	-0.536	-0.811	-0.592	-0.802	-1.762	0.492	0.782	0.405	1.429	0.841	-0.572	1.765	2.647	2.231	2.805	1.536	1.069	0.857	0.468	-0.302	-0.954	726.562
0.166	-0.281	-2.866	-1.183	-3.046	-1.173	-0.014	-0.560	-0.860	-0.453	-0.624	-1.623	0.451	0.695	0.498	1.474	0.878	-0.497	1.762	2.590	2.165	2.706	1.457	0.987	0.673	0.310	-0.348	-0.935	730.469
0.179	-0.263	-2.795	-1.128	-3.062	-1.067	-0.094	-0.643	-0.999	-0.410	-0.501	-1.497	0.453	0.659	0.632	1.516	0.894	-0.430	1.751	2.564	2.142	2.617	1.373	0.930	0.509	0.149	-0.395	-0.930	734.375
0.235	-0.222	-2.715	-1.031	-3.025	-0.948	-0.209	-0.787	-1.234	-0.472	-0.459	-1.413	0.504	0.684	0.800	1.565	0.903	-0.362	1.745	2.579	2.174	2.556	1.304	0.916	0.375	-0.001	-0.429	-0.948	738.281
0.332	-0.153	-2.632	-0.902	-2.948	-0.831	-0.345	-0.985	-1.554	-0.635	-0.505	-1.390	0.600	0.769	0.989	1.633	0.920	-0.286	1.758	2.640	2.261	2.539	1.271	0.954	0.276	-0.132	-0.438	-0.996	742.188
0.464	-0.056	-2.549	-0.760	-2.854	-0.736	-0.489	-1.222	-1.934	-0.882	-0.633	-1.434	0.728	0.902	1.178	1.728	0.956	-0.196	1.800	2.745	2.393	2.573	1.284	1.042	0.214	-0.232	-0.418	-1.073	746.094
0.624	0.067	-2.467	-0.621	-2.772	-0.682	-0.635	-1.481	-2.341	-1.188	-0.824	-1.536	0.867	1.065	1.350	1.850	1.014	-0.090	1.875	2.884	2.555	2.655	1.350	1.169	0.185	-0.296	-0.369	-1.172	750.000
0.804	0.209	-2.386	-0.501	-2.728	-0.678	-0.776	-1.740	-2.734	-1.517	-1.048	-1.680	0.997	1.233	1.487	1.997	1.088	0.026	1.976	3.040	2.725	2.771	1.458	1.315	0.184	-0.321	-0.299	-1.281	753.906
0.995	0.359	-2.307	-0.409	-2.739	-0.725	-0.910	-1.976	-3.075	-1.837	-1.274	-1.840	1.097	1.385	1.578	2.158	1.165	0.139	2.094	3.198	2.884	2.900	1.592	1.456	0.202	-0.310	-0.222	-1.388	757.812
1.187	0.505	-2.231	-0.353	-2.808	-0.814	-1.031	-2.171	-3.332	-2.115	-1.471	-1.991	1.155	1.503	1.622	2.318	1.229	0.235	2.213	3.339	3.014	3.021	1.729	1.572	0.230	-0.269	-0.152	-1.480	761.719
1.369	0.632	-2.160	-0.333	-2.928	-0.929	-1.136	-2.308	-3.486	-2.324	-1.613	-2.107	1.166	1.577	1.624	2.461	1.268	0.300	2.317	3.448	3.105	3.112	1.846	1.644	0.257	-0.211	-0.105	-1.546	765.625
1.529	0.724	-2.101	-0.350	-3.082	-1.052	-1.215	-2.380	-3.532	-2.447	-1.686	-2.168	1.139	1.607	1.596	2.573	1.277	0.325	2.394	3.516	3.154	3.161	1.924	1.662	0.276	-0.148	-0.092	-1.581	769.531
1.653	0.767	-2.063	-0.403	-3.248	-1.164	-1.260	-2.387	-3.478	-2.477	-1.681	-2.161	1.088	1.601	1.554	2.643	1.260	0.310	2.437	3.539	3.165	3.164	1.956	1.626	0.280	-0.096	-0.119	-1.583	773.438
1.728	0.750	-2.056	-0.489	-3.406	-1.254	-1.265	-2.336	-3.344	-2.417	-1.600	-2.081	1.033	1.573	1.515	2.667	1.229	0.260	2.446	3.520	3.149	3.128	1.942	1.543	0.265	-0.069	-0.183	-1.556	777.344
1.744	0.667	-2.091	-0.610	-3.541	-1.314	-1.224	-2.239	-3.157	-2.277	-1.453	-1.930	0.994	1.538	1.495	2.649	1.203	0.187	2.426	3.465	3.118	3.065	1.891	1.426	0.230	-0.076	-0.278	-1.506	781.250
1.697	0.519	-2.172	-0.761	-3.648	-1.344	-1.140	-2.111	-2.942	-2.076	-1.255	-1.718	0.985	1.510	1.503	2.597	1.195	0.104	2.387	3.384	3.084	2.992	1.815	1.286	0.176	-0.122	-0.395	-1.443	785.156
1.593	0.315	-2.299	-0.940	-3.727	-1.350	-1.019	-1.964	-2.719	-1.834	-1.021	-1.459	1.013	1.497	1.544	2.520	1.218	0.023	2.337	3.288	3.057	2.920	1.727	1.137	0.105	-0.206	-0.525	-1.376	789.062
1.446	0.072	-2.461	-1.137	-3.785	-1.339	-0.871	-1.812	-2.504	-1.570	-0.768	-1.173	1.074	1.502	1.614	2.432	1.271	-0.048	2.286	3.186	3.042	2.857	1.639	0.988	0.023	-0.319	-0.661	-1.310	792.969
1.278	-0.190	-2.644	-1.344	-3.830	-1.321	-0.711	-1.663	-2.303	-1.304	-0.514	-0.877	1.157	1.521	1.701	2.341	1.346	-0.110	2.238	3.086	3.038	2.805	1.556	0.845	-0.064	-0.447	-0.795	-1.250	796.875
