FP1	F3	F7	FC3	C3	C5	P3	P7	PO7	PO3	O1	Oz	Pz	CPz	FP2	Fz	F4	F8	FC4	FCz	Cz	C4	C6	P4	P8	PO8	PO4	O2	time
-0.418	-0.338	-1.334	0.356	0.801	0.685	1.269	1.009	0.559	1.331	0.888	1.137	1.352	0.950	-1.573	-0.795	-1.654	-1.567	-0.689	0.056	0.571	-0.158	0.027	0.880	0.043	0.681	1.629	0.890	-199.219
-0.455	-0.328	-1.159	0.257	0.689	0.426	1.256	0.924	0.539	1.301	0.823	0.916	1.240	0.925	-1.297	-0.548	-1.348	-1.304	-0.536	0.186	0.701	-0.086	-0.062	0.787	-0.119	0.568	1.396	0.661	-195.312
-0.471	-0.305	-0.993	0.174	0.585	0.192	1.215	0.827	0.495	1.255	0.751	0.715	1.138	0.909	-1.048	-0.319	-1.065	-1.073	-0.393	0.313	0.826	-0.013	-0.139	0.709	-0.263	0.469	1.189	0.463	-191.406
-0.459	-0.263	-0.845	0.121	0.497	0.005	1.125	0.713	0.413	1.181	0.670	0.548	1.053	0.905	-0.845	-0.121	-0.827	-0.894	-0.266	0.429	0.937	0.061	-0.193	0.656	-0.373	0.394	1.027	0.314	-187.500
-0.419	-0.200	-0.718	0.104	0.433	-0.122	0.982	0.583	0.289	1.076	0.582	0.424	0.990	0.917	-0.699	0.034	-0.647	-0.776	-0.162	0.529	1.028	0.133	-0.221	0.633	-0.440	0.349	0.920	0.228	-183.594
-0.358	-0.122	-0.613	0.123	0.394	-0.186	0.792	0.444	0.136	0.943	0.493	0.347	0.953	0.942	-0.608	0.138	-0.531	-0.715	-0.087	0.605	1.096	0.197	-0.222	0.640	-0.460	0.331	0.870	0.203	-179.688
-0.290	-0.038	-0.528	0.170	0.379	-0.191	0.575	0.309	-0.024	0.795	0.414	0.312	0.944	0.977	-0.566	0.191	-0.473	-0.699	-0.043	0.653	1.137	0.249	-0.202	0.671	-0.436	0.335	0.865	0.226	-175.781
-0.229	0.038	-0.460	0.234	0.382	-0.152	0.355	0.192	-0.166	0.645	0.355	0.310	0.958	1.015	-0.557	0.197	-0.463	-0.704	-0.028	0.670	1.153	0.285	-0.170	0.715	-0.379	0.349	0.889	0.276	-171.875
-0.187	0.096	-0.405	0.300	0.396	-0.085	0.159	0.106	-0.268	0.508	0.321	0.325	0.989	1.046	-0.563	0.168	-0.482	-0.706	-0.036	0.658	1.143	0.303	-0.132	0.759	-0.302	0.363	0.918	0.330	-167.969
-0.171	0.128	-0.360	0.356	0.414	-0.006	0.004	0.056	-0.315	0.393	0.310	0.343	1.024	1.064	-0.567	0.118	-0.510	-0.685	-0.056	0.619	1.110	0.303	-0.095	0.792	-0.218	0.364	0.930	0.364	-164.062
-0.178	0.135	-0.321	0.392	0.428	0.075	-0.099	0.042	-0.307	0.304	0.317	0.350	1.051	1.061	-0.559	0.061	-0.526	-0.629	-0.079	0.560	1.058	0.290	-0.063	0.802	-0.140	0.345	0.905	0.363	-160.156
-0.198	0.122	-0.282	0.406	0.439	0.149	-0.154	0.056	-0.254	0.243	0.328	0.334	1.057	1.035	-0.531	0.014	-0.516	-0.538	-0.094	0.492	0.991	0.270	-0.037	0.782	-0.079	0.299	0.830	0.318	-156.250
-0.212	0.099	-0.238	0.400	0.446	0.217	-0.170	0.086	-0.175	0.203	0.333	0.293	1.032	0.987	-0.483	-0.012	-0.470	-0.420	-0.093	0.425	0.915	0.251	-0.014	0.730	-0.040	0.227	0.701	0.230	-152.344
-0.203	0.076	-0.185	0.381	0.453	0.278	-0.162	0.120	-0.092	0.180	0.319	0.224	0.972	0.922	-0.421	-0.013	-0.387	-0.291	-0.072	0.367	0.836	0.240	0.009	0.646	-0.028	0.130	0.522	0.105	-148.438
-0.157	0.059	-0.120	0.355	0.464	0.336	-0.140	0.146	-0.027	0.169	0.280	0.134	0.881	0.848	-0.352	0.012	-0.274	-0.172	-0.032	0.328	0.763	0.245	0.035	0.540	-0.041	0.015	0.308	-0.044	-144.531
-0.070	0.051	-0.045	0.330	0.481	0.389	-0.113	0.158	0.007	0.171	0.215	0.031	0.770	0.776	-0.285	0.053	-0.148	-0.081	0.022	0.309	0.701	0.268	0.068	0.423	-0.076	-0.110	0.078	-0.203	-140.625
0.048	0.050	0.031	0.310	0.502	0.435	-0.080	0.156	0.005	0.187	0.131	-0.075	0.654	0.715	-0.228	0.097	-0.026	-0.031	0.081	0.309	0.654	0.308	0.107	0.310	-0.125	-0.233	-0.141	-0.355	-136.719
0.178	0.050	0.099	0.294	0.525	0.469	-0.037	0.142	-0.027	0.221	0.038	-0.174	0.549	0.672	-0.186	0.131	0.071	-0.031	0.136	0.321	0.622	0.361	0.152	0.216	-0.181	-0.342	-0.324	-0.485	-132.812
0.290	0.043	0.149	0.281	0.540	0.484	0.020	0.123	-0.080	0.277	-0.051	-0.256	0.471	0.650	-0.162	0.140	0.127	-0.079	0.177	0.337	0.603	0.419	0.196	0.155	-0.231	-0.424	-0.447	-0.578	-128.906
0.358	0.023	0.174	0.264	0.539	0.472	0.094	0.105	-0.139	0.350	-0.125	-0.317	0.428	0.644	-0.154	0.116	0.135	-0.165	0.201	0.347	0.592	0.472	0.235	0.133	-0.265	-0.467	-0.496	-0.623	-125.000
0.362	-0.014	0.174	0.239	0.515	0.431	0.177	0.091	-0.191	0.431	-0.179	-0.353	0.419	0.647	-0.161	0.059	0.094	-0.272	0.205	0.341	0.579	0.511	0.263	0.153	-0.274	-0.463	-0.465	-0.615	-121.094
0.295	-0.067	0.151	0.200	0.461	0.359	0.256	0.081	-0.229	0.502	-0.211	-0.365	0.432	0.647	-0.177	-0.022	0.018	-0.377	0.193	0.316	0.557	0.530	0.279	0.207	-0.249	-0.410	-0.360	-0.551	-117.188
0.165	-0.132	0.117	0.145	0.375	0.261	0.308	0.068	-0.251	0.539	-0.228	-0.358	0.451	0.628	-0.195	-0.113	-0.073	-0.455	0.174	0.270	0.516	0.527	0.283	0.281	-0.186	-0.309	-0.198	-0.437	-113.281
-0.002	-0.201	0.083	0.077	0.259	0.144	0.313	0.044	-0.259	0.519	-0.241	-0.335	0.452	0.577	-0.206	-0.195	-0.154	-0.483	0.156	0.208	0.449	0.501	0.281	0.358	-0.087	-0.170	-0.006	-0.285	-109.375
-0.175	-0.266	0.059	0.000	0.117	0.019	0.250	-0.000	-0.259	0.424	-0.259	-0.304	0.415	0.483	-0.204	-0.249	-0.201	-0.443	0.149	0.135	0.353	0.457	0.277	0.417	0.042	-0.008	0.188	-0.113	-105.469
-0.319	-0.317	0.050	-0.079	-0.044	-0.102	0.114	-0.069	-0.259	0.247	-0.291	-0.267	0.324	0.342	-0.181	-0.263	-0.197	-0.331	0.159	0.058	0.227	0.402	0.278	0.444	0.189	0.161	0.353	0.059	-101.562
-0.404	-0.346	0.059	-0.153	-0.217	-0.206	-0.090	-0.163	-0.265	-0.003	-0.340	-0.226	0.176	0.159	-0.132	-0.232	-0.134	-0.152	0.188	-0.014	0.076	0.342	0.287	0.427	0.340	0.317	0.464	0.212	-97.656
-0.413	-0.349	0.081	-0.214	-0.392	-0.284	-0.343	-0.276	-0.281	-0.304	-0.403	-0.182	-0.023	-0.056	-0.055	-0.161	-0.018	0.074	0.233	-0.078	-0.090	0.284	0.304	0.363	0.477	0.443	0.506	0.331	-93.750
-0.340	-0.324	0.109	-0.256	-0.559	-0.329	-0.614	-0.401	-0.308	-0.623	-0.473	-0.133	-0.253	-0.284	0.049	-0.062	0.137	0.320	0.288	-0.128	-0.259	0.233	0.325	0.257	0.585	0.527	0.472	0.404	-89.844
-0.197	-0.270	0.140	-0.277	-0.708	-0.338	-0.870	-0.523	-0.344	-0.928	-0.542	-0.080	-0.491	-0.504	0.176	0.049	0.308	0.555	0.345	-0.162	-0.417	0.191	0.343	0.119	0.650	0.558	0.364	0.428	-85.938
-0.003	-0.190	0.172	-0.274	-0.827	-0.311	-1.081	-0.631	-0.388	-1.185	-0.601	-0.029	-0.714	-0.697	0.321	0.159	0.474	0.751	0.396	-0.176	-0.552	0.159	0.354	-0.037	0.663	0.532	0.195	0.401	-82.031
0.216	-0.088	0.209	-0.248	-0.907	-0.253	-1.225	-0.716	-0.434	-1.374	-0.648	0.012	-0.900	-0.848	0.477	0.256	0.616	0.888	0.438	-0.169	-0.654	0.132	0.354	-0.197	0.621	0.450	-0.021	0.329	-78.125
0.436	0.034	0.258	-0.202	-0.942	-0.171	-1.294	-0.771	-0.478	-1.484	-0.681	0.032	-1.039	-0.948	0.636	0.335	0.726	0.960	0.468	-0.143	-0.717	0.109	0.343	-0.349	0.527	0.316	-0.264	0.216	-74.219
0.636	0.168	0.323	-0.141	-0.929	-0.077	-1.291	-0.793	-0.515	-1.519	-0.705	0.019	-1.128	-0.999	0.786	0.395	0.801	0.972	0.487	-0.100	-0.743	0.086	0.323	-0.486	0.389	0.142	-0.517	0.069	-70.312
0.801	0.307	0.407	-0.072	-0.868	0.019	-1.228	-0.787	-0.539	-1.490	-0.723	-0.034	-1.172	-1.009	0.918	0.441	0.849	0.943	0.499	-0.047	-0.738	0.059	0.297	-0.604	0.220	-0.061	-0.762	-0.103	-66.406
0.920	0.441	0.504	-0.003	-0.766	0.102	-1.125	-0.755	-0.543	-1.413	-0.736	-0.129	-1.183	-0.989	1.020	0.475	0.881	0.895	0.504	0.006	-0.713	0.026	0.268	-0.705	0.040	-0.275	-0.985	-0.290	-62.500
0.987	0.556	0.605	0.057	-0.632	0.161	-1.000	-0.702	-0.520	-1.304	-0.743	-0.259	-1.171	-0.955	1.083	0.499	0.906	0.851	0.503	0.049	-0.682	-0.015	0.236	-0.794	-0.134	-0.482	-1.171	-0.477	-58.594
0.998	0.640	0.692	0.101	-0.479	0.188	-0.868	-0.631	-0.465	-1.175	-0.738	-0.408	-1.148	-0.918	1.101	0.512	0.928	0.825	0.492	0.068	-0.658	-0.065	0.201	-0.873	-0.281	-0.662	-1.310	-0.646	-54.688
0.950	0.680	0.750	0.121	-0.321	0.179	-0.736	-0.544	-0.373	-1.032	-0.712	-0.555	-1.121	-0.889	1.068	0.507	0.943	0.821	0.465	0.056	-0.652	-0.124	0.158	-0.943	-0.385	-0.799	-1.389	-0.776	-50.781
0.843	0.667	0.765	0.112	-0.175	0.133	-0.604	-0.442	-0.243	-0.877	-0.656	-0.676	-1.091	-0.871	0.986	0.477	0.941	0.828	0.414	0.004	-0.670	-0.193	0.104	-1.002	-0.436	-0.879	-1.404	-0.850	-46.875
0.681	0.596	0.728	0.069	-0.054	0.055	-0.466	-0.325	-0.078	-0.710	-0.563	-0.748	-1.060	-0.868	0.862	0.415	0.907	0.829	0.331	-0.087	-0.714	-0.270	0.038	-1.045	-0.428	-0.896	-1.353	-0.854	-42.969
0.475	0.473	0.645	-0.006	0.029	-0.048	-0.315	-0.197	0.112	-0.532	-0.432	-0.756	-1.024	-0.877	0.709	0.317	0.830	0.803	0.216	-0.213	-0.780	-0.353	-0.040	-1.065	-0.364	-0.848	-1.238	-0.782	-39.062
0.243	0.311	0.524	-0.110	0.063	-0.164	-0.147	-0.065	0.309	-0.348	-0.268	-0.695	-0.983	-0.895	0.544	0.186	0.703	0.737	0.070	-0.367	-0.864	-0.440	-0.128	-1.055	-0.254	-0.743	-1.072	-0.640	-35.156
0.006	0.130	0.383	-0.235	0.045	-0.282	0.035	0.061	0.494	-0.165	-0.082	-0.568	-0.937	-0.921	0.384	0.031	0.532	0.626	-0.098	-0.535	-0.958	-0.529	-0.220	-1.013	-0.111	-0.591	-0.869	-0.440	-31.250
-0.209	-0.046	0.239	-0.370	-0.024	-0.388	0.226	0.169	0.645	0.003	0.110	-0.389	-0.886	-0.951	0.248	-0.135	0.332	0.479	-0.275	-0.703	-1.054	-0.620	-0.311	-0.939	0.046	-0.408	-0.650	-0.204	-27.344
-0.377	-0.193	0.107	-0.499	-0.133	-0.470	0.410	0.247	0.745	0.145	0.293	-0.178	-0.834	-0.982	0.150	-0.294	0.124	0.313	-0.447	-0.860	-1.147	-0.710	-0.398	-0.838	0.198	-0.212	-0.437	0.040	-23.438
-0.479	-0.291	-0.003	-0.610	-0.268	-0.521	0.571	0.288	0.784	0.248	0.449	0.041	-0.788	-1.015	0.098	-0.431	-0.066	0.155	-0.601	-0.994	-1.233	-0.802	-0.478	-0.723	0.329	-0.022	-0.251	0.268	-19.531
-0.507	-0.328	-0.085	-0.689	-0.409	-0.535	0.691	0.288	0.763	0.305	0.566	0.244	-0.754	-1.050	0.096	-0.534	-0.216	0.029	-0.728	-1.101	-1.310	-0.895	-0.550	-0.609	0.427	0.146	-0.108	0.456	-15.625
-0.458	-0.303	-0.135	-0.729	-0.538	-0.512	0.753	0.250	0.690	0.310	0.635	0.410	-0.739	-1.088	0.140	-0.595	-0.312	-0.046	-0.824	-1.179	-1.378	-0.989	-0.614	-0.512	0.486	0.281	-0.019	0.591	-11.719
-0.346	-0.224	-0.154	-0.727	-0.637	-0.456	0.750	0.180	0.582	0.266	0.654	0.528	-0.749	-1.132	0.222	-0.618	-0.350	-0.060	-0.890	-1.232	-1.439	-1.085	-0.669	-0.446	0.507	0.376	0.014	0.670	-7.812
-0.187	-0.106	-0.142	-0.686	-0.698	-0.377	0.681	0.091	0.462	0.178	0.627	0.592	-0.790	-1.186	0.329	-0.608	-0.335	-0.015	-0.931	-1.269	-1.495	-1.181	-0.715	-0.421	0.497	0.429	-0.004	0.696	-3.906
-0.004	0.030	-0.103	-0.617	-0.719	-0.283	0.554	-0.003	0.352	0.055	0.565	0.606	-0.861	-1.253	0.445	-0.579	-0.283	0.078	-0.956	-1.296	-1.549	-1.277	-0.753	-0.442	0.468	0.445	-0.064	0.685	0.000
0.179	0.163	-0.039	-0.531	-0.704	-0.185	0.386	-0.088	0.273	-0.088	0.482	0.580	-0.961	-1.332	0.553	-0.543	-0.212	0.200	-0.973	-1.322	-1.601	-1.371	-0.783	-0.506	0.434	0.433	-0.152	0.653	3.906
0.346	0.277	0.044	-0.443	-0.662	-0.090	0.202	-0.151	0.240	-0.239	0.392	0.529	-1.084	-1.423	0.638	-0.510	-0.143	0.326	-0.990	-1.351	-1.649	-1.461	-0.809	-0.604	0.405	0.402	-0.252	0.618	7.812
0.485	0.361	0.139	-0.363	-0.607	-0.005	0.026	-0.181	0.260	-0.384	0.313	0.469	-1.218	-1.519	0.688	-0.485	-0.092	0.430	-1.011	-1.382	-1.692	-1.544	-0.835	-0.724	0.391	0.360	-0.352	0.590	11.719
0.594	0.411	0.241	-0.300	-0.547	0.068	-0.119	-0.172	0.332	-0.510	0.254	0.411	-1.350	-1.611	0.697	-0.467	-0.068	0.493	-1.037	-1.411	-1.724	-1.618	-0.866	-0.851	0.390	0.310	-0.445	0.573	15.625
0.678	0.435	0.344	-0.254	-0.490	0.129	-0.213	-0.125	0.447	-0.612	0.219	0.361	-1.468	-1.688	0.670	-0.450	-0.071	0.504	-1.063	-1.432	-1.739	-1.675	-0.903	-0.972	0.392	0.249	-0.530	0.558	19.531
0.746	0.444	0.444	-0.224	-0.439	0.181	-0.248	-0.046	0.586	-0.685	0.205	0.315	-1.560	-1.737	0.617	-0.422	-0.090	0.465	-1.079	-1.435	-1.733	-1.709	-0.945	-1.075	0.382	0.169	-0.612	0.529	23.438
0.811	0.454	0.541	-0.198	-0.392	0.228	-0.223	0.051	0.726	-0.732	0.201	0.260	-1.616	-1.749	0.559	-0.372	-0.108	0.392	-1.072	-1.413	-1.701	-1.713	-0.988	-1.155	0.341	0.057	-0.701	0.464	27.344
0.882	0.480	0.634	-0.167	-0.348	0.276	-0.148	0.149	0.838	-0.761	0.189	0.177	-1.634	-1.720	0.517	-0.289	-0.104	0.313	-1.030	-1.359	-1.642	-1.684	-1.025	-1.209	0.252	-0.097	-0.806	0.340	31.250
0.964	0.536	0.721	-0.119	-0.306	0.327	-0.036	0.229	0.898	-0.778	0.155	0.049	-1.613	-1.649	0.509	-0.169	-0.061	0.256	-0.943	-1.271	-1.560	-1.618	-1.047	-1.236	0.107	-0.293	-0.932	0.150	35.156
1.054	0.626	0.799	-0.050	-0.267	0.384	0.095	0.276	0.886	-0.787	0.086	-0.136	-1.558	-1.545	0.542	-0.017	0.032	0.247	-0.807	-1.154	-1.461	-1.519	-1.048	-1.237	-0.087	-0.522	-1.073	-0.100	39.062
1.142	0.745	0.860	0.037	-0.237	0.443	0.231	0.279	0.794	-0.785	-0.021	-0.380	-1.476	-1.420	0.610	0.152	0.173	0.298	-0.630	-1.019	-1.357	-1.398	-1.025	-1.210	-0.311	-0.753	-1.209	-0.383	42.969
1.206	0.877	0.893	0.129	-0.225	0.497	0.364	0.241	0.631	-0.758	-0.156	-0.671	-1.375	-1.292	0.689	0.317	0.345	0.404	-0.429	-0.884	-1.263	-1.268	-0.980	-1.154	-0.528	-0.945	-1.308	-0.650	46.875
1.219	0.996	0.882	0.206	-0.238	0.535	0.496	0.178	0.427	-0.682	-0.299	-0.986	-1.261	-1.178	0.741	0.448	0.518	0.540	-0.231	-0.773	-1.197	-1.152	-0.925	-1.063	-0.693	-1.043	-1.327	-0.840	50.781
1.146	1.069	0.809	0.240	-0.287	0.544	0.639	0.121	0.229	-0.524	-0.421	-1.294	-1.141	-1.096	0.716	0.513	0.652	0.662	-0.071	-0.713	-1.178	-1.072	-0.878	-0.931	-0.760	-0.990	-1.220	-0.886	54.688
0.950	1.062	0.657	0.205	-0.374	0.513	0.815	0.115	0.104	-0.248	-0.485	-1.562	-1.019	-1.059	0.564	0.482	0.702	0.715	0.013	-0.727	-1.221	-1.050	-0.859	-0.751	-0.686	-0.741	-0.948	-0.732	58.594
0.595	0.944	0.411	0.080	-0.500	0.436	1.051	0.212	0.131	0.182	-0.459	-1.764	-0.896	-1.074	0.240	0.332	0.624	0.643	-0.011	-0.836	-1.336	-1.104	-0.891	-0.521	-0.446	-0.265	-0.484	-0.336	62.500
0.051	0.694	0.061	-0.146	-0.658	0.311	1.373	0.469	0.388	0.789	-0.316	-1.885	-0.776	-1.140	-0.285	0.050	0.384	0.399	-0.164	-1.047	-1.525	-1.244	-0.990	-0.239	-0.034	0.439	0.176	0.310	66.406
-0.701	0.303	-0.392	-0.471	-0.838	0.146	1.805	0.936	0.947	1.580	-0.039	-1.921	-0.658	-1.252	-1.020	-0.366	-0.034	-0.047	-0.455	-1.363	-1.783	-1.469	-1.165	0.088	0.533	1.345	1.014	1.186	70.312
-1.662	-0.220	-0.934	-0.882	-1.025	-0.047	2.359	1.648	1.856	2.542	0.375	-1.884	-0.546	-1.398	-1.955	-0.903	-0.626	-0.694	-0.873	-1.774	-2.102	-1.771	-1.413	0.452	1.218	2.406	1.989	2.245	74.219
-2.811	-0.853	-1.539	-1.356	-1.209	-0.250	3.034	2.614	3.134	3.641	0.917	-1.795	-0.440	-1.567	-3.060	-1.543	-1.368	-1.518	-1.399	-2.266	-2.469	-2.134	-1.723	0.837	1.975	3.554	3.041	3.413	78.125
-4.105	-1.562	-2.168	-1.863	-1.379	-0.443	3.815	3.819	4.760	4.820	1.564	-1.678	-0.344	-1.745	-4.290	-2.258	-2.219	-2.464	-1.999	-2.821	-2.873	-2.539	-2.073	1.228	2.752	4.719	4.102	4.607	82.031
-5.483	-2.307	-2.780	-2.373	-1.529	-0.605	4.669	5.213	6.671	6.013	2.281	-1.560	-0.261	-1.924	-5.586	-3.018	-3.123	-3.460	-2.635	-3.421	-3.301	-2.961	-2.439	1.606	3.502	5.831	5.102	5.738	85.938
-6.872	-3.046	-3.333	-2.860	-1.655	-0.721	5.556	6.721	8.766	7.144	3.025	-1.463	-0.191	-2.095	-6.881	-3.787	-4.020	-4.425	-3.266	-4.041	-3.740	-3.375	-2.791	1.953	4.186	6.830	5.977	6.726	89.844
-8.194	-3.738	-3.796	-3.299	-1.759	-0.782	6.426	8.248	10.913	8.144	3.745	-1.408	-0.133	-2.252	-8.106	-4.530	-4.850	-5.282	-3.850	-4.656	-4.175	-3.755	-3.102	2.255	4.776	7.670	6.679	7.503	93.750
-9.378	-4.351	-4.151	-3.674	-1.844	-0.785	7.230	9.694	12.966	8.957	4.393	-1.406	-0.081	-2.388	-9.192	-5.210	-5.561	-5.973	-4.350	-5.235	-4.587	-4.074	-3.349	2.501	5.255	8.324	7.177	8.023	97.656
-10.364	-4.858	-4.395	-3.975	-1.913	-0.739	7.924	10.962	14.787	9.548	4.929	-1.457	-0.029	-2.495	-10.081	-5.789	-6.115	-6.465	-4.735	-5.744	-4.952	-4.308	-3.516	2.684	5.612	8.778	7.462	8.265	101.562
-11.110	-5.241	-4.536	-4.198	-1.970	-0.658	8.474	11.978	16.262	9.909	5.326	-1.552	0.032	-2.566	-10.734	-6.238	-6.493	-6.757	-4.985	-6.150	-5.247	-4.442	-3.596	2.800	5.844	9.033	7.545	8.236	105.469
-11.593	-5.491	-4.592	-4.343	-2.018	-0.564	8.857	12.693	17.317	10.055	5.581	-1.666	0.107	-2.595	-11.130	-6.532	-6.693	-6.869	-5.095	-6.428	-5.453	-4.471	-3.597	2.851	5.952	9.101	7.450	7.968	109.375
-11.812	-5.609	-4.581	-4.413	-2.059	-0.478	9.067	13.093	17.924	10.023	5.709	-1.767	0.197	-2.583	-11.272	-6.665	-6.730	-6.841	-5.074	-6.564	-5.560	-4.404	-3.535	2.838	5.941	9.003	7.212	7.514	113.281
-11.782	-5.603	-4.519	-4.415	-2.095	-0.420	9.110	13.192	18.104	9.861	5.747	-1.812	0.300	-2.533	-11.188	-6.643	-6.632	-6.715	-4.943	-6.558	-5.568	-4.261	-3.433	2.762	5.820	8.765	6.873	6.946	117.188
-11.531	-5.489	-4.418	-4.358	-2.127	-0.405	9.001	13.030	17.916	9.621	5.743	-1.761	0.405	-2.457	-10.922	-6.490	-6.436	-6.532	-4.734	-6.426	-5.489	-4.074	-3.320	2.627	5.603	8.420	6.473	6.340	121.094
-11.103	-5.291	-4.285	-4.255	-2.154	-0.440	8.764	12.663	17.445	9.349	5.748	-1.576	0.499	-2.370	-10.528	-6.242	-6.178	-6.321	-4.486	-6.199	-5.348	-3.879	-3.223	2.436	5.306	8.001	6.050	5.773	125.000
-10.548	-5.036	-4.126	-4.120	-2.178	-0.525	8.428	12.156	16.788	9.082	5.809	-1.235	0.564	-2.290	-10.062	-5.941	-5.897	-6.105	-4.234	-5.912	-5.173	-3.710	-3.164	2.192	4.948	7.543	5.636	5.315	128.906
-9.920	-4.757	-3.949	-3.970	-2.197	-0.651	8.022	11.571	16.040	8.846	5.957	-0.730	0.585	-2.233	-9.576	-5.630	-5.625	-5.893	-4.012	-5.604	-4.993	-3.593	-3.155	1.904	4.551	7.082	5.254	5.016	132.812
-9.275	-4.486	-3.766	-3.821	-2.210	-0.807	7.575	10.967	15.283	8.652	6.211	-0.072	0.550	-2.213	-9.111	-5.345	-5.386	-5.693	-3.840	-5.309	-4.834	-3.542	-3.200	1.579	4.140	6.651	4.920	4.909	136.719
-8.663	-4.251	-3.592	-3.688	-2.216	-0.978	7.114	10.386	14.581	8.502	6.567	0.714	0.452	-2.238	-8.697	-5.112	-5.198	-5.505	-3.729	-5.051	-4.712	-3.559	-3.294	1.230	3.742	6.281	4.643	5.004	140.625
-8.126	-4.073	-3.446	-3.583	-2.211	-1.149	6.663	9.863	13.974	8.393	7.011	1.587	0.290	-2.310	-8.351	-4.944	-5.068	-5.335	-3.676	-4.844	-4.636	-3.633	-3.425	0.871	3.384	5.995	4.426	5.288	144.531
-7.694	-3.963	-3.345	-3.512	-2.195	-1.310	6.243	9.418	13.484	8.317	7.514	2.504	0.071	-2.427	-8.083	-4.841	-4.995	-5.187	-3.671	-4.691	-4.607	-3.747	-3.576	0.519	3.088	5.811	4.268	5.734	148.438
-7.384	-3.920	-3.301	-3.475	-2.167	-1.450	5.871	9.060	13.114	8.268	8.047	3.419	-0.195	-2.579	-7.892	-4.795	-4.975	-5.071	-3.700	-4.588	-4.620	-3.881	-3.733	0.188	2.876	5.738	4.166	6.304	152.344
-7.200	-3.937	-3.315	-3.468	-2.130	-1.563	5.561	8.792	12.857	8.243	8.578	4.295	-0.493	-2.756	-7.777	-4.797	-5.001	-4.996	-3.748	-4.528	-4.667	-4.015	-3.882	-0.105	2.758	5.774	4.117	6.954	156.250
-7.136	-3.999	-3.381	-3.483	-2.087	-1.645	5.321	8.610	12.700	8.245	9.083	5.104	-0.801	-2.943	-7.731	-4.834	-5.062	-4.972	-3.806	-4.504	-4.740	-4.136	-4.016	-0.347	2.736	5.910	4.116	7.643	160.156
-7.179	-4.091	-3.486	-3.513	-2.043	-1.694	5.159	8.508	12.624	8.280	9.543	5.827	-1.099	-3.126	-7.749	-4.900	-5.153	-5.006	-3.866	-4.510	-4.829	-4.237	-4.131	-0.528	2.800	6.130	4.160	8.333	164.062
-7.313	-4.201	-3.613	-3.550	-2.002	-1.711	5.077	8.477	12.612	8.358	9.949	6.459	-1.364	-3.289	-7.825	-4.995	-5.267	-5.097	-3.930	-4.546	-4.928	-4.315	-4.225	-0.638	2.932	6.412	4.250	8.996	167.969
-7.520	-4.320	-3.747	-3.589	-1.965	-1.698	5.074	8.508	12.648	8.491	10.298	7.000	-1.572	-3.419	-7.954	-5.119	-5.401	-5.244	-4.001	-4.612	-5.030	-4.371	-4.301	-0.673	3.110	6.735	4.384	9.614	171.875
-7.782	-4.444	-3.877	-3.629	-1.930	-1.659	5.148	8.591	12.715	8.687	10.590	7.453	-1.704	-3.504	-8.132	-5.278	-5.551	-5.438	-4.081	-4.711	-5.126	-4.407	-4.358	-0.627	3.309	7.075	4.565	10.173	175.781
-8.082	-4.576	-3.999	-3.670	-1.895	-1.601	5.299	8.714	12.800	8.952	10.831	7.823	-1.742	-3.533	-8.354	-5.475	-5.718	-5.670	-4.173	-4.844	-5.208	-4.424	-4.395	-0.501	3.509	7.415	4.793	10.666	179.688
-8.405	-4.720	-4.115	-3.717	-1.851	-1.530	5.521	8.868	12.891	9.282	11.026	8.116	-1.676	-3.498	-8.613	-5.713	-5.904	-5.928	-4.279	-5.010	-5.269	-4.420	-4.411	-0.294	3.696	7.741	5.072	11.091	183.594
-8.741	-4.884	-4.234	-3.774	-1.795	-1.453	5.812	9.044	12.978	9.667	11.183	8.335	-1.499	-3.398	-8.905	-5.991	-6.114	-6.204	-4.398	-5.207	-5.300	-4.396	-4.399	-0.009	3.867	8.048	5.401	11.448	187.500
-9.080	-5.071	-4.365	-3.846	-1.720	-1.374	6.165	9.234	13.056	10.089	11.307	8.482	-1.213	-3.232	-9.223	-6.307	-6.355	-6.491	-4.527	-5.430	-5.298	-4.350	-4.359	0.346	4.025	8.333	5.782	11.739	191.406
-9.417	-5.282	-4.510	-3.932	-1.623	-1.295	6.571	9.431	13.121	10.523	11.399	8.561	-0.827	-3.006	-9.561	-6.655	-6.633	-6.785	-4.668	-5.670	-5.260	-4.284	-4.291	0.761	4.182	8.600	6.210	11.969	195.312
-9.745	-5.509	-4.669	-4.026	-1.503	-1.214	7.012	9.626	13.169	10.942	11.462	8.571	-0.358	-2.730	-9.910	-7.024	-6.951	-7.081	-4.820	-5.920	-5.190	-4.203	-4.197	1.223	4.348	8.850	6.677	12.139	199.219
-10.057	-5.739	-4.826	-4.120	-1.360	-1.123	7.469	9.812	13.196	11.317	11.490	8.514	0.173	-2.415	-10.260	-7.403	-7.307	-7.378	-4.981	-6.167	-5.091	-4.113	-4.084	1.714	4.531	9.082	7.167	12.245	203.125
-10.341	-5.949	-4.961	-4.196	-1.195	-1.015	7.917	9.979	13.196	11.621	11.476	8.387	0.737	-2.076	-10.592	-7.773	-7.688	-7.671	-5.151	-6.397	-4.968	-4.017	-3.958	2.210	4.732	9.289	7.654	12.283	207.031
-10.583	-6.113	-5.050	-4.237	-1.010	-0.883	8.328	10.114	13.157	11.831	11.407	8.187	1.301	-1.728	-10.889	-8.112	-8.071	-7.949	-5.320	-6.593	-4.829	-3.922	-3.826	2.686	4.942	9.458	8.107	12.240	210.938
-10.763	-6.205	-5.067	-4.226	-0.808	-0.721	8.678	10.207	13.072	11.932	11.271	7.908	1.833	-1.382	-11.126	-8.397	-8.424	-8.201	-5.478	-6.737	-4.678	-3.828	-3.692	3.117	5.143	9.573	8.488	12.104	214.844
-10.863	-6.205	-4.998	-4.150	-0.595	-0.531	8.946	10.246	12.932	11.913	11.051	7.545	2.303	-1.053	-11.282	-8.604	-8.714	-8.408	-5.606	-6.813	-4.518	-3.731	-3.555	3.476	5.315	9.617	8.759	11.862	218.750
-10.867	-6.103	-4.838	-4.004	-0.378	-0.317	9.118	10.226	12.733	11.774	10.736	7.096	2.685	-0.748	-11.339	-8.712	-8.906	-8.552	-5.686	-6.807	-4.347	-3.624	-3.411	3.743	5.437	9.575	8.889	11.505	222.656
-10.766	-5.899	-4.599	-3.788	-0.163	-0.092	9.187	10.142	12.478	11.519	10.320	6.561	2.963	-0.474	-11.288	-8.707	-8.978	-8.613	-5.697	-6.711	-4.165	-3.496	-3.255	3.905	5.496	9.441	8.857	11.032	226.562
-10.561	-5.609	-4.307	-3.514	0.043	0.132	9.153	9.998	12.176	11.161	9.805	5.947	3.130	-0.232	-11.131	-8.585	-8.919	-8.578	-5.624	-6.524	-3.967	-3.336	-3.079	3.959	5.488	9.222	8.660	10.454	230.469
-10.270	-5.259	-4.000	-3.195	0.237	0.338	9.026	9.802	11.839	10.718	9.203	5.268	3.191	-0.023	-10.881	-8.353	-8.738	-8.444	-5.460	-6.253	-3.750	-3.134	-2.877	3.916	5.425	8.935	8.313	9.791	234.375
-9.921	-4.880	-3.716	-2.854	0.419	0.515	8.820	9.569	11.487	10.211	8.538	4.547	3.162	0.160	-10.563	-8.031	-8.458	-8.224	-5.210	-5.912	-3.511	-2.885	-2.648	3.799	5.326	8.611	7.850	9.076	238.281
-9.552	-4.507	-3.494	-2.509	0.593	0.655	8.560	9.318	11.140	9.668	7.842	3.814	3.066	0.323	-10.213	-7.647	-8.120	-7.945	-4.889	-5.525	-3.250	-2.593	-2.396	3.639	5.221	8.286	7.321	8.349	242.188
-9.205	-4.169	-3.362	-2.181	0.765	0.757	8.273	9.071	10.819	9.118	7.155	3.105	2.937	0.477	-9.867	-7.236	-7.767	-7.646	-4.523	-5.115	-2.972	-2.266	-2.133	3.476	5.139	7.999	6.784	7.654	246.094
-8.919	-3.888	-3.333	-1.884	0.940	0.823	7.986	8.853	10.545	8.595	6.515	2.454	2.806	0.632	-9.565	-6.833	-7.445	-7.368	-4.143	-4.708	-2.681	-1.919	-1.873	3.346	5.106	7.783	6.295	7.033	250.000
-8.724	-3.674	-3.409	-1.627	1.120	0.861	7.725	8.683	10.333	8.127	5.962	1.895	2.706	0.800	-9.341	-6.470	-7.187	-7.149	-3.779	-4.325	-2.384	-1.572	-1.630	3.279	5.136	7.659	5.904	6.523	253.906
-8.636	-3.527	-3.577	-1.413	1.303	0.878	7.508	8.575	10.191	7.745	5.526	1.454	2.663	0.991	-9.220	-6.168	-7.016	-7.019	-3.454	-3.981	-2.087	-1.241	-1.421	3.297	5.231	7.634	5.646	6.146	257.812
-8.654	-3.440	-3.815	-1.243	1.486	0.877	7.349	8.538	10.124	7.473	5.228	1.146	2.697	1.211	-9.219	-5.939	-6.937	-6.989	-3.183	-3.681	-1.794	-0.940	-1.256	3.405	5.379	7.701	5.537	5.914	261.719
-8.767	-3.398	-4.098	-1.113	1.659	0.858	7.257	8.571	10.127	7.327	5.077	0.977	2.818	1.466	-9.339	-5.782	-6.939	-7.057	-2.971	-3.423	-1.507	-0.678	-1.144	3.598	5.555	7.839	5.577	5.823	265.625
-8.957	-3.389	-4.398	-1.015	1.812	0.819	7.236	8.668	10.192	7.317	5.073	0.940	3.030	1.758	-9.570	-5.687	-7.003	-7.204	-2.810	-3.200	-1.225	-0.457	-1.085	3.857	5.731	8.021	5.748	5.858	269.531
-9.205	-3.401	-4.695	-0.945	1.935	0.755	7.291	8.821	10.307	7.442	5.203	1.020	3.328	2.085	-9.891	-5.639	-7.100	-7.405	-2.687	-3.000	-0.945	-0.271	-1.076	4.160	5.876	8.215	6.023	5.992	273.438
-9.492	-3.424	-4.976	-0.895	2.022	0.665	7.423	9.015	10.457	7.694	5.446	1.195	3.705	2.446	-10.275	-5.619	-7.206	-7.631	-2.583	-2.810	-0.666	-0.113	-1.109	4.483	5.964	8.395	6.371	6.196	277.344
-9.804	-3.455	-5.237	-0.862	2.069	0.547	7.632	9.238	10.625	8.055	5.777	1.440	4.151	2.836	-10.690	-5.609	-7.299	-7.858	-2.483	-2.619	-0.385	0.028	-1.172	4.805	5.981	8.542	6.758	6.440	281.250
-10.131	-3.491	-5.483	-0.840	2.079	0.408	7.918	9.475	10.793	8.502	6.166	1.731	4.652	3.249	-11.109	-5.596	-7.368	-8.071	-2.376	-2.423	-0.100	0.161	-1.253	5.110	5.923	8.647	7.159	6.694	285.156
-10.461	-3.531	-5.724	-0.824	2.059	0.256	8.273	9.715	10.945	9.006	6.581	2.044	5.192	3.679	-11.510	-5.571	-7.412	-8.263	-2.256	-2.217	0.188	0.292	-1.338	5.390	5.800	8.712	7.554	6.938	289.062
-10.783	-3.574	-5.969	-0.809	2.021	0.102	8.683	9.945	11.067	9.535	6.993	2.360	5.756	4.117	-11.879	-5.529	-7.434	-8.436	-2.123	-2.004	0.477	0.425	-1.414	5.643	5.633	8.745	7.927	7.154	292.969
-11.084	-3.614	-6.222	-0.788	1.979	-0.044	9.128	10.154	11.146	10.055	7.374	2.659	6.323	4.554	-12.207	-5.469	-7.444	-8.597	-1.982	-1.788	0.764	0.561	-1.471	5.868	5.447	8.760	8.269	7.333	296.875
-11.352	-3.645	-6.475	-0.757	1.946	-0.173	9.581	10.328	11.174	10.533	7.699	2.927	6.870	4.976	-12.494	-5.393	-7.448	-8.748	-1.839	-1.574	1.042	0.699	-1.502	6.067	5.271	8.771	8.574	7.472	300.781
-11.577	-3.656	-6.715	-0.709	1.932	-0.280	10.010	10.461	11.149	10.937	7.948	3.145	7.375	5.371	-12.740	-5.303	-7.451	-8.889	-1.701	-1.369	1.306	0.837	-1.502	6.243	5.131	8.787	8.836	7.569	304.688
-11.753	-3.638	-6.918	-0.639	1.946	-0.364	10.387	10.545	11.073	11.244	8.106	3.300	7.815	5.723	-12.950	-5.204	-7.452	-9.014	-1.572	-1.177	1.548	0.970	-1.474	6.393	5.044	8.813	9.048	7.626	308.594
-11.876	-3.581	-7.060	-0.543	1.991	-0.424	10.691	10.580	10.956	11.438	8.164	3.374	8.170	6.019	-13.126	-5.096	-7.448	-9.111	-1.457	-1.003	1.761	1.095	-1.425	6.515	5.018	8.849	9.202	7.642	312.500
-11.948	-3.480	-7.119	-0.420	2.069	-0.458	10.907	10.569	10.810	11.513	8.118	3.353	8.428	6.250	-13.269	-4.980	-7.430	-9.169	-1.355	-0.848	1.941	1.208	-1.365	6.604	5.051	8.886	9.293	7.615	316.406
-11.972	-3.334	-7.086	-0.270	2.178	-0.466	11.035	10.522	10.650	11.474	7.972	3.229	8.580	6.410	-13.375	-4.855	-7.392	-9.178	-1.263	-0.707	2.086	1.309	-1.302	6.656	5.129	8.912	9.313	7.538	320.312
-11.955	-3.148	-6.963	-0.096	2.315	-0.444	11.081	10.451	10.491	11.333	7.736	3.002	8.629	6.502	-13.438	-4.718	-7.327	-9.134	-1.176	-0.578	2.200	1.398	-1.243	6.667	5.234	8.916	9.259	7.408	324.219
-11.902	-2.933	-6.766	0.095	2.469	-0.391	11.055	10.365	10.344	11.109	7.431	2.685	8.585	6.533	-13.450	-4.565	-7.232	-9.040	-1.086	-0.451	2.289	1.478	-1.190	6.638	5.342	8.888	9.137	7.222	328.125
-11.819	-2.705	-6.526	0.291	2.630	-0.310	10.969	10.273	10.213	10.825	7.085	2.308	8.462	6.511	-13.402	-4.397	-7.105	-8.903	-0.983	-0.320	2.360	1.557	-1.140	6.572	5.436	8.826	8.955	6.985	332.031
-11.711	-2.482	-6.281	0.479	2.780	-0.209	10.830	10.178	10.098	10.502	6.735	1.919	8.279	6.449	-13.290	-4.212	-6.949	-8.736	-0.861	-0.180	2.419	1.641	-1.086	6.478	5.503	8.734	8.734	6.714	335.938
-11.583	-2.285	-6.070	0.641	2.903	-0.104	10.642	10.075	9.992	10.163	6.428	1.585	8.058	6.356	-13.114	-4.019	-6.771	-8.558	-0.717	-0.033	2.470	1.736	-1.019	6.367	5.541	8.629	8.498	6.437	339.844
-11.440	-2.132	-5.926	0.762	2.983	-0.015	10.404	9.957	9.884	9.832	6.208	1.377	7.819	6.237	-12.883	-3.827	-6.582	-8.387	-0.553	0.117	2.511	1.843	-0.934	6.254	5.559	8.532	8.279	6.194	343.750
-11.285	-2.039	-5.870	0.827	3.006	0.038	10.119	9.816	9.763	9.527	6.118	1.365	7.582	6.097	-12.617	-3.651	-6.396	-8.244	-0.382	0.259	2.537	1.962	-0.828	6.153	5.573	8.470	8.106	6.028	347.656
-11.124	-2.015	-5.908	0.830	2.967	0.033	9.791	9.641	9.617	9.266	6.181	1.597	7.364	5.942	-12.340	-3.506	-6.231	-8.143	-0.219	0.378	2.542	2.083	-0.704	6.080	5.605	8.469	8.008	5.982	351.562
-10.964	-2.059	-6.027	0.770	2.867	-0.040	9.429	9.428	9.436	9.062	6.396	2.082	7.183	5.780	-12.084	-3.406	-6.107	-8.094	-0.084	0.463	2.520	2.199	-0.569	6.048	5.678	8.547	8.005	6.083	355.469
-10.815	-2.164	-6.203	0.662	2.718	-0.182	9.050	9.178	9.216	8.923	6.728	2.778	7.053	5.621	-11.879	-3.357	-6.036	-8.100	0.008	0.507	2.474	2.301	-0.431	6.066	5.808	8.713	8.107	6.333	359.375
-10.688	-2.309	-6.403	0.526	2.542	-0.378	8.682	8.901	8.956	8.847	7.110	3.587	6.988	5.486	-11.748	-3.358	-6.029	-8.156	0.048	0.514	2.413	2.390	-0.294	6.141	6.004	8.962	8.306	6.704	363.281
-10.596	-2.468	-6.592	0.397	2.373	-0.596	8.357	8.616	8.663	8.830	7.447	4.360	6.998	5.396	-11.704	-3.396	-6.087	-8.255	0.037	0.495	2.356	2.468	-0.158	6.274	6.265	9.272	8.584	7.137	367.188
-10.551	-2.612	-6.744	0.306	2.247	-0.795	8.110	8.351	8.351	8.859	7.639	4.928	7.089	5.373	-11.748	-3.451	-6.201	-8.386	-0.012	0.472	2.328	2.550	-0.017	6.462	6.575	9.609	8.906	7.547	371.094
-10.561	-2.714	-6.843	0.286	2.202	-0.929	7.974	8.139	8.045	8.920	7.599	5.131	7.256	5.437	-11.868	-3.500	-6.359	-8.543	-0.082	0.472	2.355	2.651	0.133	6.696	6.910	9.932	9.231	7.844	375.000
-10.631	-2.759	-6.886	0.356	2.265	-0.957	7.974	8.012	7.776	9.001	7.282	4.863	7.488	5.592	-12.041	-3.520	-6.541	-8.719	-0.152	0.515	2.458	2.786	0.301	6.960	7.237	10.197	9.511	7.943	378.906
-10.753	-2.744	-6.884	0.516	2.443	-0.856	8.115	7.996	7.578	9.088	6.696	4.100	7.760	5.829	-12.239	-3.497	-6.725	-8.909	-0.201	0.618	2.641	2.964	0.486	7.233	7.522	10.367	9.704	7.792	382.812
-10.915	-2.682	-6.853	0.752	2.724	-0.624	8.385	8.100	7.479	9.172	5.909	2.915	8.042	6.120	-12.432	-3.430	-6.892	-9.103	-0.216	0.780	2.895	3.185	0.687	7.489	7.738	10.420	9.781	7.382	386.719
-11.091	-2.594	-6.817	1.032	3.071	-0.287	8.746	8.310	7.491	9.241	5.034	1.469	8.297	6.425	-12.593	-3.325	-7.022	-9.287	-0.190	0.990	3.194	3.437	0.894	7.702	7.866	10.350	9.727	6.751	390.625
-11.250	-2.508	-6.793	1.316	3.434	0.106	9.140	8.592	7.603	9.280	4.202	-0.026	8.489	6.698	-12.697	-3.198	-7.105	-9.442	-0.122	1.225	3.500	3.702	1.096	7.851	7.904	10.174	9.548	5.978	394.531
-11.354	-2.445	-6.793	1.565	3.756	0.492	9.502	8.886	7.781	9.269	3.529	-1.351	8.592	6.896	-12.731	-3.067	-7.131	-9.543	-0.018	1.462	3.775	3.962	1.282	7.923	7.864	9.924	9.271	5.164	398.438
-11.368	-2.419	-6.821	1.749	3.992	0.807	9.769	9.127	7.966	9.184	3.085	-2.336	8.591	6.992	-12.686	-2.944	-7.100	-9.566	0.114	1.678	3.987	4.198	1.445	7.914	7.772	9.641	8.929	4.410	402.344
-11.264	-2.425	-6.870	1.856	4.116	1.003	9.891	9.251	8.093	9.002	2.876	-2.895	8.489	6.982	-12.560	-2.837	-7.013	-9.492	0.267	1.861	4.122	4.401	1.583	7.833	7.659	9.363	8.559	3.789	406.250
-11.028	-2.442	-6.927	1.895	4.128	1.054	9.844	9.209	8.096	8.701	2.843	-3.050	8.303	6.885	-12.354	-2.739	-6.873	-9.313	0.438	2.014	4.187	4.574	1.705	7.693	7.556	9.113	8.188	3.332	410.156
-10.658	-2.437	-6.975	1.896	4.057	0.968	9.629	8.981	7.928	8.270	2.874	-2.921	8.060	6.739	-12.070	-2.635	-6.682	-9.030	0.629	2.155	4.209	4.730	1.827	7.513	7.484	8.897	7.827	3.019	414.062
-10.170	-2.375	-6.997	1.899	3.949	0.777	9.273	8.573	7.566	7.708	2.837	-2.689	7.792	6.593	-11.713	-2.498	-6.439	-8.655	0.850	2.311	4.228	4.891	1.966	7.308	7.446	8.697	7.469	2.789	417.969
-9.587	-2.222	-6.978	1.946	3.861	0.533	8.820	8.020	7.020	7.034	2.614	-2.549	7.530	6.496	-11.287	-2.305	-6.142	-8.209	1.113	2.515	4.290	5.079	2.140	7.087	7.426	8.480	7.094	2.557	421.875
-8.942	-1.961	-6.907	2.072	3.841	0.295	8.322	7.379	6.327	6.283	2.133	-2.660	7.296	6.488	-10.799	-2.035	-5.794	-7.719	1.427	2.792	4.433	5.309	2.357	6.854	7.392	8.202	6.676	2.238	425.781
-8.269	-1.593	-6.778	2.293	3.923	0.114	7.833	6.716	5.550	5.504	1.389	-3.103	7.107	6.587	-10.262	-1.684	-5.402	-7.216	1.790	3.153	4.680	5.586	2.613	6.609	7.297	7.825	6.196	1.774	429.688
-7.601	-1.142	-6.593	2.604	4.117	0.025	7.399	6.095	4.761	4.761	0.444	-3.868	6.969	6.792	-9.693	-1.261	-4.978	-6.729	2.190	3.594	5.032	5.900	2.893	6.347	7.094	7.322	5.647	1.144	433.594
-6.963	-0.642	-6.357	2.983	4.412	0.042	7.052	5.568	4.030	4.117	-0.586	-4.858	6.882	7.079	-9.115	-0.791	-4.542	-6.282	2.605	4.093	5.468	6.231	3.172	6.066	6.742	6.684	5.040	0.374	437.500
-6.374	-0.137	-6.084	3.396	4.774	0.154	6.805	5.167	3.407	3.624	-1.560	-5.920	6.840	7.413	-8.549	-0.307	-4.115	-5.894	3.008	4.615	5.952	6.551	3.424	5.766	6.220	5.922	4.401	-0.476	441.406
-5.841	0.332	-5.795	3.803	5.157	0.333	6.654	4.895	2.920	3.316	-2.345	-6.884	6.836	7.752	-8.011	0.162	-3.711	-5.571	3.374	5.124	6.441	6.837	3.627	5.451	5.527	5.068	3.764	-1.326	445.312
-5.367	0.735	-5.512	4.171	5.514	0.542	6.580	4.736	2.569	3.201	-2.845	-7.602	6.859	8.059	-7.509	0.591	-3.340	-5.309	3.688	5.588	6.894	7.068	3.768	5.131	4.686	4.161	3.168	-2.089	449.219
-4.947	1.055	-5.261	4.474	5.801	0.738	6.550	4.656	2.328	3.257	-3.017	-7.975	6.899	8.301	-7.046	0.967	-3.001	-5.097	3.946	5.984	7.278	7.239	3.844	4.819	3.741	3.251	2.647	-2.696	453.125
-4.575	1.287	-5.063	4.698	5.987	0.887	6.533	4.615	2.162	3.445	-2.875	-7.968	6.947	8.463	-6.618	1.288	-2.689	-4.917	4.153	6.302	7.571	7.351	3.862	4.528	2.748	2.385	2.225	-3.099	457.031
-4.244	1.438	-4.936	4.840	6.058	0.963	6.497	4.575	2.034	3.712	-2.478	-7.607	6.993	8.540	-6.221	1.557	-2.397	-4.756	4.318	6.540	7.768	7.413	3.835	4.275	1.771	1.605	1.912	-3.282	460.938
-3.952	1.516	-4.885	4.904	6.015	0.951	6.426	4.512	1.918	4.004	-1.909	-6.964	7.031	8.537	-5.855	1.778	-2.124	-4.603	4.454	6.701	7.871	7.434	3.774	4.073	0.869	0.948	1.712	-3.253	464.844
-3.701	1.531	-4.910	4.896	5.873	0.852	6.314	4.416	1.802	4.276	-1.262	-6.132	7.057	8.470	-5.526	1.952	-1.876	-4.458	4.566	6.790	7.891	7.426	3.693	3.932	0.094	0.439	1.618	-3.040	468.750
-3.499	1.488	-5.006	4.826	5.657	0.674	6.171	4.293	1.690	4.496	-0.615	-5.209	7.070	8.354	-5.243	2.074	-1.666	-4.328	4.654	6.814	7.843	7.394	3.599	3.860	-0.514	0.097	1.621	-2.684	472.656
-3.357	1.389	-5.161	4.701	5.394	0.436	6.013	4.158	1.597	4.648	-0.024	-4.278	7.069	8.209	-5.019	2.139	-1.508	-4.226	4.715	6.777	7.742	7.342	3.494	3.859	-0.933	-0.071	1.713	-2.228	476.562
-3.285	1.235	-5.361	4.527	5.114	0.157	5.860	4.032	1.537	4.731	0.482	-3.402	7.056	8.049	-4.862	2.139	-1.417	-4.164	4.740	6.684	7.603	7.271	3.378	3.925	-1.155	-0.063	1.885	-1.709	480.469
-3.290	1.030	-5.589	4.314	4.839	-0.139	5.723	3.928	1.524	4.750	0.893	-2.619	7.031	7.886	-4.776	2.076	-1.395	-4.152	4.727	6.543	7.441	7.180	3.250	4.049	-1.188	0.108	2.125	-1.160	484.375
-3.371	0.783	-5.826	4.074	4.586	-0.433	5.606	3.852	1.555	4.710	1.217	-1.945	6.992	7.726	-4.753	1.958	-1.437	-4.190	4.675	6.367	7.268	7.071	3.111	4.217	-1.055	0.422	2.422	-0.603	488.281
-3.519	0.513	-6.050	3.822	4.363	-0.709	5.498	3.797	1.616	4.615	1.463	-1.384	6.932	7.570	-4.774	1.804	-1.524	-4.266	4.591	6.170	7.097	6.948	2.963	4.409	-0.787	0.849	2.758	-0.058	492.188
-3.716	0.244	-6.241	3.574	4.171	-0.955	5.378	3.747	1.682	4.462	1.640	-0.936	6.840	7.414	-4.812	1.639	-1.627	-4.359	4.489	5.969	6.934	6.820	2.819	4.601	-0.424	1.350	3.109	0.462	496.094
-3.936	0.005	-6.379	3.348	4.004	-1.163	5.219	3.676	1.720	4.245	1.746	-0.594	6.700	7.251	-4.836	1.490	-1.716	-4.442	4.386	5.782	6.787	6.695	2.691	4.769	-0.005	1.880	3.446	0.942	500.000
-4.150	-0.181	-6.449	3.160	3.853	-1.331	4.998	3.563	1.701	3.956	1.775	-0.356	6.497	7.070	-4.815	1.382	-1.764	-4.486	4.300	5.620	6.654	6.586	2.598	4.891	0.432	2.399	3.742	1.369	503.906
-4.331	-0.296	-6.445	3.019	3.704	-1.462	4.699	3.388	1.604	3.594	1.719	-0.218	6.220	6.860	-4.729	1.329	-1.754	-4.468	4.245	5.492	6.533	6.502	2.555	4.952	0.860	2.872	3.969	1.731	507.812
-4.457	-0.337	-6.371	2.928	3.547	-1.558	4.320	3.145	1.422	3.165	1.575	-0.173	5.862	6.613	-4.568	1.333	-1.679	-4.374	4.230	5.395	6.416	6.450	2.575	4.944	1.261	3.274	4.111	2.021	511.719
-4.515	-0.314	-6.239	2.880	3.372	-1.626	3.874	2.840	1.166	2.690	1.346	-0.213	5.430	6.325	-4.340	1.384	-1.545	-4.203	4.256	5.324	6.293	6.430	2.661	4.871	1.628	3.598	4.161	2.235	515.625
-4.507	-0.248	-6.069	2.862	3.173	-1.674	3.390	2.491	0.860	2.199	1.051	-0.321	4.938	5.997	-4.064	1.460	-1.371	-3.963	4.315	5.266	6.155	6.438	2.806	4.742	1.963	3.850	4.127	2.377	519.531
-4.448	-0.174	-5.888	2.852	2.949	-1.706	2.902	2.128	0.540	1.731	0.719	-0.478	4.412	5.639	-3.772	1.533	-1.182	-3.675	4.392	5.204	5.992	6.464	2.997	4.577	2.277	4.049	4.030	2.458	523.438
-4.367	-0.126	-5.723	2.827	2.703	-1.729	2.449	1.783	0.246	1.327	0.388	-0.657	3.884	5.265	-3.501	1.574	-1.006	-3.366	4.468	5.122	5.800	6.494	3.216	4.399	2.582	4.220	3.900	2.495	527.344
-4.296	-0.138	-5.595	2.765	2.441	-1.749	2.066	1.489	0.014	1.021	0.095	-0.831	3.389	4.893	-3.285	1.556	-0.870	-3.067	4.523	5.006	5.578	6.516	3.443	4.230	2.890	4.394	3.774	2.510	531.250
-4.269	-0.237	-5.522	2.647	2.172	-1.771	1.777	1.267	-0.131	0.833	-0.125	-0.974	2.958	4.542	-3.152	1.464	-0.794	-2.808	4.539	4.846	5.330	6.519	3.660	4.094	3.212	4.597	3.689	2.526	535.156
-4.311	-0.435	-5.511	2.464	1.903	-1.803	1.591	1.129	-0.182	0.768	-0.250	-1.065	2.617	4.229	-3.114	1.290	-0.791	-2.611	4.509	4.639	5.067	6.498	3.856	4.009	3.550	4.845	3.675	2.565	539.062
-4.430	-0.729	-5.560	2.216	1.644	-1.848	1.503	1.068	-0.150	0.809	-0.273	-1.093	2.378	3.967	-3.170	1.044	-0.859	-2.489	4.430	4.390	4.801	6.453	4.024	3.985	3.901	5.143	3.749	2.641	542.969
-4.617	-1.097	-5.653	1.915	1.402	-1.910	1.493	1.064	-0.063	0.926	-0.206	-1.054	2.245	3.764	-3.305	0.744	-0.984	-2.437	4.312	4.112	4.548	6.391	4.163	4.025	4.254	5.480	3.912	2.756	546.875
-4.848	-1.505	-5.772	1.582	1.182	-1.986	1.532	1.089	0.041	1.082	-0.074	-0.958	2.207	3.622	-3.492	0.418	-1.146	-2.442	4.171	3.822	4.322	6.320	4.278	4.125	4.594	5.836	4.150	2.905	550.781
-5.084	-1.911	-5.891	1.244	0.991	-2.073	1.586	1.111	0.119	1.237	0.089	-0.820	2.249	3.538	-3.696	0.099	-1.316	-2.479	4.026	3.542	4.137	6.252	4.371	4.273	4.903	6.181	4.433	3.073	554.688
-5.287	-2.274	-5.990	0.932	0.832	-2.165	1.624	1.099	0.136	1.358	0.249	-0.662	2.348	3.504	-3.883	-0.183	-1.468	-2.520	3.898	3.296	4.003	6.194	4.448	4.452	5.165	6.483	4.727	3.240	558.594
-5.420	-2.557	-6.049	0.671	0.712	-2.251	1.623	1.036	0.069	1.424	0.375	-0.505	2.482	3.509	-4.024	-0.403	-1.576	-2.538	3.803	3.100	3.924	6.152	4.509	4.640	5.364	6.714	4.993	3.384	562.500
-5.458	-2.737	-6.058	0.481	0.637	-2.321	1.575	0.914	-0.087	1.430	0.447	-0.368	2.627	3.542	-4.102	-0.545	-1.629	-2.515	3.747	2.968	3.899	6.126	4.555	4.815	5.489	6.851	5.195	3.485	566.406
-5.391	-2.805	-6.014	0.371	0.609	-2.364	1.480	0.742	-0.320	1.381	0.459	-0.266	2.767	3.592	-4.108	-0.603	-1.620	-2.440	3.733	2.903	3.922	6.112	4.580	4.957	5.533	6.880	5.305	3.525	570.312
-5.220	-2.765	-5.922	0.344	0.632	-2.372	1.354	0.537	-0.602	1.295	0.414	-0.211	2.887	3.647	-4.047	-0.581	-1.556	-2.314	3.752	2.901	3.983	6.103	4.585	5.047	5.494	6.797	5.305	3.491	574.219
-4.959	-2.632	-5.788	0.392	0.705	-2.337	1.218	0.327	-0.898	1.194	0.327	-0.205	2.979	3.700	-3.929	-0.491	-1.452	-2.149	3.792	2.951	4.068	6.088	4.567	5.073	5.375	6.604	5.186	3.375	578.125
-4.626	-2.429	-5.625	0.504	0.825	-2.259	1.096	0.135	-1.173	1.100	0.218	-0.250	3.039	3.745	-3.767	-0.348	-1.325	-1.964	3.838	3.037	4.164	6.062	4.530	5.029	5.183	6.315	4.950	3.174	582.031
-4.244	-2.179	-5.441	0.663	0.984	-2.143	1.002	-0.019	-1.398	1.027	0.107	-0.338	3.067	3.778	-3.576	-0.172	-1.195	-1.782	3.877	3.145	4.260	6.019	4.480	4.916	4.930	5.945	4.611	2.893	585.938
-3.834	-1.906	-5.244	0.853	1.173	-1.998	0.946	-0.125	-1.558	0.983	0.007	-0.463	3.066	3.798	-3.362	0.022	-1.074	-1.622	3.902	3.258	4.346	5.961	4.427	4.741	4.631	5.516	4.189	2.543	589.844
-3.411	-1.629	-5.037	1.056	1.378	-1.838	0.923	-0.184	-1.649	0.961	-0.076	-0.616	3.040	3.806	-3.132	0.220	-0.969	-1.494	3.909	3.365	4.418	5.893	4.381	4.517	4.303	5.048	3.709	2.137	593.750
-2.989	-1.363	-4.820	1.258	1.587	-1.675	0.921	-0.208	-1.686	0.947	-0.145	-0.787	2.992	3.803	-2.885	0.413	-0.876	-1.400	3.902	3.460	4.472	5.821	4.354	4.260	3.962	4.564	3.201	1.691	597.656
-2.577	-1.117	-4.595	1.448	1.788	-1.518	0.922	-0.215	-1.689	0.922	-0.212	-0.971	2.927	3.791	-2.624	0.597	-0.789	-1.329	3.888	3.539	4.511	5.755	4.353	3.985	3.624	4.082	2.691	1.222	601.562
-2.182	-0.895	-4.363	1.616	1.973	-1.376	0.910	-0.223	-1.683	0.865	-0.291	-1.165	2.848	3.771	-2.348	0.771	-0.698	-1.268	3.873	3.607	4.536	5.698	4.379	3.709	3.301	3.619	2.206	0.749	605.469
-1.811	-0.697	-4.132	1.762	2.139	-1.250	0.874	-0.247	-1.691	0.761	-0.400	-1.369	2.757	3.746	-2.063	0.934	-0.593	-1.204	3.865	3.666	4.552	5.652	4.428	3.449	3.005	3.189	1.765	0.286	609.375
-1.472	-0.522	-3.909	1.884	2.284	-1.140	0.811	-0.294	-1.725	0.604	-0.551	-1.586	2.658	3.718	-1.775	1.088	-0.473	-1.129	3.866	3.721	4.562	5.615	4.491	3.216	2.746	2.805	1.384	-0.153	613.281
-1.174	-0.367	-3.705	1.985	2.407	-1.044	0.727	-0.363	-1.789	0.396	-0.747	-1.819	2.557	3.688	-1.495	1.231	-0.340	-1.043	3.875	3.775	4.568	5.583	4.555	3.022	2.532	2.480	1.069	-0.554	617.188
-0.925	-0.230	-3.530	2.068	2.509	-0.957	0.635	-0.446	-1.876	0.152	-0.987	-2.068	2.459	3.660	-1.233	1.363	-0.201	-0.952	3.890	3.829	4.573	5.551	4.606	2.876	2.368	2.220	0.823	-0.910	621.094
-0.736	-0.112	-3.390	2.134	2.585	-0.878	0.551	-0.527	-1.970	-0.110	-1.256	-2.330	2.370	3.636	-0.998	1.481	-0.065	-0.866	3.905	3.880	4.576	5.517	4.634	2.781	2.258	2.033	0.644	-1.211	625.000
-0.610	-0.014	-3.288	2.180	2.632	-0.806	0.493	-0.594	-2.053	-0.366	-1.536	-2.597	2.298	3.619	-0.798	1.582	0.058	-0.793	3.918	3.925	4.576	5.479	4.632	2.738	2.200	1.919	0.526	-1.453	628.906
-0.551	0.060	-3.222	2.204	2.644	-0.744	0.472	-0.632	-2.108	-0.592	-1.803	-2.857	2.246	3.608	-0.636	1.661	0.166	-0.739	3.927	3.957	4.571	5.440	4.600	2.745	2.188	1.873	0.463	-1.632	632.812
-0.555	0.109	-3.187	2.198	2.617	-0.694	0.494	-0.636	-2.123	-0.769	-2.031	-3.092	2.218	3.602	-0.510	1.718	0.254	-0.705	3.929	3.971	4.558	5.402	4.543	2.794	2.211	1.887	0.450	-1.748	636.719
-0.612	0.130	-3.177	2.160	2.550	-0.662	0.560	-0.605	-2.096	-0.885	-2.201	-3.282	2.215	3.598	-0.416	1.749	0.326	-0.686	3.924	3.964	4.535	5.368	4.472	2.877	2.256	1.948	0.482	-1.800	640.625
-0.709	0.124	-3.184	2.087	2.447	-0.651	0.660	-0.548	-2.032	-0.935	-2.296	-3.409	2.235	3.595	-0.345	1.756	0.382	-0.679	3.911	3.935	4.501	5.340	4.398	2.984	2.307	2.040	0.557	-1.791	644.531
-0.828	0.096	-3.205	1.983	2.319	-0.662	0.781	-0.474	-1.947	-0.924	-2.312	-3.461	2.278	3.591	-0.286	1.739	0.425	-0.678	3.889	3.889	4.458	5.316	4.332	3.106	2.346	2.147	0.670	-1.727	648.438
-0.949	0.052	-3.232	1.859	2.182	-0.692	0.909	-0.401	-1.859	-0.862	-2.256	-3.436	2.340	3.587	-0.230	1.704	0.458	-0.679	3.857	3.831	4.408	5.293	4.282	3.231	2.359	2.250	0.816	-1.619	652.344
-1.049	0.006	-3.261	1.730	2.054	-0.735	1.027	-0.342	-1.791	-0.769	-2.145	-3.342	2.417	3.584	-0.164	1.657	0.483	-0.677	3.813	3.769	4.356	5.265	4.247	3.349	2.332	2.330	0.983	-1.481	656.250
-1.108	-0.031	-3.286	1.615	1.951	-0.783	1.123	-0.310	-1.758	-0.665	-2.005	-3.199	2.501	3.581	-0.080	1.609	0.503	-0.666	3.759	3.712	4.307	5.225	4.225	3.448	2.256	2.370	1.151	-1.333	660.156
-1.111	-0.045	-3.297	1.531	1.885	-0.823	1.186	-0.312	-1.772	-0.574	-1.867	-3.038	2.586	3.579	0.031	1.569	0.520	-0.644	3.697	3.667	4.266	5.166	4.205	3.515	2.128	2.354	1.300	-1.199	664.062
-1.048	-0.026	-3.285	1.492	1.863	-0.844	1.211	-0.348	-1.830	-0.515	-1.761	-2.892	2.661	3.577	0.173	1.548	0.539	-0.606	3.631	3.638	4.233	5.085	4.180	3.539	1.950	2.273	1.404	-1.102	667.969
-0.919	0.029	-3.240	1.504	1.882	-0.838	1.200	-0.411	-1.923	-0.500	-1.708	-2.793	2.718	3.571	0.343	1.552	0.565	-0.553	3.567	3.626	4.210	4.984	4.141	3.514	1.731	2.124	1.442	-1.064	671.875
-0.733	0.119	-3.152	1.565	1.936	-0.797	1.161	-0.487	-2.029	-0.532	-1.718	-2.764	2.749	3.559	0.534	1.584	0.597	-0.487	3.509	3.631	4.193	4.866	4.084	3.438	1.481	1.912	1.399	-1.099	675.781
-0.507	0.235	-3.017	1.664	2.017	-0.719	1.106	-0.558	-2.127	-0.603	-1.787	-2.817	2.751	3.539	0.734	1.641	0.638	-0.416	3.461	3.647	4.178	4.740	4.009	3.314	1.216	1.649	1.272	-1.213	679.688
-0.263	0.365	-2.835	1.786	2.117	-0.607	1.051	-0.608	-2.195	-0.697	-1.901	-2.950	2.726	3.513	0.923	1.715	0.685	-0.347	3.425	3.669	4.162	4.613	3.921	3.154	0.951	1.354	1.070	-1.402	683.594
-0.027	0.493	-2.617	1.912	2.231	-0.467	1.008	-0.626	-2.217	-0.795	-2.038	-3.149	2.679	3.484	1.088	1.791	0.733	-0.287	3.398	3.692	4.144	4.497	3.831	2.973	0.699	1.048	0.811	-1.650	687.500
0.181	0.605	-2.381	2.026	2.356	-0.313	0.987	-0.607	-2.191	-0.879	-2.173	-3.388	2.618	3.455	1.214	1.856	0.781	-0.239	3.379	3.711	4.124	4.400	3.749	2.789	0.475	0.757	0.520	-1.936	691.406
0.348	0.691	-2.149	2.113	2.490	-0.161	0.987	-0.558	-2.123	-0.938	-2.288	-3.639	2.549	3.430	1.297	1.897	0.824	-0.203	3.364	3.722	4.103	4.326	3.687	2.619	0.289	0.501	0.225	-2.237	695.312
0.469	0.744	-1.946	2.164	2.630	-0.028	1.000	-0.493	-2.032	-0.969	-2.369	-3.871	2.481	3.413	1.340	1.907	0.862	-0.174	3.347	3.726	4.086	4.277	3.654	2.478	0.149	0.298	-0.048	-2.524	699.219
0.547	0.761	-1.795	2.174	2.767	0.070	1.016	-0.431	-1.940	-0.977	-2.414	-4.058	2.418	3.404	1.352	1.883	0.893	-0.147	3.327	3.721	4.075	4.253	3.653	2.374	0.062	0.159	-0.277	-2.770	703.125
0.588	0.743	-1.708	2.143	2.889	0.121	1.018	-0.392	-1.869	-0.974	-2.426	-4.181	2.363	3.403	1.347	1.829	0.916	-0.117	3.301	3.708	4.072	4.246	3.683	2.312	0.032	0.091	-0.447	-2.953	707.031
0.601	0.691	-1.689	2.071	2.981	0.123	0.997	-0.390	-1.838	-0.972	-2.416	-4.232	2.319	3.406	1.338	1.751	0.928	-0.086	3.265	3.687	4.075	4.252	3.735	2.290	0.058	0.095	-0.546	-3.055	710.938
0.593	0.606	-1.728	1.964	3.028	0.081	0.949	-0.430	-1.854	-0.976	-2.394	-4.211	2.286	3.411	1.334	1.659	0.923	-0.057	3.218	3.657	4.081	4.261	3.798	2.306	0.139	0.169	-0.571	-3.063	714.844
0.565	0.494	-1.811	1.828	3.019	0.010	0.880	-0.506	-1.915	-0.990	-2.368	-4.128	2.267	3.415	1.335	1.559	0.896	-0.039	3.157	3.616	4.081	4.265	3.858	2.353	0.266	0.306	-0.524	-2.977	718.750
0.519	0.360	-1.916	1.670	2.950	-0.074	0.803	-0.606	-2.010	-1.006	-2.344	-3.997	2.262	3.413	1.336	1.457	0.842	-0.041	3.078	3.562	4.069	4.255	3.903	2.424	0.430	0.495	-0.411	-2.805	722.656
0.452	0.211	-2.024	1.499	2.821	-0.154	0.737	-0.711	-2.120	-1.014	-2.319	-3.837	2.272	3.404	1.326	1.355	0.760	-0.066	2.978	3.492	4.036	4.225	3.921	2.513	0.618	0.724	-0.241	-2.562	726.562
0.366	0.058	-2.117	1.326	2.645	-0.219	0.700	-0.803	-2.227	-0.999	-2.288	-3.667	2.296	3.385	1.292	1.251	0.653	-0.116	2.858	3.407	3.978	4.170	3.908	2.612	0.816	0.976	-0.029	-2.275	730.469
0.263	-0.090	-2.185	1.160	2.437	-0.266	0.705	-0.869	-2.313	-0.949	-2.243	-3.503	2.331	3.356	1.225	1.145	0.528	-0.183	2.719	3.306	3.893	4.088	3.862	2.714	1.009	1.233	0.210	-1.972	734.375
0.147	-0.218	-2.223	1.010	2.220	-0.298	0.756	-0.901	-2.365	-0.856	-2.176	-3.358	2.372	3.317	1.122	1.036	0.399	-0.257	2.568	3.195	3.782	3.980	3.790	2.810	1.182	1.474	0.456	-1.684	738.281
0.027	-0.319	-2.229	0.886	2.016	-0.319	0.846	-0.899	-2.380	-0.721	-2.083	-3.240	2.415	3.270	0.987	0.928	0.278	-0.323	2.417	3.080	3.652	3.854	3.698	2.890	1.322	1.676	0.689	-1.442	742.188
-0.087	-0.384	-2.206	0.792	1.844	-0.338	0.958	-0.868	-2.358	-0.552	-1.962	-3.152	2.455	3.219	0.835	0.824	0.179	-0.369	2.278	2.972	3.515	3.718	3.598	2.946	1.416	1.820	0.888	-1.268	746.094
-0.185	-0.412	-2.154	0.731	1.716	-0.357	1.072	-0.820	-2.308	-0.365	-1.817	-3.090	2.491	3.169	0.687	0.734	0.109	-0.386	2.165	2.880	3.383	3.585	3.498	2.968	1.455	1.888	1.036	-1.176	750.000
-0.254	-0.404	-2.074	0.699	1.637	-0.380	1.163	-0.768	-2.244	-0.179	-1.659	-3.050	2.520	3.126	0.567	0.666	0.075	-0.370	2.087	2.813	3.269	3.469	3.407	2.952	1.435	1.871	1.118	-1.171	753.906
-0.285	-0.368	-1.968	0.693	1.601	-0.404	1.212	-0.729	-2.184	-0.019	-1.499	-3.024	2.541	3.096	0.497	0.629	0.076	-0.320	2.053	2.778	3.183	3.383	3.335	2.899	1.356	1.768	1.128	-1.245	757.812
-0.269	-0.311	-1.840	0.705	1.596	-0.428	1.205	-0.717	-2.148	0.095	-1.356	-3.007	2.557	3.084	0.497	0.630	0.112	-0.239	2.066	2.780	3.133	3.337	3.290	2.815	1.225	1.589	1.064	-1.386	761.719
-0.198	-0.241	-1.695	0.729	1.604	-0.450	1.138	-0.746	-2.152	0.145	-1.246	-2.997	2.569	3.090	0.575	0.674	0.182	-0.127	2.123	2.816	3.118	3.337	3.282	2.710	1.052	1.350	0.933	-1.575	765.625
-0.070	-0.164	-1.545	0.762	1.608	-0.472	1.014	-0.823	-2.212	0.119	-1.189	-2.995	2.579	3.113	0.734	0.761	0.289	0.013	2.221	2.882	3.135	3.385	3.319	2.600	0.854	1.073	0.748	-1.793	769.531
0.113	-0.084	-1.400	0.800	1.591	-0.502	0.847	-0.954	-2.335	0.017	-1.198	-3.006	2.589	3.150	0.968	0.890	0.435	0.182	2.351	2.970	3.174	3.475	3.406	2.502	0.649	0.783	0.527	-2.022	773.438
0.342	-0.003	-1.273	0.841	1.542	-0.551	0.650	-1.139	-2.522	-0.158	-1.282	-3.037	2.600	3.193	1.264	1.053	0.626	0.381	2.505	3.072	3.226	3.600	3.546	2.432	0.456	0.502	0.287	-2.247	777.344
0.609	0.078	-1.172	0.887	1.454	-0.633	0.438	-1.373	-2.769	-0.395	-1.442	-3.093	2.616	3.239	1.606	1.243	0.864	0.608	2.673	3.178	3.280	3.748	3.733	2.402	0.289	0.249	0.045	-2.457	781.250
0.903	0.160	-1.101	0.935	1.327	-0.762	0.225	-1.649	-3.062	-0.677	-1.671	-3.175	2.637	3.281	1.979	1.451	1.149	0.862	2.849	3.281	3.327	3.908	3.960	2.418	0.157	0.033	-0.186	-2.647	785.156
1.213	0.244	-1.056	0.988	1.164	-0.939	0.018	-1.957	-3.390	-0.989	-1.956	-3.282	2.663	3.316	2.366	1.667	1.476	1.140	3.027	3.378	3.364	4.072	4.215	2.476	0.061	-0.145	-0.401	-2.819	789.062
1.531	0.330	-1.032	1.043	0.975	-1.159	-0.181	-2.286	-3.737	-1.316	-2.279	-3.409	2.694	3.345	2.758	1.885	1.834	1.435	3.203	3.466	3.389	4.234	4.487	2.567	-0.006	-0.294	-0.601	-2.977	792.969
1.850	0.419	-1.017	1.101	0.773	-1.405	-0.372	-2.623	-4.090	-1.645	-2.617	-3.547	2.727	3.369	3.148	2.103	2.208	1.740	3.377	3.549	3.405	4.391	4.765	2.676	-0.059	-0.428	-0.791	-3.129	796.875
