FP1	F3	F7	FC3	C3	C5	P3	P7	PO7	PO3	O1	Oz	Pz	CPz	FP2	Fz	F4	F8	FC4	FCz	Cz	C4	C6	P4	P8	PO8	PO4	O2	time
0.046	0.367	-0.877	0.989	0.800	1.377	0.613	0.757	0.553	0.125	-0.095	-0.382	-1.097	0.062	-0.557	0.944	0.643	0.298	0.712	1.105	0.831	0.240	0.390	-0.279	0.209	0.370	-0.454	-0.752	-199.219
-0.021	0.202	-0.461	0.775	0.585	0.878	0.554	0.418	0.483	0.246	-0.101	-0.348	-0.845	0.184	-0.545	0.682	0.298	0.017	0.571	0.958	0.896	0.209	0.389	-0.169	0.319	0.433	-0.354	-0.720	-195.312
-0.074	0.057	-0.061	0.585	0.398	0.440	0.514	0.120	0.407	0.354	-0.123	-0.332	-0.599	0.304	-0.524	0.447	-0.009	-0.238	0.436	0.831	0.962	0.179	0.371	-0.080	0.389	0.444	-0.279	-0.711	-191.406
-0.100	-0.048	0.310	0.444	0.262	0.113	0.505	-0.111	0.318	0.435	-0.171	-0.347	-0.369	0.418	-0.484	0.264	-0.248	-0.445	0.315	0.741	1.029	0.149	0.325	-0.029	0.386	0.365	-0.248	-0.739	-187.500
-0.092	-0.104	0.638	0.363	0.189	-0.079	0.532	-0.263	0.211	0.482	-0.249	-0.397	-0.161	0.522	-0.423	0.144	-0.401	-0.587	0.211	0.693	1.093	0.120	0.244	-0.026	0.295	0.179	-0.270	-0.809	-183.594
-0.048	-0.109	0.909	0.343	0.179	-0.144	0.588	-0.340	0.085	0.489	-0.353	-0.478	0.018	0.615	-0.342	0.094	-0.461	-0.657	0.130	0.688	1.151	0.095	0.135	-0.071	0.115	-0.109	-0.343	-0.913	-179.688
0.031	-0.071	1.110	0.373	0.220	-0.109	0.660	-0.359	-0.059	0.456	-0.475	-0.577	0.164	0.693	-0.245	0.106	-0.435	-0.654	0.073	0.715	1.196	0.080	0.012	-0.154	-0.137	-0.471	-0.452	-1.034	-175.781
0.133	-0.005	1.226	0.433	0.292	-0.021	0.729	-0.345	-0.215	0.389	-0.598	-0.676	0.277	0.753	-0.140	0.168	-0.339	-0.585	0.041	0.760	1.222	0.077	-0.110	-0.260	-0.430	-0.864	-0.576	-1.147	-171.875
0.246	0.070	1.251	0.500	0.374	0.076	0.781	-0.323	-0.375	0.297	-0.705	-0.755	0.359	0.795	-0.036	0.261	-0.195	-0.462	0.030	0.806	1.225	0.085	-0.213	-0.368	-0.732	-1.237	-0.690	-1.227	-167.969
0.352	0.136	1.188	0.550	0.446	0.145	0.802	-0.313	-0.529	0.194	-0.779	-0.796	0.413	0.819	0.057	0.365	-0.030	-0.301	0.035	0.834	1.200	0.099	-0.287	-0.460	-1.005	-1.543	-0.770	-1.252	-164.062
0.436	0.180	1.050	0.569	0.497	0.168	0.788	-0.323	-0.667	0.094	-0.805	-0.787	0.444	0.826	0.130	0.456	0.131	-0.122	0.047	0.831	1.146	0.112	-0.332	-0.521	-1.221	-1.747	-0.801	-1.210	-160.156
0.485	0.192	0.861	0.550	0.521	0.145	0.742	-0.355	-0.778	0.011	-0.779	-0.723	0.460	0.819	0.177	0.517	0.264	0.056	0.056	0.791	1.066	0.114	-0.352	-0.542	-1.360	-1.828	-0.774	-1.098	-156.250
0.493	0.170	0.649	0.495	0.519	0.090	0.670	-0.401	-0.855	-0.046	-0.701	-0.609	0.466	0.800	0.191	0.533	0.351	0.217	0.053	0.711	0.962	0.097	-0.354	-0.521	-1.411	-1.782	-0.689	-0.921	-152.344
0.460	0.112	0.438	0.412	0.498	0.023	0.584	-0.449	-0.892	-0.073	-0.580	-0.453	0.468	0.772	0.171	0.498	0.381	0.344	0.031	0.598	0.843	0.056	-0.348	-0.463	-1.377	-1.622	-0.555	-0.693	-148.438
0.392	0.021	0.246	0.313	0.464	-0.038	0.494	-0.484	-0.885	-0.070	-0.429	-0.272	0.474	0.739	0.119	0.411	0.351	0.430	-0.014	0.461	0.717	-0.007	-0.337	-0.375	-1.270	-1.376	-0.386	-0.433	-144.531
0.300	-0.098	0.082	0.209	0.426	-0.080	0.411	-0.493	-0.834	-0.037	-0.266	-0.080	0.490	0.705	0.041	0.281	0.268	0.468	-0.081	0.312	0.593	-0.083	-0.319	-0.268	-1.109	-1.074	-0.196	-0.162	-140.625
0.196	-0.237	-0.059	0.109	0.391	-0.098	0.342	-0.467	-0.741	0.023	-0.105	0.108	0.521	0.674	-0.058	0.120	0.142	0.458	-0.165	0.162	0.479	-0.162	-0.291	-0.152	-0.917	-0.753	-0.002	0.101	-136.719
0.088	-0.388	-0.188	0.018	0.364	-0.094	0.293	-0.402	-0.611	0.107	0.038	0.280	0.572	0.651	-0.167	-0.054	-0.007	0.407	-0.255	0.020	0.382	-0.229	-0.245	-0.036	-0.717	-0.443	0.183	0.337	-132.812
-0.017	-0.538	-0.322	-0.061	0.346	-0.077	0.268	-0.303	-0.448	0.217	0.157	0.429	0.641	0.638	-0.280	-0.227	-0.160	0.323	-0.339	-0.106	0.304	-0.272	-0.180	0.072	-0.526	-0.164	0.350	0.536	-128.906
-0.116	-0.675	-0.474	-0.131	0.336	-0.059	0.269	-0.178	-0.262	0.350	0.249	0.554	0.725	0.635	-0.389	-0.384	-0.296	0.218	-0.406	-0.215	0.246	-0.285	-0.096	0.169	-0.356	0.072	0.496	0.691	-125.000
-0.214	-0.787	-0.649	-0.199	0.326	-0.053	0.294	-0.040	-0.061	0.506	0.317	0.657	0.816	0.641	-0.491	-0.519	-0.400	0.107	-0.447	-0.308	0.203	-0.267	-0.001	0.254	-0.210	0.267	0.620	0.805	-121.094
-0.314	-0.868	-0.841	-0.274	0.308	-0.073	0.337	0.096	0.146	0.678	0.371	0.745	0.903	0.651	-0.586	-0.628	-0.464	0.005	-0.458	-0.392	0.169	-0.221	0.093	0.331	-0.083	0.433	0.727	0.884	-117.188
-0.419	-0.914	-1.033	-0.365	0.269	-0.127	0.392	0.217	0.350	0.860	0.423	0.824	0.975	0.656	-0.676	-0.716	-0.486	-0.079	-0.441	-0.473	0.134	-0.158	0.173	0.404	0.035	0.583	0.821	0.940	-113.281
-0.532	-0.928	-1.200	-0.479	0.200	-0.219	0.448	0.313	0.542	1.037	0.485	0.899	1.020	0.649	-0.765	-0.790	-0.472	-0.137	-0.404	-0.558	0.092	-0.089	0.230	0.479	0.154	0.735	0.908	0.981	-109.375
-0.647	-0.917	-1.315	-0.614	0.098	-0.342	0.495	0.381	0.712	1.196	0.564	0.972	1.032	0.621	-0.854	-0.855	-0.435	-0.173	-0.359	-0.653	0.035	-0.025	0.259	0.563	0.285	0.899	0.990	1.016	-105.469
-0.758	-0.890	-1.361	-0.762	-0.037	-0.482	0.525	0.420	0.853	1.322	0.666	1.041	1.009	0.567	-0.943	-0.916	-0.390	-0.192	-0.318	-0.759	-0.041	0.026	0.261	0.659	0.433	1.077	1.068	1.046	-101.562
-0.853	-0.857	-1.329	-0.908	-0.194	-0.619	0.532	0.435	0.955	1.405	0.784	1.102	0.953	0.484	-1.023	-0.974	-0.350	-0.209	-0.290	-0.876	-0.135	0.059	0.244	0.765	0.594	1.262	1.136	1.068	-97.656
-0.922	-0.827	-1.228	-1.035	-0.357	-0.733	0.516	0.431	1.015	1.436	0.907	1.145	0.873	0.373	-1.083	-1.022	-0.325	-0.237	-0.278	-0.994	-0.244	0.073	0.216	0.875	0.761	1.438	1.190	1.073	-93.750
-0.954	-0.804	-1.079	-1.125	-0.506	-0.805	0.479	0.414	1.031	1.412	1.020	1.161	0.780	0.241	-1.107	-1.051	-0.319	-0.284	-0.282	-1.105	-0.361	0.072	0.188	0.981	0.917	1.580	1.219	1.052	-89.844
-0.945	-0.789	-0.909	-1.168	-0.623	-0.823	0.424	0.388	1.003	1.336	1.102	1.141	0.687	0.098	-1.082	-1.052	-0.330	-0.351	-0.293	-1.192	-0.475	0.063	0.165	1.068	1.043	1.664	1.216	0.996	-85.938
-0.893	-0.778	-0.747	-1.160	-0.693	-0.787	0.354	0.358	0.937	1.211	1.134	1.076	0.600	-0.046	-0.994	-1.012	-0.346	-0.428	-0.300	-1.244	-0.577	0.052	0.153	1.124	1.120	1.667	1.171	0.898	-82.031
-0.804	-0.760	-0.612	-1.101	-0.712	-0.702	0.271	0.324	0.839	1.041	1.100	0.962	0.525	-0.180	-0.839	-0.924	-0.352	-0.497	-0.292	-1.245	-0.654	0.049	0.151	1.136	1.132	1.574	1.079	0.756	-78.125
-0.682	-0.720	-0.509	-1.000	-0.681	-0.582	0.170	0.285	0.714	0.830	0.992	0.798	0.459	-0.299	-0.619	-0.785	-0.332	-0.538	-0.256	-1.187	-0.701	0.060	0.157	1.096	1.073	1.383	0.938	0.576	-74.219
-0.535	-0.642	-0.430	-0.867	-0.610	-0.444	0.044	0.239	0.567	0.580	0.807	0.586	0.394	-0.399	-0.347	-0.596	-0.272	-0.533	-0.184	-1.065	-0.712	0.088	0.167	1.001	0.945	1.104	0.752	0.365	-70.312
-0.368	-0.512	-0.353	-0.710	-0.517	-0.306	-0.115	0.184	0.400	0.293	0.556	0.336	0.319	-0.485	-0.043	-0.365	-0.163	-0.471	-0.074	-0.882	-0.692	0.133	0.180	0.855	0.762	0.759	0.527	0.139	-66.406
-0.187	-0.324	-0.252	-0.540	-0.419	-0.180	-0.310	0.120	0.216	-0.030	0.258	0.061	0.220	-0.561	0.270	-0.104	-0.006	-0.354	0.070	-0.648	-0.648	0.193	0.192	0.667	0.544	0.380	0.276	-0.086	-62.500
-0.000	-0.080	-0.109	-0.364	-0.333	-0.075	-0.539	0.046	0.018	-0.380	-0.060	-0.219	0.087	-0.637	0.566	0.166	0.187	-0.195	0.234	-0.383	-0.593	0.257	0.203	0.450	0.319	0.005	0.016	-0.289	-58.594
0.184	0.203	0.081	-0.188	-0.270	0.006	-0.792	-0.031	-0.185	-0.743	-0.365	-0.481	-0.086	-0.718	0.822	0.422	0.393	-0.013	0.402	-0.112	-0.544	0.315	0.210	0.220	0.114	-0.326	-0.235	-0.450	-54.688
0.355	0.500	0.304	-0.021	-0.237	0.070	-1.050	-0.107	-0.381	-1.100	-0.626	-0.703	-0.298	-0.808	1.023	0.640	0.587	0.169	0.552	0.135	-0.515	0.354	0.210	-0.008	-0.046	-0.579	-0.457	-0.551	-50.781
0.499	0.782	0.532	0.134	-0.229	0.125	-1.288	-0.172	-0.556	-1.422	-0.816	-0.864	-0.537	-0.907	1.160	0.798	0.740	0.330	0.662	0.333	-0.518	0.364	0.199	-0.219	-0.147	-0.732	-0.633	-0.580	-46.875
0.606	1.021	0.730	0.270	-0.241	0.182	-1.479	-0.218	-0.691	-1.684	-0.919	-0.950	-0.786	-1.009	1.233	0.882	0.831	0.459	0.716	0.463	-0.559	0.336	0.173	-0.404	-0.184	-0.778	-0.752	-0.534	-42.969
0.668	1.196	0.866	0.383	-0.261	0.249	-1.601	-0.237	-0.770	-1.862	-0.930	-0.958	-1.025	-1.104	1.250	0.890	0.850	0.552	0.705	0.517	-0.634	0.270	0.128	-0.558	-0.167	-0.729	-0.812	-0.424	-39.062
0.684	1.298	0.921	0.470	-0.279	0.330	-1.638	-0.221	-0.782	-1.942	-0.857	-0.895	-1.231	-1.183	1.222	0.831	0.798	0.611	0.631	0.500	-0.733	0.172	0.064	-0.679	-0.111	-0.610	-0.819	-0.266	-35.156
0.663	1.328	0.890	0.532	-0.285	0.424	-1.587	-0.168	-0.726	-1.922	-0.716	-0.778	-1.389	-1.234	1.164	0.723	0.689	0.641	0.505	0.428	-0.842	0.052	-0.018	-0.768	-0.040	-0.455	-0.786	-0.088	-31.250
0.616	1.299	0.780	0.568	-0.275	0.523	-1.454	-0.080	-0.606	-1.814	-0.531	-0.628	-1.488	-1.252	1.092	0.592	0.546	0.647	0.344	0.326	-0.943	-0.078	-0.114	-0.829	0.027	-0.302	-0.727	0.084	-27.344
0.559	1.229	0.611	0.583	-0.248	0.614	-1.257	0.037	-0.438	-1.637	-0.325	-0.466	-1.526	-1.234	1.020	0.464	0.392	0.630	0.169	0.220	-1.020	-0.205	-0.219	-0.866	0.076	-0.177	-0.660	0.225	-23.438
0.504	1.134	0.403	0.579	-0.208	0.684	-1.019	0.174	-0.239	-1.417	-0.116	-0.311	-1.509	-1.186	0.955	0.360	0.249	0.591	-0.002	0.134	-1.062	-0.320	-0.326	-0.884	0.099	-0.099	-0.598	0.319	-19.531
0.461	1.032	0.182	0.562	-0.163	0.722	-0.765	0.321	-0.025	-1.176	0.081	-0.175	-1.445	-1.117	0.903	0.292	0.131	0.531	-0.158	0.081	-1.067	-0.417	-0.433	-0.886	0.101	-0.069	-0.547	0.359	-15.625
0.429	0.931	-0.032	0.536	-0.120	0.721	-0.515	0.470	0.190	-0.934	0.263	-0.062	-1.348	-1.040	0.860	0.257	0.041	0.451	-0.294	0.063	-1.042	-0.499	-0.537	-0.874	0.089	-0.077	-0.509	0.349	-11.719
0.402	0.834	-0.219	0.507	-0.088	0.685	-0.285	0.619	0.402	-0.698	0.435	0.032	-1.231	-0.969	0.821	0.245	-0.025	0.353	-0.413	0.070	-1.003	-0.572	-0.638	-0.849	0.075	-0.104	-0.482	0.302	-7.812
0.366	0.740	-0.363	0.474	-0.072	0.622	-0.083	0.766	0.610	-0.469	0.604	0.115	-1.108	-0.917	0.779	0.236	-0.079	0.240	-0.523	0.082	-0.969	-0.644	-0.739	-0.813	0.069	-0.129	-0.456	0.238	-3.906
0.310	0.644	-0.451	0.436	-0.078	0.545	0.090	0.914	0.819	-0.242	0.784	0.201	-0.986	-0.891	0.724	0.209	-0.136	0.114	-0.630	0.079	-0.960	-0.726	-0.842	-0.765	0.077	-0.133	-0.424	0.176	0.000
0.224	0.541	-0.476	0.391	-0.106	0.468	0.239	1.065	1.033	-0.008	0.983	0.301	-0.869	-0.894	0.652	0.146	-0.209	-0.024	-0.741	0.038	-0.990	-0.824	-0.945	-0.705	0.097	-0.107	-0.378	0.132	3.906
0.106	0.427	-0.435	0.334	-0.155	0.406	0.370	1.218	1.252	0.237	1.209	0.420	-0.758	-0.922	0.560	0.038	-0.307	-0.171	-0.859	-0.051	-1.065	-0.943	-1.049	-0.635	0.119	-0.053	-0.316	0.114	7.812
-0.038	0.305	-0.330	0.263	-0.219	0.368	0.490	1.370	1.472	0.492	1.458	0.558	-0.651	-0.965	0.448	-0.113	-0.434	-0.323	-0.978	-0.189	-1.177	-1.078	-1.148	-0.557	0.131	0.016	-0.240	0.123	11.719
-0.193	0.180	-0.174	0.181	-0.293	0.360	0.603	1.512	1.683	0.749	1.719	0.708	-0.546	-1.013	0.324	-0.293	-0.586	-0.471	-1.095	-0.367	-1.312	-1.222	-1.238	-0.474	0.115	0.076	-0.158	0.150	15.625
-0.341	0.063	0.020	0.092	-0.367	0.386	0.709	1.636	1.871	0.991	1.976	0.854	-0.445	-1.056	0.197	-0.484	-0.751	-0.604	-1.198	-0.567	-1.450	-1.366	-1.313	-0.393	0.060	0.105	-0.083	0.181	19.531
-0.464	-0.038	0.230	0.005	-0.437	0.442	0.805	1.730	2.020	1.195	2.205	0.980	-0.351	-1.085	0.080	-0.663	-0.914	-0.707	-1.282	-0.766	-1.572	-1.497	-1.367	-0.323	-0.042	0.081	-0.027	0.200	23.438
-0.549	-0.117	0.434	-0.075	-0.499	0.522	0.885	1.789	2.119	1.342	2.389	1.071	-0.272	-1.099	-0.013	-0.810	-1.059	-0.771	-1.339	-0.947	-1.664	-1.606	-1.398	-0.271	-0.187	-0.008	-0.001	0.199	27.344
-0.591	-0.173	0.606	-0.144	-0.556	0.614	0.944	1.810	2.164	1.418	2.513	1.118	-0.218	-1.102	-0.072	-0.917	-1.172	-0.787	-1.369	-1.098	-1.724	-1.690	-1.407	-0.244	-0.363	-0.158	-0.010	0.175	31.250
-0.595	-0.212	0.724	-0.204	-0.611	0.704	0.976	1.801	2.161	1.421	2.579	1.124	-0.200	-1.103	-0.092	-0.982	-1.244	-0.756	-1.375	-1.217	-1.758	-1.748	-1.399	-0.243	-0.549	-0.353	-0.052	0.135	35.156
-0.576	-0.241	0.773	-0.257	-0.673	0.776	0.982	1.774	2.127	1.367	2.598	1.101	-0.225	-1.115	-0.077	-1.018	-1.278	-0.685	-1.368	-1.313	-1.783	-1.789	-1.385	-0.265	-0.719	-0.561	-0.116	0.095	39.062
-0.553	-0.271	0.745	-0.308	-0.747	0.816	0.968	1.746	2.086	1.284	2.596	1.070	-0.299	-1.151	-0.039	-1.045	-1.284	-0.587	-1.360	-1.402	-1.822	-1.823	-1.376	-0.303	-0.844	-0.743	-0.185	0.073	42.969
-0.551	-0.311	0.645	-0.358	-0.833	0.819	0.945	1.732	2.064	1.209	2.606	1.057	-0.420	-1.222	0.005	-1.087	-1.277	-0.480	-1.364	-1.505	-1.896	-1.863	-1.383	-0.347	-0.900	-0.858	-0.239	0.087	46.875
-0.586	-0.364	0.484	-0.406	-0.929	0.781	0.925	1.742	2.084	1.181	2.662	1.085	-0.582	-1.336	0.032	-1.166	-1.279	-0.384	-1.393	-1.637	-2.019	-1.917	-1.412	-0.386	-0.867	-0.869	-0.259	0.149	50.781
-0.671	-0.432	0.279	-0.450	-1.029	0.710	0.923	1.782	2.165	1.236	2.793	1.176	-0.776	-1.492	0.019	-1.297	-1.309	-0.321	-1.455	-1.808	-2.198	-1.992	-1.466	-0.407	-0.736	-0.747	-0.231	0.265	54.688
-0.806	-0.513	0.048	-0.488	-1.126	0.613	0.951	1.852	2.313	1.393	3.015	1.341	-0.987	-1.684	-0.050	-1.484	-1.380	-0.305	-1.549	-2.019	-2.426	-2.086	-1.541	-0.401	-0.510	-0.482	-0.145	0.434	58.594
-0.984	-0.602	-0.192	-0.525	-1.214	0.500	1.016	1.942	2.524	1.656	3.330	1.578	-1.200	-1.899	-0.185	-1.722	-1.495	-0.348	-1.671	-2.262	-2.688	-2.191	-1.630	-0.362	-0.202	-0.076	-0.000	0.647	62.500
-1.188	-0.694	-0.429	-0.567	-1.292	0.381	1.118	2.042	2.784	2.008	3.722	1.876	-1.400	-2.124	-0.385	-1.994	-1.647	-0.448	-1.809	-2.519	-2.960	-2.295	-1.721	-0.285	0.167	0.451	0.200	0.891	66.406
-1.402	-0.787	-0.653	-0.625	-1.364	0.259	1.248	2.136	3.068	2.415	4.159	2.210	-1.575	-2.340	-0.639	-2.275	-1.818	-0.596	-1.945	-2.773	-3.222	-2.382	-1.800	-0.168	0.573	1.066	0.442	1.148	70.312
-1.606	-0.875	-0.859	-0.712	-1.435	0.134	1.386	2.207	3.346	2.827	4.595	2.548	-1.721	-2.537	-0.922	-2.540	-1.986	-0.773	-2.062	-3.002	-3.452	-2.436	-1.850	-0.013	0.992	1.734	0.710	1.399	74.219
-1.789	-0.957	-1.047	-0.835	-1.515	0.002	1.508	2.244	3.588	3.187	4.980	2.853	-1.836	-2.706	-1.207	-2.762	-2.126	-0.956	-2.142	-3.190	-3.638	-2.444	-1.856	0.180	1.406	2.418	0.986	1.627	78.125
-1.943	-1.031	-1.219	-0.996	-1.612	-0.143	1.585	2.238	3.766	3.441	5.267	3.090	-1.927	-2.842	-1.463	-2.923	-2.219	-1.120	-2.173	-3.326	-3.773	-2.399	-1.803	0.407	1.810	3.093	1.253	1.815	82.031
-2.067	-1.097	-1.382	-1.192	-1.730	-0.306	1.592	2.189	3.864	3.547	5.420	3.231	-2.002	-2.945	-1.666	-3.010	-2.258	-1.247	-2.149	-3.407	-3.856	-2.300	-1.685	0.666	2.207	3.743	1.496	1.954	85.938
-2.166	-1.158	-1.544	-1.409	-1.870	-0.488	1.512	2.106	3.881	3.482	5.421	3.260	-2.072	-3.018	-1.804	-3.025	-2.243	-1.325	-2.072	-3.434	-3.890	-2.150	-1.500	0.952	2.608	4.365	1.706	2.036	89.844
-2.249	-1.218	-1.712	-1.632	-2.027	-0.686	1.342	2.003	3.829	3.250	5.271	3.175	-2.144	-3.063	-1.876	-2.974	-2.188	-1.351	-1.951	-3.413	-3.880	-1.958	-1.255	1.261	3.031	4.963	1.880	2.060	93.750
-2.326	-1.281	-1.890	-1.846	-2.193	-0.890	1.093	1.898	3.734	2.876	4.991	2.989	-2.223	-3.083	-1.892	-2.874	-2.110	-1.328	-1.799	-3.353	-3.830	-1.738	-0.965	1.583	3.485	5.541	2.017	2.031	97.656
-2.404	-1.350	-2.076	-2.038	-2.356	-1.090	0.788	1.807	3.627	2.403	4.619	2.725	-2.308	-3.080	-1.869	-2.741	-2.028	-1.269	-1.631	-3.262	-3.745	-1.502	-0.650	1.905	3.971	6.095	2.117	1.955	101.562
-2.485	-1.424	-2.259	-2.196	-2.501	-1.272	0.456	1.741	3.536	1.883	4.195	2.408	-2.391	-3.054	-1.824	-2.589	-1.954	-1.183	-1.460	-3.147	-3.627	-1.264	-0.332	2.210	4.469	6.602	2.180	1.835	105.469
-2.564	-1.495	-2.427	-2.309	-2.611	-1.422	0.132	1.704	3.482	1.369	3.758	2.067	-2.463	-2.999	-1.769	-2.428	-1.893	-1.082	-1.296	-3.003	-3.471	-1.034	-0.035	2.476	4.939	7.020	2.200	1.675	109.375
-2.628	-1.545	-2.564	-2.363	-2.665	-1.527	-0.152	1.694	3.472	0.903	3.338	1.722	-2.510	-2.910	-1.709	-2.255	-1.841	-0.973	-1.143	-2.824	-3.270	-0.817	0.222	2.679	5.321	7.284	2.165	1.469	113.281
-2.661	-1.551	-2.656	-2.343	-2.641	-1.573	-0.370	1.702	3.497	0.515	2.952	1.384	-2.519	-2.775	-1.640	-2.061	-1.783	-0.861	-0.998	-2.593	-3.012	-0.617	0.422	2.794	5.545	7.323	2.061	1.210	117.188
-2.643	-1.488	-2.692	-2.234	-2.523	-1.549	-0.506	1.717	3.538	0.221	2.606	1.060	-2.479	-2.583	-1.552	-1.834	-1.704	-0.747	-0.857	-2.294	-2.684	-0.430	0.559	2.803	5.543	7.067	1.874	0.885	121.094
-2.558	-1.334	-2.664	-2.023	-2.298	-1.448	-0.553	1.726	3.566	0.022	2.298	0.750	-2.386	-2.328	-1.435	-1.562	-1.588	-0.634	-0.715	-1.914	-2.280	-0.256	0.628	2.697	5.264	6.471	1.592	0.488	125.000
-2.400	-1.076	-2.563	-1.707	-1.969	-1.270	-0.514	1.723	3.558	-0.087	2.025	0.453	-2.245	-2.008	-1.282	-1.238	-1.427	-0.520	-0.568	-1.454	-1.803	-0.093	0.634	2.477	4.686	5.524	1.218	0.018	128.906
-2.173	-0.719	-2.384	-1.293	-1.550	-1.024	-0.398	1.705	3.497	-0.118	1.790	0.173	-2.067	-1.635	-1.089	-0.871	-1.223	-0.407	-0.422	-0.927	-1.271	0.054	0.584	2.158	3.824	4.262	0.762	-0.509	132.812
-1.897	-0.284	-2.128	-0.807	-1.073	-0.728	-0.220	1.677	3.382	-0.079	1.600	-0.078	-1.870	-1.229	-0.868	-0.479	-0.988	-0.296	-0.285	-0.365	-0.715	0.179	0.489	1.769	2.734	2.765	0.255	-1.063	136.719
-1.602	0.186	-1.808	-0.288	-0.579	-0.407	0.004	1.649	3.228	0.022	1.475	-0.279	-1.676	-0.821	-0.634	-0.094	-0.742	-0.190	-0.170	0.187	-0.178	0.275	0.364	1.351	1.505	1.154	-0.263	-1.599	140.625
-1.327	0.639	-1.452	0.214	-0.117	-0.091	0.258	1.635	3.065	0.187	1.437	-0.405	-1.505	-0.448	-0.414	0.242	-0.513	-0.097	-0.094	0.676	0.290	0.331	0.222	0.947	0.249	-0.429	-0.739	-2.059	144.531
-1.110	1.018	-1.097	0.646	0.267	0.189	0.532	1.649	2.931	0.419	1.511	-0.424	-1.371	-0.148	-0.238	0.486	-0.339	-0.029	-0.078	1.048	0.643	0.336	0.073	0.602	-0.916	-1.835	-1.119	-2.384	148.438
-0.985	1.274	-0.790	0.961	0.539	0.408	0.816	1.705	2.873	0.731	1.720	-0.308	-1.284	0.044	-0.139	0.598	-0.255	-0.006	-0.143	1.256	0.842	0.278	-0.077	0.351	-1.884	-2.931	-1.355	-2.521	152.344
-0.973	1.371	-0.573	1.128	0.676	0.549	1.108	1.814	2.931	1.135	2.080	-0.033	-1.245	0.105	-0.146	0.549	-0.302	-0.055	-0.311	1.270	0.860	0.143	-0.232	0.218	-2.573	-3.611	-1.405	-2.427	156.250
-1.085	1.292	-0.484	1.132	0.675	0.608	1.409	1.985	3.141	1.644	2.601	0.418	-1.246	0.022	-0.279	0.320	-0.513	-0.204	-0.602	1.073	0.687	-0.083	-0.401	0.212	-2.932	-3.812	-1.248	-2.079	160.156
-1.322	1.040	-0.545	0.976	0.548	0.587	1.723	2.223	3.524	2.268	3.281	1.047	-1.274	-0.203	-0.550	-0.088	-0.907	-0.477	-1.027	0.671	0.331	-0.408	-0.595	0.332	-2.949	-3.513	-0.876	-1.473	164.062
-1.674	0.634	-0.765	0.676	0.318	0.497	2.055	2.527	4.084	3.008	4.111	1.846	-1.313	-0.551	-0.957	-0.665	-1.490	-0.889	-1.585	0.084	-0.187	-0.830	-0.827	0.564	-2.646	-2.739	-0.302	-0.631	167.969
-2.125	0.107	-1.134	0.259	0.013	0.351	2.408	2.893	4.808	3.854	5.067	2.789	-1.345	-0.995	-1.486	-1.383	-2.241	-1.438	-2.260	-0.651	-0.832	-1.338	-1.101	0.889	-2.066	-1.552	0.449	0.409	171.875
-2.655	-0.504	-1.623	-0.247	-0.334	0.166	2.778	3.310	5.664	4.784	6.118	3.842	-1.356	-1.496	-2.115	-2.208	-3.121	-2.102	-3.018	-1.489	-1.562	-1.909	-1.418	1.287	-1.274	-0.043	1.335	1.590	175.781
-3.241	-1.156	-2.192	-0.810	-0.696	-0.044	3.157	3.759	6.602	5.760	7.219	4.956	-1.335	-2.017	-2.815	-3.097	-4.071	-2.845	-3.815	-2.381	-2.335	-2.509	-1.767	1.739	-0.335	1.685	2.309	2.847	179.688
-3.858	-1.814	-2.791	-1.400	-1.051	-0.267	3.531	4.217	7.569	6.736	8.320	6.077	-1.281	-2.521	-3.551	-4.007	-5.025	-3.618	-4.601	-3.278	-3.109	-3.103	-2.133	2.224	0.684	3.521	3.321	4.115	183.594
-4.478	-2.446	-3.368	-1.988	-1.384	-0.495	3.881	4.660	8.507	7.663	9.369	7.149	-1.197	-2.982	-4.286	-4.893	-5.921	-4.368	-5.329	-4.138	-3.851	-3.657	-2.497	2.726	1.728	5.364	4.319	5.330	187.500
-5.076	-3.028	-3.879	-2.548	-1.687	-0.723	4.188	5.063	9.369	8.495	10.316	8.124	-1.096	-3.381	-4.984	-5.717	-6.707	-5.051	-5.965	-4.930	-4.536	-4.146	-2.839	3.227	2.749	7.122	5.258	6.440	191.406
-5.629	-3.543	-4.294	-3.059	-1.955	-0.943	4.437	5.412	10.123	9.198	11.124	8.961	-0.991	-3.713	-5.613	-6.448	-7.354	-5.632	-6.492	-5.633	-5.147	-4.558	-3.143	3.709	3.711	8.725	6.101	7.407	195.312
-6.116	-3.980	-4.597	-3.502	-2.187	-1.147	4.621	5.700	10.756	9.756	11.769	9.636	-0.897	-3.980	-6.149	-7.068	-7.856	-6.096	-6.910	-6.241	-5.679	-4.892	-3.398	4.154	4.586	10.120	6.819	8.206	199.219
-6.526	-4.335	-4.787	-3.864	-2.379	-1.325	4.743	5.933	11.273	10.168	12.247	10.141	-0.827	-4.193	-6.579	-7.571	-8.229	-6.446	-7.234	-6.760	-6.133	-5.156	-3.601	4.545	5.354	11.275	7.396	8.826	203.125
-6.849	-4.606	-4.876	-4.137	-2.528	-1.463	4.812	6.125	11.692	10.451	12.570	10.481	-0.786	-4.362	-6.902	-7.963	-8.506	-6.700	-7.489	-7.205	-6.515	-5.368	-3.752	4.868	6.001	12.178	7.825	9.269	207.031
-7.087	-4.796	-4.887	-4.320	-2.632	-1.547	4.845	6.297	12.039	10.632	12.761	10.674	-0.776	-4.500	-7.127	-8.261	-8.724	-6.886	-7.699	-7.592	-6.833	-5.544	-3.859	5.112	6.522	12.833	8.111	9.546	210.938
-7.244	-4.911	-4.843	-4.417	-2.688	-1.568	4.859	6.466	12.337	10.739	12.849	10.746	-0.792	-4.612	-7.271	-8.485	-8.920	-7.032	-7.887	-7.939	-7.094	-5.699	-3.930	5.274	6.918	13.261	8.266	9.675	214.844
-7.332	-4.962	-4.769	-4.438	-2.697	-1.523	4.867	6.644	12.602	10.796	12.861	10.722	-0.823	-4.701	-7.355	-8.656	-9.119	-7.160	-8.064	-8.254	-7.299	-5.841	-3.976	5.357	7.198	13.490	8.308	9.679	218.750
-7.361	-4.963	-4.680	-4.397	-2.660	-1.420	4.876	6.832	12.835	10.817	12.815	10.621	-0.860	-4.759	-7.396	-8.789	-9.329	-7.279	-8.230	-8.539	-7.444	-5.970	-4.003	5.367	7.373	13.549	8.255	9.577	222.656
-7.341	-4.928	-4.585	-4.307	-2.581	-1.271	4.890	7.019	13.027	10.805	12.717	10.458	-0.890	-4.776	-7.408	-8.892	-9.542	-7.383	-8.377	-8.781	-7.516	-6.080	-4.013	5.314	7.456	13.466	8.126	9.388	226.562
-7.283	-4.871	-4.487	-4.179	-2.466	-1.096	4.904	7.188	13.154	10.749	12.561	10.237	-0.905	-4.736	-7.397	-8.963	-9.737	-7.461	-8.488	-8.960	-7.500	-6.156	-4.007	5.210	7.456	13.261	7.931	9.123	230.469
-7.189	-4.800	-4.385	-4.020	-2.320	-0.912	4.915	7.313	13.192	10.636	12.335	9.956	-0.900	-4.624	-7.363	-8.995	-9.885	-7.498	-8.546	-9.049	-7.376	-6.183	-3.982	5.067	7.380	12.947	7.681	8.787	234.375
-7.063	-4.719	-4.282	-3.830	-2.145	-0.736	4.916	7.373	13.115	10.448	12.022	9.609	-0.870	-4.424	-7.302	-8.971	-9.957	-7.483	-8.536	-9.025	-7.130	-6.146	-3.935	4.898	7.234	12.531	7.383	8.382	238.281
-6.906	-4.625	-4.185	-3.608	-1.946	-0.580	4.906	7.350	12.904	10.171	11.606	9.191	-0.816	-4.130	-7.209	-8.879	-9.929	-7.412	-8.447	-8.867	-6.754	-6.033	-3.860	4.716	7.018	12.020	7.041	7.910	242.188
-6.718	-4.513	-4.103	-3.353	-1.725	-0.450	4.881	7.233	12.554	9.799	11.081	8.704	-0.735	-3.739	-7.077	-8.703	-9.787	-7.285	-8.275	-8.568	-6.250	-5.838	-3.755	4.535	6.738	11.424	6.667	7.376	246.094
-6.503	-4.375	-4.047	-3.065	-1.486	-0.349	4.842	7.023	12.069	9.334	10.448	8.155	-0.627	-3.258	-6.906	-8.439	-9.533	-7.109	-8.024	-8.132	-5.629	-5.565	-3.621	4.367	6.402	10.759	6.271	6.791	250.000
-6.267	-4.205	-4.023	-2.746	-1.228	-0.273	4.785	6.726	11.464	8.787	9.721	7.558	-0.491	-2.702	-6.701	-8.084	-9.182	-6.893	-7.703	-7.574	-4.913	-5.222	-3.462	4.227	6.023	10.053	5.873	6.175	253.906
-6.019	-3.997	-4.035	-2.401	-0.953	-0.217	4.710	6.355	10.762	8.174	8.920	6.934	-0.328	-2.094	-6.472	-7.648	-8.757	-6.648	-7.328	-6.919	-4.126	-4.825	-3.283	4.129	5.623	9.339	5.490	5.550	257.812
-5.772	-3.752	-4.083	-2.036	-0.659	-0.174	4.613	5.925	9.994	7.517	8.074	6.306	-0.137	-1.456	-6.234	-7.145	-8.289	-6.383	-6.914	-6.196	-3.297	-4.391	-3.090	4.084	5.224	8.652	5.143	4.940	261.719
-5.537	-3.472	-4.167	-1.660	-0.348	-0.135	4.495	5.453	9.188	6.841	7.214	5.697	0.079	-0.814	-6.001	-6.594	-7.810	-6.113	-6.477	-5.432	-2.451	-3.935	-2.887	4.101	4.852	8.024	4.846	4.366	265.625
-5.327	-3.169	-4.285	-1.285	-0.023	-0.097	4.358	4.956	8.377	6.170	6.371	5.125	0.315	-0.189	-5.787	-6.021	-7.346	-5.850	-6.034	-4.656	-1.612	-3.470	-2.676	4.185	4.531	7.479	4.611	3.841	269.531
-5.151	-2.856	-4.437	-0.925	0.310	-0.058	4.207	4.451	7.591	5.529	5.573	4.605	0.566	0.402	-5.602	-5.452	-6.917	-5.609	-5.596	-3.892	-0.799	-3.004	-2.458	4.334	4.276	7.028	4.442	3.373	273.438
-5.017	-2.549	-4.616	-0.590	0.643	-0.020	4.056	3.954	6.856	4.941	4.842	4.149	0.826	0.949	-5.455	-4.911	-6.532	-5.406	-5.174	-3.160	-0.029	-2.542	-2.231	4.545	4.094	6.671	4.336	2.963	277.344
-4.931	-2.261	-4.815	-0.291	0.969	0.009	3.920	3.482	6.198	4.429	4.196	3.762	1.095	1.450	-5.353	-4.419	-6.196	-5.253	-4.777	-2.473	0.689	-2.087	-1.997	4.807	3.980	6.394	4.289	2.608	281.250
-4.894	-2.002	-5.021	-0.031	1.281	0.027	3.819	3.055	5.636	4.009	3.647	3.448	1.372	1.909	-5.300	-3.989	-5.905	-5.159	-4.411	-1.839	1.349	-1.643	-1.757	5.107	3.917	6.177	4.291	2.301	285.156
-4.907	-1.774	-5.220	0.191	1.580	0.031	3.772	2.686	5.185	3.693	3.204	3.209	1.661	2.341	-5.301	-3.628	-5.650	-5.127	-4.080	-1.258	1.956	-1.213	-1.517	5.433	3.878	5.994	4.332	2.036	289.062
-4.968	-1.572	-5.404	0.384	1.867	0.023	3.796	2.386	4.848	3.490	2.867	3.045	1.972	2.759	-5.354	-3.331	-5.422	-5.152	-3.785	-0.723	2.516	-0.802	-1.286	5.767	3.834	5.817	4.402	1.807	292.969
-5.071	-1.389	-5.569	0.556	2.150	0.009	3.900	2.161	4.623	3.397	2.633	2.953	2.309	3.181	-5.459	-3.088	-5.208	-5.226	-3.522	-0.220	3.043	-0.413	-1.073	6.098	3.755	5.628	4.495	1.609	296.875
-5.211	-1.215	-5.724	0.718	2.435	-0.001	4.083	2.007	4.497	3.406	2.497	2.931	2.677	3.616	-5.607	-2.881	-5.002	-5.337	-3.287	0.262	3.548	-0.049	-0.884	6.413	3.619	5.414	4.603	1.441	300.781
-5.375	-1.044	-5.886	0.876	2.728	0.003	4.334	1.918	4.448	3.499	2.447	2.971	3.076	4.070	-5.785	-2.695	-4.796	-5.471	-3.075	0.732	4.038	0.287	-0.723	6.703	3.417	5.173	4.724	1.300	304.688
-5.555	-0.874	-6.076	1.034	3.030	0.030	4.634	1.881	4.448	3.653	2.470	3.065	3.497	4.539	-5.974	-2.515	-4.589	-5.615	-2.879	1.194	4.514	0.598	-0.588	6.964	3.153	4.911	4.851	1.185	308.594
-5.739	-0.707	-6.315	1.194	3.337	0.087	4.956	1.879	4.466	3.838	2.547	3.199	3.927	5.010	-6.152	-2.331	-4.383	-5.752	-2.695	1.644	4.970	0.886	-0.474	7.192	2.841	4.640	4.981	1.095	312.500
-5.914	-0.549	-6.612	1.353	3.637	0.173	5.271	1.898	4.471	4.025	2.660	3.355	4.348	5.464	-6.297	-2.137	-4.179	-5.868	-2.519	2.069	5.391	1.153	-0.371	7.385	2.504	4.370	5.106	1.024	316.406
-6.069	-0.408	-6.961	1.507	3.918	0.280	5.551	1.922	4.436	4.183	2.785	3.512	4.737	5.879	-6.389	-1.934	-3.982	-5.949	-2.352	2.453	5.761	1.402	-0.271	7.543	2.172	4.115	5.218	0.966	320.312
-6.194	-0.291	-7.342	1.652	4.162	0.395	5.769	1.936	4.342	4.285	2.899	3.648	5.075	6.235	-6.417	-1.728	-3.795	-5.980	-2.194	2.779	6.066	1.633	-0.164	7.665	1.870	3.881	5.306	0.914	324.219
-6.277	-0.204	-7.722	1.786	4.353	0.498	5.909	1.927	4.178	4.313	2.981	3.744	5.343	6.514	-6.381	-1.525	-3.619	-5.955	-2.047	3.033	6.296	1.849	-0.042	7.754	1.625	3.675	5.364	0.862	328.125
-6.316	-0.148	-8.067	1.905	4.479	0.573	5.961	1.886	3.946	4.257	3.015	3.788	5.529	6.709	-6.288	-1.335	-3.454	-5.868	-1.912	3.209	6.448	2.049	0.099	7.811	1.453	3.500	5.387	0.811	332.031
-6.307	-0.122	-8.349	2.011	4.532	0.604	5.923	1.809	3.656	4.118	2.990	3.775	5.628	6.819	-6.154	-1.168	-3.302	-5.722	-1.787	3.303	6.526	2.233	0.264	7.838	1.362	3.357	5.376	0.761	335.938
-6.255	-0.120	-8.550	2.104	4.512	0.583	5.806	1.698	3.329	3.909	2.909	3.711	5.645	6.852	-5.999	-1.028	-3.159	-5.527	-1.669	3.324	6.540	2.402	0.454	7.838	1.350	3.244	5.334	0.717	339.844
-6.166	-0.134	-8.664	2.188	4.427	0.513	5.625	1.560	2.988	3.646	2.780	3.604	5.590	6.826	-5.841	-0.916	-3.024	-5.297	-1.554	3.285	6.507	2.556	0.667	7.814	1.403	3.154	5.265	0.682	343.750
-6.049	-0.150	-8.696	2.269	4.291	0.406	5.397	1.404	2.657	3.351	2.615	3.468	5.481	6.760	-5.691	-0.826	-2.890	-5.051	-1.434	3.209	6.446	2.698	0.898	7.765	1.499	3.074	5.175	0.653	347.656
-5.911	-0.151	-8.654	2.354	4.128	0.282	5.143	1.243	2.353	3.041	2.427	3.310	5.335	6.675	-5.555	-0.745	-2.749	-4.807	-1.303	3.123	6.377	2.832	1.139	7.688	1.608	2.988	5.062	0.622	351.562
-5.755	-0.116	-8.551	2.454	3.963	0.167	4.879	1.089	2.088	2.726	2.228	3.135	5.169	6.590	-5.427	-0.653	-2.592	-4.582	-1.154	3.056	6.319	2.962	1.380	7.576	1.697	2.876	4.921	0.574	355.469
-5.585	-0.029	-8.399	2.579	3.824	0.089	4.615	0.953	1.866	2.410	2.024	2.942	4.993	6.517	-5.298	-0.530	-2.410	-4.385	-0.983	3.037	6.285	3.093	1.609	7.423	1.739	2.720	4.745	0.490	359.375
-5.401	0.122	-8.213	2.734	3.730	0.071	4.359	0.842	1.688	2.092	1.818	2.728	4.809	6.461	-5.155	-0.362	-2.201	-4.223	-0.791	3.081	6.282	3.225	1.818	7.223	1.719	2.513	4.527	0.354	363.281
-5.205	0.334	-8.006	2.920	3.693	0.124	4.113	0.762	1.550	1.768	1.614	2.489	4.615	6.416	-4.989	-0.144	-1.967	-4.093	-0.585	3.194	6.306	3.359	2.000	6.977	1.635	2.259	4.264	0.162	367.188
-5.001	0.588	-7.794	3.124	3.709	0.242	3.875	0.716	1.452	1.435	1.415	2.228	4.401	6.373	-4.799	0.113	-1.721	-3.988	-0.376	3.363	6.344	3.490	2.153	6.694	1.507	1.981	3.963	-0.082	371.094
-4.800	0.854	-7.591	3.325	3.760	0.406	3.642	0.704	1.393	1.096	1.226	1.953	4.160	6.318	-4.590	0.387	-1.482	-3.898	-0.182	3.559	6.380	3.614	2.278	6.392	1.370	1.716	3.641	-0.355	375.000
-4.612	1.091	-7.413	3.491	3.819	0.586	3.413	0.721	1.371	0.754	1.053	1.677	3.887	6.236	-4.372	0.646	-1.270	-3.806	-0.018	3.746	6.391	3.722	2.383	6.096	1.267	1.506	3.322	-0.627	378.906
-4.452	1.261	-7.273	3.593	3.855	0.745	3.186	0.760	1.383	0.416	0.899	1.413	3.581	6.119	-4.159	0.854	-1.105	-3.697	0.103	3.885	6.361	3.808	2.475	5.831	1.241	1.389	3.031	-0.865	382.812
-4.329	1.338	-7.176	3.607	3.844	0.854	2.963	0.810	1.417	0.084	0.759	1.171	3.251	5.966	-3.959	0.988	-0.998	-3.552	0.173	3.950	6.284	3.868	2.562	5.620	1.320	1.387	2.788	-1.043	386.719
-4.244	1.317	-7.125	3.527	3.778	0.895	2.743	0.856	1.454	-0.241	0.621	0.950	2.910	5.785	-3.776	1.036	-0.950	-3.356	0.198	3.933	6.163	3.901	2.650	5.471	1.508	1.495	2.603	-1.151	390.625
-4.189	1.214	-7.109	3.364	3.665	0.868	2.530	0.884	1.468	-0.569	0.461	0.739	2.577	5.593	-3.609	1.011	-0.948	-3.093	0.190	3.846	6.019	3.912	2.740	5.380	1.786	1.676	2.465	-1.201	394.531
-4.148	1.066	-7.110	3.147	3.527	0.791	2.323	0.882	1.433	-0.909	0.256	0.516	2.271	5.412	-3.447	0.939	-0.966	-2.754	0.168	3.721	5.877	3.906	2.832	5.327	2.107	1.874	2.352	-1.225	398.438
-4.097	0.919	-7.103	2.916	3.400	0.696	2.124	0.838	1.325	-1.270	-0.018	0.256	2.009	5.262	-3.276	0.859	-0.976	-2.337	0.158	3.598	5.769	3.896	2.923	5.282	2.413	2.016	2.230	-1.267	402.344
-4.016	0.819	-7.058	2.716	3.318	0.617	1.934	0.750	1.131	-1.660	-0.374	-0.062	1.803	5.162	-3.082	0.808	-0.948	-1.853	0.180	3.517	5.720	3.892	3.008	5.209	2.644	2.035	2.063	-1.372	406.250
-3.888	0.799	-6.949	2.583	3.306	0.585	1.752	0.617	0.848	-2.078	-0.811	-0.451	1.659	5.121	-2.851	0.819	-0.861	-1.327	0.254	3.508	5.748	3.904	3.085	5.078	2.749	1.880	1.823	-1.578	410.156
-3.707	0.875	-6.758	2.539	3.376	0.617	1.578	0.447	0.490	-2.516	-1.312	-0.908	1.570	5.141	-2.576	0.909	-0.705	-0.795	0.386	3.586	5.861	3.942	3.152	4.867	2.701	1.532	1.495	-1.900	414.062
-3.477	1.040	-6.477	2.588	3.526	0.716	1.411	0.249	0.079	-2.961	-1.845	-1.413	1.525	5.213	-2.256	1.077	-0.486	-0.300	0.576	3.746	6.052	4.010	3.211	4.574	2.498	1.003	1.083	-2.329	417.969
-3.217	1.266	-6.118	2.715	3.734	0.869	1.251	0.037	-0.354	-3.393	-2.371	-1.935	1.504	5.320	-1.903	1.304	-0.221	0.122	0.813	3.965	6.302	4.106	3.263	4.213	2.167	0.342	0.612	-2.830	421.875
-2.950	1.513	-5.710	2.893	3.970	1.053	1.099	-0.175	-0.775	-3.795	-2.848	-2.432	1.486	5.443	-1.534	1.558	0.060	0.443	1.075	4.208	6.585	4.224	3.311	3.811	1.757	-0.378	0.121	-3.350	425.781
-2.702	1.734	-5.296	3.083	4.200	1.238	0.953	-0.372	-1.155	-4.150	-3.243	-2.864	1.448	5.558	-1.176	1.796	0.325	0.655	1.334	4.430	6.864	4.350	3.357	3.406	1.328	-1.074	-0.345	-3.823	429.688
-2.495	1.887	-4.923	3.249	4.388	1.398	0.817	-0.545	-1.473	-4.449	-3.533	-3.196	1.375	5.642	-0.859	1.976	0.541	0.768	1.561	4.586	7.102	4.468	3.403	3.038	0.943	-1.666	-0.740	-4.188	433.594
-2.342	1.946	-4.638	3.362	4.507	1.510	0.690	-0.689	-1.718	-4.686	-3.711	-3.407	1.262	5.681	-0.609	2.063	0.684	0.809	1.729	4.642	7.269	4.560	3.449	2.738	0.651	-2.097	-1.027	-4.397	437.500
-2.242	1.904	-4.472	3.406	4.543	1.565	0.575	-0.804	-1.890	-4.864	-3.784	-3.489	1.110	5.662	-0.447	2.041	0.741	0.812	1.820	4.579	7.342	4.611	3.494	2.524	0.479	-2.338	-1.189	-4.426	441.406
-2.188	1.777	-4.435	3.382	4.494	1.563	0.475	-0.896	-1.997	-4.985	-3.768	-3.453	0.934	5.587	-0.379	1.911	0.715	0.811	1.828	4.399	7.313	4.612	3.533	2.399	0.427	-2.397	-1.225	-4.276	445.312
-2.165	1.593	-4.518	3.307	4.372	1.515	0.396	-0.972	-2.055	-5.057	-3.688	-3.319	0.753	5.460	-0.398	1.692	0.623	0.830	1.760	4.125	7.191	4.561	3.561	2.347	0.470	-2.310	-1.154	-3.977	449.219
-2.157	1.392	-4.690	3.204	4.199	1.437	0.343	-1.040	-2.080	-5.083	-3.566	-3.116	0.588	5.294	-0.481	1.422	0.487	0.880	1.636	3.797	6.997	4.465	3.570	2.343	0.564	-2.137	-1.010	-3.577	453.125
-2.150	1.210	-4.906	3.100	4.001	1.347	0.321	-1.107	-2.085	-5.069	-3.420	-2.875	0.455	5.105	-0.600	1.140	0.335	0.960	1.481	3.459	6.762	4.335	3.552	2.355	0.658	-1.941	-0.829	-3.134	457.031
-2.135	1.071	-5.115	3.011	3.803	1.259	0.331	-1.179	-2.081	-5.016	-3.262	-2.621	0.366	4.909	-0.722	0.884	0.191	1.054	1.324	3.156	6.518	4.187	3.499	2.354	0.708	-1.773	-0.648	-2.700	460.938
-2.108	0.982	-5.270	2.943	3.626	1.180	0.371	-1.255	-2.074	-4.928	-3.097	-2.374	0.322	4.719	-0.820	0.681	0.069	1.139	1.185	2.919	6.294	4.034	3.406	2.317	0.686	-1.666	-0.494	-2.315	464.844
-2.071	0.934	-5.337	2.890	3.479	1.114	0.436	-1.330	-2.063	-4.806	-2.921	-2.146	0.316	4.544	-0.878	0.540	-0.028	1.190	1.078	2.761	6.107	3.887	3.272	2.236	0.584	-1.627	-0.381	-2.001	468.750
-2.029	0.909	-5.298	2.838	3.365	1.059	0.516	-1.393	-2.044	-4.653	-2.730	-1.936	0.331	4.387	-0.891	0.452	-0.108	1.184	1.002	2.676	5.965	3.751	3.102	2.111	0.415	-1.640	-0.311	-1.758	472.656
-1.990	0.889	-5.158	2.772	3.281	1.015	0.602	-1.434	-2.010	-4.476	-2.518	-1.739	0.350	4.246	-0.864	0.399	-0.186	1.108	0.950	2.646	5.861	3.627	2.904	1.954	0.208	-1.672	-0.273	-1.570	476.562
-1.961	0.858	-4.940	2.684	3.219	0.983	0.684	-1.442	-1.957	-4.282	-2.281	-1.547	0.349	4.118	-0.812	0.357	-0.274	0.955	0.907	2.642	5.784	3.511	2.693	1.780	-0.001	-1.684	-0.251	-1.409	480.469
-1.947	0.813	-4.681	2.575	3.169	0.965	0.753	-1.413	-1.882	-4.081	-2.020	-1.350	0.312	3.995	-0.752	0.306	-0.383	0.732	0.861	2.640	5.718	3.401	2.483	1.606	-0.174	-1.642	-0.228	-1.250	484.375
-1.949	0.758	-4.422	2.456	3.125	0.965	0.805	-1.349	-1.788	-3.881	-1.741	-1.141	0.228	3.875	-0.697	0.234	-0.509	0.454	0.803	2.621	5.653	3.294	2.288	1.446	-0.289	-1.527	-0.190	-1.069	488.281
-1.965	0.703	-4.202	2.348	3.086	0.984	0.839	-1.258	-1.684	-3.692	-1.455	-0.921	0.094	3.756	-0.658	0.144	-0.639	0.144	0.733	2.584	5.585	3.193	2.120	1.309	-0.336	-1.340	-0.131	-0.858	492.188
-1.988	0.663	-4.049	2.270	3.050	1.021	0.857	-1.156	-1.579	-3.522	-1.176	-0.695	-0.081	3.643	-0.636	0.052	-0.752	-0.170	0.662	2.540	5.521	3.102	1.986	1.194	-0.328	-1.104	-0.054	-0.620	496.094
-2.011	0.651	-3.973	2.240	3.022	1.073	0.864	-1.058	-1.488	-3.376	-0.921	-0.474	-0.281	3.547	-0.622	-0.017	-0.820	-0.460	0.608	2.509	5.474	3.031	1.891	1.099	-0.290	-0.859	0.032	-0.374	500.000
-2.026	0.677	-3.973	2.268	3.008	1.132	0.864	-0.984	-1.423	-3.259	-0.707	-0.273	-0.483	3.481	-0.606	-0.034	-0.817	-0.703	0.591	2.519	5.462	2.991	1.834	1.015	-0.261	-0.653	0.109	-0.146	503.906
-2.025	0.744	-4.033	2.353	3.012	1.188	0.863	-0.950	-1.398	-3.171	-0.549	-0.110	-0.662	3.459	-0.573	0.025	-0.725	-0.879	0.631	2.592	5.504	2.992	1.817	0.936	-0.276	-0.534	0.162	0.030	507.812
-2.002	0.849	-4.138	2.485	3.037	1.229	0.862	-0.970	-1.420	-3.115	-0.457	-0.001	-0.797	3.493	-0.511	0.175	-0.537	-0.976	0.742	2.743	5.611	3.042	1.837	0.858	-0.365	-0.538	0.174	0.125	511.719
-1.956	0.983	-4.266	2.647	3.084	1.248	0.862	-1.048	-1.496	-3.088	-0.438	0.040	-0.875	3.588	-0.411	0.419	-0.262	-0.992	0.931	2.976	5.786	3.144	1.895	0.779	-0.541	-0.683	0.135	0.113	515.625
-1.889	1.138	-4.400	2.819	3.151	1.244	0.859	-1.183	-1.625	-3.091	-0.494	0.003	-0.895	3.741	-0.272	0.742	0.080	-0.932	1.190	3.280	6.021	3.298	1.988	0.701	-0.800	-0.963	0.039	-0.021	519.531
-1.806	1.303	-4.524	2.984	3.237	1.221	0.852	-1.361	-1.800	-3.121	-0.618	-0.115	-0.866	3.936	-0.098	1.120	0.456	-0.809	1.504	3.634	6.300	3.494	2.113	0.628	-1.121	-1.355	-0.114	-0.278	523.438
-1.718	1.470	-4.622	3.130	3.339	1.194	0.838	-1.558	-2.007	-3.177	-0.800	-0.311	-0.807	4.151	0.102	1.518	0.833	-0.645	1.846	4.009	6.597	3.715	2.260	0.562	-1.471	-1.818	-0.316	-0.647	527.344
-1.633	1.632	-4.685	3.254	3.454	1.182	0.818	-1.745	-2.229	-3.255	-1.025	-0.573	-0.743	4.358	0.315	1.898	1.175	-0.462	2.186	4.371	6.882	3.939	2.417	0.506	-1.809	-2.304	-0.558	-1.104	531.250
-1.557	1.784	-4.702	3.353	3.574	1.198	0.793	-1.891	-2.445	-3.350	-1.272	-0.884	-0.701	4.525	0.528	2.222	1.456	-0.282	2.492	4.686	7.125	4.140	2.570	0.455	-2.097	-2.767	-0.826	-1.613	535.156
-1.496	1.915	-4.665	3.426	3.685	1.253	0.765	-1.970	-2.637	-3.455	-1.520	-1.220	-0.701	4.627	0.729	2.462	1.662	-0.121	2.737	4.926	7.298	4.294	2.701	0.406	-2.307	-3.167	-1.103	-2.131	539.062
-1.448	2.017	-4.572	3.474	3.772	1.344	0.736	-1.964	-2.789	-3.561	-1.748	-1.553	-0.757	4.645	0.910	2.598	1.788	0.008	2.901	5.071	7.380	4.379	2.795	0.352	-2.424	-3.481	-1.375	-2.614	542.969
-1.406	2.079	-4.422	3.497	3.818	1.460	0.709	-1.870	-2.889	-3.657	-1.936	-1.857	-0.867	4.573	1.064	2.627	1.843	0.102	2.975	5.113	7.363	4.385	2.841	0.285	-2.447	-3.700	-1.625	-3.021	546.875
-1.361	2.097	-4.220	3.495	3.813	1.585	0.687	-1.697	-2.933	-3.734	-2.073	-2.109	-1.020	4.416	1.186	2.557	1.843	0.163	2.960	5.054	7.245	4.307	2.833	0.199	-2.394	-3.834	-1.841	-3.322	550.781
-1.304	2.071	-3.977	3.475	3.753	1.700	0.671	-1.462	-2.923	-3.784	-2.155	-2.294	-1.195	4.190	1.273	2.408	1.805	0.194	2.865	4.911	7.041	4.153	2.767	0.089	-2.292	-3.903	-2.017	-3.500	554.688
-1.227	2.011	-3.707	3.449	3.645	1.793	0.664	-1.190	-2.865	-3.804	-2.184	-2.404	-1.365	3.918	1.325	2.209	1.743	0.204	2.707	4.708	6.771	3.936	2.647	-0.044	-2.173	-3.935	-2.149	-3.554	558.594
-1.127	1.932	-3.430	3.434	3.508	1.856	0.669	-0.904	-2.770	-3.795	-2.171	-2.444	-1.504	3.627	1.343	1.991	1.665	0.197	2.503	4.474	6.462	3.676	2.480	-0.198	-2.071	-3.960	-2.239	-3.501	562.500
-1.008	1.854	-3.168	3.445	3.365	1.892	0.687	-0.625	-2.650	-3.765	-2.130	-2.426	-1.594	3.343	1.334	1.783	1.576	0.176	2.270	4.237	6.141	3.394	2.277	-0.368	-2.009	-4.000	-2.293	-3.368	566.406
-0.877	1.796	-2.943	3.497	3.241	1.909	0.717	-0.366	-2.516	-3.724	-2.073	-2.368	-1.628	3.086	1.308	1.612	1.475	0.145	2.027	4.024	5.833	3.111	2.055	-0.544	-2.000	-4.071	-2.324	-3.191	570.312
-0.746	1.776	-2.767	3.601	3.156	1.922	0.756	-0.132	-2.381	-3.688	-2.017	-2.294	-1.611	2.867	1.281	1.495	1.365	0.107	1.790	3.851	5.555	2.845	1.833	-0.720	-2.042	-4.174	-2.343	-3.007	574.219
-0.626	1.805	-2.641	3.755	3.119	1.945	0.796	0.071	-2.255	-3.675	-1.975	-2.230	-1.564	2.690	1.266	1.441	1.253	0.068	1.575	3.726	5.319	2.610	1.633	-0.888	-2.119	-4.303	-2.367	-2.853	578.125
-0.521	1.883	-2.554	3.953	3.131	1.994	0.821	0.243	-2.152	-3.704	-1.960	-2.202	-1.517	2.550	1.277	1.451	1.150	0.043	1.396	3.649	5.127	2.417	1.474	-1.044	-2.205	-4.440	-2.409	-2.757	582.031
-0.434	2.003	-2.486	4.177	3.179	2.075	0.817	0.380	-2.083	-3.791	-1.989	-2.234	-1.504	2.435	1.323	1.517	1.071	0.053	1.265	3.612	4.975	2.272	1.374	-1.190	-2.268	-4.561	-2.485	-2.739	585.938
-0.355	2.146	-2.415	4.406	3.241	2.187	0.764	0.480	-2.059	-3.952	-2.076	-2.346	-1.561	2.332	1.407	1.624	1.034	0.120	1.191	3.603	4.858	2.178	1.343	-1.328	-2.278	-4.645	-2.605	-2.809	589.844
-0.275	2.295	-2.327	4.619	3.297	2.322	0.652	0.543	-2.086	-4.192	-2.232	-2.551	-1.714	2.227	1.525	1.757	1.049	0.263	1.177	3.613	4.768	2.132	1.384	-1.467	-2.210	-4.673	-2.776	-2.968	593.750
-0.180	2.430	-2.214	4.799	3.326	2.468	0.475	0.567	-2.163	-4.509	-2.463	-2.852	-1.978	2.112	1.671	1.901	1.120	0.491	1.219	3.633	4.698	2.128	1.488	-1.615	-2.053	-4.632	-3.003	-3.208	597.656
-0.063	2.542	-2.077	4.940	3.322	2.611	0.243	0.559	-2.278	-4.887	-2.763	-3.236	-2.349	1.981	1.831	2.042	1.241	0.797	1.302	3.659	4.643	2.155	1.639	-1.783	-1.810	-4.524	-3.280	-3.514	601.562
0.079	2.627	-1.927	5.045	3.285	2.741	-0.026	0.532	-2.412	-5.296	-3.113	-3.682	-2.810	1.833	1.994	2.172	1.394	1.160	1.406	3.688	4.600	2.197	1.814	-1.976	-1.498	-4.357	-3.596	-3.864	605.469
0.242	2.686	-1.775	5.124	3.228	2.852	-0.300	0.500	-2.537	-5.700	-3.482	-4.151	-3.325	1.673	2.143	2.282	1.556	1.544	1.505	3.717	4.563	2.235	1.985	-2.193	-1.146	-4.146	-3.931	-4.229	609.375
0.413	2.727	-1.628	5.187	3.165	2.945	-0.547	0.482	-2.624	-6.055	-3.826	-4.596	-3.849	1.507	2.264	2.364	1.701	1.905	1.573	3.738	4.526	2.251	2.127	-2.427	-0.790	-3.910	-4.257	-4.574	613.281
0.575	2.755	-1.494	5.241	3.110	3.018	-0.732	0.494	-2.649	-6.319	-4.102	-4.968	-4.332	1.341	2.339	2.412	1.802	2.197	1.588	3.738	4.479	2.228	2.220	-2.660	-0.461	-3.663	-4.542	-4.858	617.188
0.712	2.769	-1.376	5.285	3.069	3.072	-0.831	0.545	-2.597	-6.461	-4.272	-5.220	-4.728	1.183	2.355	2.418	1.841	2.380	1.536	3.702	4.411	2.158	2.253	-2.865	-0.185	-3.414	-4.748	-5.042	621.094
0.809	2.764	-1.277	5.308	3.038	3.101	-0.832	0.633	-2.472	-6.462	-4.308	-5.315	-4.996	1.039	2.300	2.377	1.807	2.427	1.414	3.615	4.312	2.038	2.224	-3.012	0.025	-3.166	-4.841	-5.087	625.000
0.852	2.727	-1.203	5.292	3.004	3.097	-0.739	0.743	-2.291	-6.322	-4.203	-5.233	-5.110	0.916	2.173	2.285	1.699	2.329	1.230	3.464	4.177	1.878	2.141	-3.071	0.168	-2.916	-4.795	-4.969	628.906
0.835	2.645	-1.161	5.217	2.950	3.047	-0.570	0.852	-2.085	-6.060	-3.970	-4.975	-5.060	0.823	1.982	2.145	1.528	2.097	0.999	3.247	4.006	1.690	2.019	-3.021	0.251	-2.658	-4.598	-4.679	632.812
0.755	2.511	-1.159	5.073	2.857	2.942	-0.354	0.930	-1.894	-5.710	-3.641	-4.567	-4.852	0.766	1.745	1.965	1.308	1.758	0.746	2.975	3.809	1.495	1.878	-2.849	0.291	-2.391	-4.256	-4.232	636.719
0.618	2.325	-1.204	4.861	2.719	2.779	-0.128	0.949	-1.761	-5.318	-3.264	-4.054	-4.513	0.752	1.490	1.762	1.065	1.356	0.497	2.671	3.601	1.314	1.740	-2.564	0.302	-2.122	-3.795	-3.665	640.625
0.441	2.103	-1.298	4.601	2.537	2.565	0.069	0.888	-1.719	-4.934	-2.897	-3.500	-4.083	0.786	1.250	1.561	0.826	0.938	0.278	2.368	3.404	1.167	1.625	-2.190	0.296	-1.864	-3.263	-3.040	644.531
0.247	1.871	-1.438	4.325	2.326	2.317	0.207	0.736	-1.790	-4.609	-2.599	-2.978	-3.610	0.867	1.057	1.392	0.620	0.554	0.114	2.107	3.243	1.070	1.552	-1.768	0.277	-1.643	-2.720	-2.433	648.438
0.069	1.666	-1.614	4.072	2.109	2.059	0.264	0.500	-1.979	-4.388	-2.425	-2.561	-3.150	0.991	0.937	1.287	0.478	0.248	0.024	1.929	3.141	1.035	1.530	-1.350	0.246	-1.485	-2.235	-1.927	652.344
-0.059	1.521	-1.812	3.880	1.911	1.820	0.229	0.198	-2.272	-4.303	-2.416	-2.313	-2.752	1.152	0.910	1.275	0.423	0.054	0.023	1.869	3.119	1.065	1.565	-0.990	0.197	-1.419	-1.873	-1.596	656.250
-0.107	1.461	-2.013	3.779	1.756	1.626	0.103	-0.140	-2.643	-4.375	-2.592	-2.278	-2.456	1.336	0.982	1.377	0.472	-0.010	0.117	1.949	3.189	1.161	1.655	-0.736	0.124	-1.463	-1.685	-1.496	660.156
-0.055	1.498	-2.193	3.781	1.657	1.496	-0.104	-0.475	-3.052	-4.607	-2.954	-2.474	-2.286	1.532	1.150	1.599	0.631	0.059	0.304	2.173	3.352	1.313	1.793	-0.623	0.024	-1.626	-1.701	-1.648	664.062
0.101	1.625	-2.332	3.879	1.617	1.439	-0.375	-0.774	-3.455	-4.986	-3.474	-2.886	-2.252	1.725	1.399	1.927	0.894	0.250	0.574	2.527	3.601	1.509	1.963	-0.664	-0.100	-1.897	-1.920	-2.041	667.969
0.350	1.821	-2.411	4.054	1.628	1.454	-0.690	-1.006	-3.810	-5.483	-4.106	-3.471	-2.345	1.900	1.708	2.333	1.241	0.536	0.906	2.976	3.912	1.729	2.150	-0.853	-0.240	-2.249	-2.316	-2.623	671.875
0.664	2.053	-2.416	4.273	1.673	1.527	-1.030	-1.152	-4.081	-6.057	-4.784	-4.161	-2.546	2.045	2.050	2.773	1.640	0.882	1.270	3.469	4.251	1.949	2.332	-1.164	-0.385	-2.644	-2.836	-3.316	675.781
1.005	2.287	-2.345	4.503	1.732	1.640	-1.374	-1.205	-4.243	-6.655	-5.433	-4.869	-2.826	2.146	2.400	3.197	2.051	1.245	1.631	3.946	4.578	2.144	2.491	-1.559	-0.522	-3.033	-3.413	-4.019	679.688
1.332	2.490	-2.205	4.711	1.785	1.768	-1.705	-1.169	-4.287	-7.222	-5.978	-5.505	-3.152	2.191	2.733	3.554	2.431	1.583	1.952	4.348	4.852	2.286	2.607	-1.991	-0.637	-3.369	-3.972	-4.631	683.594
1.605	2.638	-2.013	4.872	1.817	1.889	-2.004	-1.059	-4.212	-7.702	-6.356	-5.989	-3.491	2.176	3.026	3.805	2.739	1.855	2.199	4.626	5.038	2.353	2.664	-2.415	-0.724	-3.612	-4.443	-5.061	687.500
1.795	2.716	-1.796	4.970	1.818	1.986	-2.257	-0.893	-4.035	-8.048	-6.520	-6.260	-3.813	2.098	3.264	3.923	2.943	2.031	2.344	4.749	5.114	2.331	2.653	-2.791	-0.781	-3.737	-4.774	-5.250	691.406
1.889	2.722	-1.581	5.000	1.792	2.048	-2.448	-0.697	-3.780	-8.225	-6.455	-6.288	-4.091	1.966	3.435	3.906	3.027	2.090	2.375	4.712	5.075	2.216	2.571	-3.094	-0.815	-3.741	-4.935	-5.173	695.312
1.889	2.663	-1.394	4.968	1.749	2.077	-2.564	-0.492	-3.477	-8.220	-6.172	-6.078	-4.307	1.798	3.534	3.771	2.990	2.025	2.294	4.535	4.939	2.020	2.422	-3.309	-0.836	-3.640	-4.923	-4.850	699.219
1.809	2.557	-1.253	4.889	1.710	2.085	-2.594	-0.301	-3.162	-8.039	-5.716	-5.669	-4.443	1.619	3.559	3.549	2.845	1.842	2.117	4.261	4.741	1.768	2.218	-3.436	-0.862	-3.467	-4.761	-4.339	703.125
1.674	2.429	-1.167	4.785	1.699	2.089	-2.536	-0.142	-2.866	-7.713	-5.153	-5.128	-4.490	1.461	3.517	3.287	2.622	1.563	1.872	3.947	4.527	1.491	1.977	-3.485	-0.905	-3.267	-4.490	-3.723	707.031
1.513	2.303	-1.139	4.676	1.736	2.109	-2.391	-0.027	-2.620	-7.288	-4.566	-4.535	-4.445	1.355	3.417	3.031	2.354	1.220	1.595	3.654	4.346	1.228	1.724	-3.471	-0.974	-3.081	-4.164	-3.098	710.938
1.351	2.203	-1.165	4.580	1.833	2.157	-2.173	0.039	-2.443	-6.819	-4.035	-3.975	-4.309	1.330	3.274	2.820	2.079	0.857	1.324	3.431	4.240	1.015	1.486	-3.410	-1.067	-2.941	-3.832	-2.552	714.844
1.205	2.140	-1.242	4.504	1.988	2.235	-1.899	0.057	-2.346	-6.367	-3.630	-3.519	-4.093	1.401	3.103	2.680	1.830	0.519	1.096	3.314	4.235	0.883	1.293	-3.312	-1.168	-2.860	-3.537	-2.155	718.750
1.086	2.119	-1.366	4.451	2.186	2.338	-1.595	0.037	-2.328	-5.985	-3.399	-3.217	-3.811	1.573	2.918	2.619	1.634	0.246	0.940	3.313	4.336	0.854	1.172	-3.183	-1.255	-2.829	-3.306	-1.945	722.656
0.991	2.132	-1.532	4.413	2.402	2.448	-1.291	-0.014	-2.380	-5.711	-3.362	-3.093	-3.482	1.838	2.733	2.631	1.507	0.069	0.873	3.417	4.529	0.936	1.145	-3.020	-1.299	-2.824	-3.146	-1.930	726.562
0.911	2.163	-1.733	4.379	2.606	2.546	-1.014	-0.082	-2.484	-5.568	-3.511	-3.143	-3.129	2.173	2.558	2.692	1.453	0.000	0.900	3.596	4.782	1.126	1.226	-2.819	-1.272	-2.811	-3.050	-2.087	730.469
0.835	2.190	-1.958	4.339	2.770	2.613	-0.789	-0.157	-2.618	-5.556	-3.813	-3.339	-2.775	2.548	2.400	2.772	1.464	0.037	1.011	3.808	5.054	1.404	1.414	-2.576	-1.157	-2.757	-3.003	-2.374	734.375
0.751	2.187	-2.189	4.282	2.873	2.637	-0.629	-0.229	-2.756	-5.653	-4.217	-3.639	-2.439	2.926	2.261	2.840	1.522	0.159	1.184	4.006	5.304	1.741	1.695	-2.292	-0.950	-2.639	-2.982	-2.736	738.281
0.651	2.132	-2.405	4.200	2.904	2.612	-0.536	-0.289	-2.873	-5.823	-4.662	-3.988	-2.136	3.273	2.142	2.868	1.599	0.333	1.385	4.149	5.496	2.099	2.040	-1.974	-0.665	-2.456	-2.966	-3.117	742.188
0.533	2.006	-2.580	4.085	2.864	2.541	-0.503	-0.329	-2.948	-6.019	-5.082	-4.331	-1.876	3.558	2.041	2.834	1.665	0.522	1.575	4.206	5.605	2.433	2.409	-1.636	-0.335	-2.221	-2.940	-3.467	746.094
0.402	1.802	-2.693	3.936	2.763	2.432	-0.511	-0.344	-2.964	-6.189	-5.420	-4.619	-1.658	3.761	1.954	2.729	1.692	0.689	1.714	4.160	5.619	2.702	2.755	-1.297	-0.002	-1.969	-2.893	-3.744	750.000
0.263	1.524	-2.729	3.749	2.619	2.301	-0.538	-0.329	-2.911	-6.290	-5.628	-4.809	-1.478	3.874	1.876	2.553	1.656	0.800	1.773	4.013	5.543	2.874	3.031	-0.977	0.285	-1.739	-2.819	-3.920	753.906
0.126	1.190	-2.687	3.527	2.451	2.165	-0.561	-0.285	-2.791	-6.290	-5.680	-4.875	-1.322	3.901	1.804	2.316	1.548	0.838	1.734	3.777	5.390	2.930	3.203	-0.693	0.484	-1.570	-2.717	-3.979	757.812
-0.002	0.830	-2.579	3.275	2.277	2.040	-0.562	-0.218	-2.617	-6.177	-5.571	-4.806	-1.176	3.856	1.734	2.036	1.370	0.794	1.596	3.479	5.183	2.866	3.251	-0.455	0.566	-1.488	-2.587	-3.917	761.719
-0.115	0.480	-2.435	3.004	2.112	1.936	-0.530	-0.137	-2.413	-5.959	-5.319	-4.607	-1.025	3.761	1.663	1.736	1.137	0.676	1.375	3.149	4.946	2.699	3.177	-0.267	0.526	-1.501	-2.428	-3.742	765.625
-0.206	0.176	-2.300	2.733	1.963	1.859	-0.465	-0.058	-2.209	-5.664	-4.964	-4.302	-0.858	3.640	1.589	1.441	0.874	0.500	1.096	2.819	4.702	2.455	3.001	-0.123	0.381	-1.593	-2.242	-3.470	769.531
-0.272	-0.050	-2.221	2.483	1.833	1.811	-0.370	0.005	-2.039	-5.329	-4.558	-3.922	-0.671	3.516	1.508	1.173	0.609	0.290	0.796	2.515	4.470	2.170	2.756	-0.014	0.168	-1.731	-2.030	-3.122	773.438
-0.306	-0.176	-2.250	2.278	1.720	1.787	-0.256	0.037	-1.935	-4.997	-4.159	-3.505	-0.462	3.407	1.415	0.949	0.372	0.069	0.508	2.258	4.260	1.879	2.478	0.071	-0.066	-1.872	-1.794	-2.721	777.344
-0.306	-0.197	-2.424	2.136	1.617	1.782	-0.131	0.028	-1.915	-4.707	-3.816	-3.088	-0.239	3.324	1.307	0.782	0.185	-0.146	0.258	2.057	4.077	1.614	2.206	0.146	-0.273	-1.974	-1.536	-2.290	781.250
-0.270	-0.120	-2.763	2.070	1.519	1.788	-0.003	-0.022	-1.989	-4.480	-3.561	-2.695	-0.009	3.273	1.180	0.673	0.061	-0.342	0.063	1.913	3.919	1.392	1.965	0.221	-0.418	-2.005	-1.259	-1.849	785.156
-0.201	0.037	-3.263	2.075	1.421	1.800	0.123	-0.110	-2.147	-4.324	-3.403	-2.340	0.224	3.250	1.036	0.615	0.000	-0.516	-0.074	1.817	3.781	1.220	1.768	0.302	-0.485	-1.955	-0.966	-1.408	789.062
-0.109	0.246	-3.891	2.135	1.317	1.811	0.245	-0.226	-2.369	-4.228	-3.329	-2.023	0.454	3.248	0.876	0.594	-0.011	-0.672	-0.165	1.753	3.655	1.090	1.614	0.394	-0.480	-1.831	-0.662	-0.974	792.969
-0.006	0.475	-4.589	2.224	1.206	1.819	0.361	-0.356	-2.622	-4.170	-3.306	-1.731	0.683	3.258	0.707	0.588	0.006	-0.814	-0.228	1.701	3.530	0.987	1.491	0.499	-0.426	-1.658	-0.351	-0.547	796.875
