FP1	F3	F7	FC3	C3	C5	P3	P7	PO7	PO3	O1	Oz	Pz	CPz	FP2	Fz	F4	F8	FC4	FCz	Cz	C4	C6	P4	P8	PO8	PO4	O2	time
-0.047	0.143	-1.732	1.682	0.579	-0.150	-0.130	-1.401	-1.449	-1.125	-1.453	-0.977	0.015	1.360	0.292	0.189	0.161	1.012	0.718	1.304	1.985	0.867	0.996	0.104	-0.755	-1.257	-0.522	-1.009	-199.219
-0.184	-0.060	-1.363	1.414	0.568	-0.115	-0.001	-1.241	-1.261	-0.879	-1.271	-0.771	0.117	1.287	0.165	0.025	-0.026	0.858	0.488	1.085	1.780	0.781	0.879	0.193	-0.644	-0.974	-0.326	-0.728	-195.312
-0.319	-0.253	-1.048	1.152	0.547	-0.105	0.121	-1.093	-1.070	-0.628	-1.078	-0.560	0.211	1.214	0.036	-0.135	-0.215	0.704	0.274	0.871	1.583	0.696	0.776	0.285	-0.520	-0.691	-0.129	-0.454	-191.406
-0.457	-0.429	-0.832	0.903	0.508	-0.134	0.233	-0.963	-0.870	-0.365	-0.865	-0.339	0.294	1.142	-0.094	-0.290	-0.407	0.554	0.087	0.666	1.402	0.612	0.694	0.388	-0.376	-0.408	0.069	-0.193	-187.500
-0.597	-0.585	-0.735	0.669	0.449	-0.207	0.334	-0.849	-0.660	-0.091	-0.632	-0.110	0.368	1.076	-0.225	-0.438	-0.601	0.412	-0.065	0.476	1.243	0.531	0.633	0.508	-0.206	-0.122	0.270	0.049	-183.594
-0.742	-0.721	-0.752	0.454	0.372	-0.314	0.423	-0.747	-0.443	0.186	-0.387	0.122	0.441	1.023	-0.360	-0.574	-0.788	0.282	-0.180	0.305	1.111	0.455	0.589	0.648	-0.010	0.164	0.473	0.268	-179.688
-0.888	-0.838	-0.856	0.260	0.286	-0.438	0.502	-0.653	-0.226	0.452	-0.147	0.343	0.525	0.990	-0.498	-0.695	-0.959	0.168	-0.257	0.157	1.011	0.387	0.552	0.810	0.204	0.445	0.676	0.459	-175.781
-1.030	-0.938	-1.009	0.091	0.201	-0.552	0.572	-0.559	-0.021	0.690	0.067	0.540	0.627	0.983	-0.634	-0.795	-1.103	0.074	-0.300	0.037	0.943	0.332	0.515	0.990	0.423	0.713	0.872	0.614	-171.875
-1.157	-1.018	-1.169	-0.051	0.131	-0.633	0.634	-0.460	0.159	0.883	0.231	0.695	0.753	1.003	-0.762	-0.870	-1.207	0.002	-0.314	-0.051	0.906	0.294	0.468	1.179	0.629	0.952	1.051	0.725	-167.969
-1.259	-1.071	-1.298	-0.161	0.085	-0.662	0.688	-0.353	0.303	1.019	0.330	0.793	0.898	1.045	-0.868	-0.913	-1.262	-0.047	-0.304	-0.105	0.897	0.274	0.408	1.362	0.801	1.144	1.199	0.785	-164.062
-1.322	-1.087	-1.367	-0.237	0.070	-0.629	0.732	-0.239	0.401	1.092	0.353	0.824	1.049	1.097	-0.941	-0.921	-1.262	-0.075	-0.275	-0.123	0.907	0.272	0.335	1.522	0.919	1.270	1.302	0.787	-160.156
-1.335	-1.057	-1.361	-0.279	0.088	-0.536	0.763	-0.121	0.451	1.103	0.303	0.786	1.185	1.147	-0.969	-0.890	-1.206	-0.081	-0.231	-0.105	0.927	0.286	0.254	1.636	0.966	1.312	1.344	0.726	-156.250
-1.291	-0.973	-1.277	-0.286	0.137	-0.397	0.777	-0.005	0.451	1.058	0.188	0.682	1.283	1.179	-0.943	-0.818	-1.099	-0.067	-0.173	-0.054	0.949	0.311	0.170	1.685	0.929	1.259	1.314	0.605	-152.344
-1.184	-0.833	-1.120	-0.262	0.210	-0.232	0.769	0.099	0.407	0.964	0.026	0.519	1.323	1.183	-0.862	-0.705	-0.947	-0.035	-0.102	0.028	0.966	0.341	0.094	1.655	0.801	1.104	1.207	0.426	-148.438
-1.015	-0.641	-0.907	-0.212	0.296	-0.062	0.734	0.178	0.321	0.829	-0.168	0.310	1.292	1.152	-0.730	-0.552	-0.759	0.011	-0.016	0.139	0.974	0.374	0.036	1.538	0.587	0.847	1.023	0.200	-144.531
-0.789	-0.407	-0.654	-0.141	0.385	0.091	0.669	0.220	0.198	0.655	-0.376	0.070	1.186	1.085	-0.557	-0.365	-0.540	0.066	0.090	0.273	0.974	0.408	0.005	1.332	0.296	0.502	0.768	-0.060	-140.625
-0.514	-0.147	-0.381	-0.057	0.467	0.214	0.571	0.215	0.041	0.444	-0.588	-0.188	1.012	0.988	-0.356	-0.149	-0.300	0.126	0.215	0.424	0.967	0.443	0.007	1.050	-0.049	0.089	0.459	-0.336	-136.719
-0.207	0.120	-0.109	0.035	0.533	0.300	0.439	0.157	-0.146	0.197	-0.792	-0.448	0.784	0.867	-0.141	0.084	-0.045	0.182	0.357	0.585	0.954	0.478	0.041	0.711	-0.419	-0.361	0.116	-0.608	-132.812
0.114	0.376	0.146	0.127	0.575	0.351	0.276	0.049	-0.356	-0.083	-0.983	-0.695	0.521	0.731	0.072	0.319	0.213	0.228	0.506	0.741	0.936	0.512	0.102	0.341	-0.779	-0.811	-0.233	-0.855	-128.906
0.429	0.603	0.371	0.212	0.588	0.373	0.087	-0.099	-0.578	-0.388	-1.151	-0.917	0.242	0.587	0.272	0.537	0.461	0.262	0.647	0.877	0.907	0.543	0.180	-0.030	-1.095	-1.219	-0.564	-1.058	-125.000
0.718	0.787	0.559	0.281	0.572	0.377	-0.120	-0.270	-0.797	-0.702	-1.288	-1.102	-0.033	0.441	0.444	0.719	0.681	0.282	0.763	0.974	0.859	0.565	0.261	-0.371	-1.335	-1.549	-0.851	-1.202	-121.094
0.961	0.919	0.711	0.327	0.526	0.370	-0.332	-0.443	-0.994	-1.004	-1.385	-1.240	-0.287	0.297	0.578	0.848	0.858	0.291	0.836	1.016	0.784	0.573	0.331	-0.657	-1.477	-1.774	-1.076	-1.280	-117.188
1.148	0.996	0.832	0.347	0.456	0.361	-0.537	-0.597	-1.152	-1.271	-1.435	-1.325	-0.506	0.158	0.667	0.913	0.978	0.293	0.853	0.992	0.676	0.563	0.379	-0.869	-1.513	-1.877	-1.226	-1.289	-113.281
1.269	1.022	0.927	0.340	0.372	0.355	-0.721	-0.714	-1.255	-1.482	-1.434	-1.355	-0.679	0.029	0.706	0.913	1.036	0.290	0.811	0.902	0.536	0.533	0.396	-1.000	-1.449	-1.857	-1.297	-1.234	-109.375
1.323	1.008	1.002	0.312	0.285	0.356	-0.867	-0.781	-1.295	-1.620	-1.381	-1.328	-0.797	-0.086	0.697	0.857	1.036	0.281	0.717	0.757	0.372	0.485	0.378	-1.050	-1.304	-1.725	-1.291	-1.125	-105.469
1.314	0.965	1.056	0.272	0.212	0.368	-0.966	-0.795	-1.270	-1.671	-1.280	-1.248	-0.856	-0.180	0.644	0.761	0.987	0.261	0.586	0.578	0.198	0.425	0.327	-1.029	-1.106	-1.506	-1.215	-0.973	-101.562
1.251	0.909	1.084	0.230	0.164	0.392	-1.006	-0.759	-1.185	-1.634	-1.135	-1.117	-0.853	-0.251	0.555	0.646	0.905	0.222	0.436	0.389	0.031	0.358	0.250	-0.951	-0.888	-1.229	-1.082	-0.790	-97.656
1.142	0.852	1.081	0.192	0.149	0.425	-0.983	-0.683	-1.052	-1.508	-0.954	-0.940	-0.794	-0.297	0.445	0.533	0.804	0.156	0.287	0.214	-0.118	0.289	0.154	-0.835	-0.680	-0.925	-0.905	-0.587	-93.750
1.001	0.799	1.039	0.162	0.166	0.460	-0.899	-0.579	-0.882	-1.304	-0.742	-0.725	-0.687	-0.323	0.326	0.434	0.696	0.058	0.150	0.069	-0.241	0.219	0.048	-0.701	-0.500	-0.621	-0.698	-0.374	-89.844
0.836	0.751	0.957	0.133	0.202	0.485	-0.758	-0.460	-0.687	-1.033	-0.503	-0.477	-0.544	-0.337	0.210	0.353	0.583	-0.074	0.031	-0.041	-0.344	0.144	-0.060	-0.564	-0.357	-0.334	-0.475	-0.155	-85.938
0.660	0.696	0.836	0.092	0.237	0.483	-0.573	-0.337	-0.477	-0.715	-0.241	-0.204	-0.383	-0.353	0.105	0.285	0.465	-0.237	-0.072	-0.125	-0.438	0.055	-0.163	-0.436	-0.241	-0.071	-0.247	0.068	-82.031
0.480	0.622	0.683	0.023	0.245	0.439	-0.357	-0.214	-0.255	-0.368	0.042	0.083	-0.223	-0.384	0.013	0.216	0.337	-0.424	-0.166	-0.198	-0.539	-0.056	-0.255	-0.323	-0.137	0.175	-0.022	0.294	-78.125
0.304	0.511	0.506	-0.090	0.203	0.345	-0.132	-0.094	-0.024	-0.015	0.339	0.373	-0.082	-0.443	-0.067	0.132	0.195	-0.621	-0.259	-0.280	-0.664	-0.194	-0.333	-0.230	-0.022	0.412	0.193	0.521	-74.219
0.140	0.351	0.314	-0.257	0.097	0.201	0.084	0.029	0.217	0.322	0.641	0.653	0.022	-0.536	-0.136	0.022	0.039	-0.809	-0.357	-0.388	-0.823	-0.359	-0.396	-0.155	0.125	0.651	0.389	0.746	-70.312
-0.007	0.141	0.114	-0.478	-0.077	0.016	0.270	0.160	0.468	0.625	0.937	0.905	0.078	-0.667	-0.195	-0.118	-0.121	-0.967	-0.462	-0.530	-1.019	-0.545	-0.443	-0.100	0.314	0.895	0.558	0.957	-66.406
-0.130	-0.111	-0.084	-0.738	-0.306	-0.189	0.409	0.308	0.727	0.878	1.212	1.114	0.078	-0.831	-0.244	-0.280	-0.274	-1.075	-0.569	-0.704	-1.243	-0.737	-0.476	-0.064	0.540	1.138	0.689	1.140	-62.500
-0.227	-0.382	-0.269	-1.014	-0.568	-0.389	0.490	0.477	0.990	1.070	1.452	1.264	0.026	-1.014	-0.277	-0.449	-0.401	-1.120	-0.666	-0.897	-1.477	-0.919	-0.498	-0.049	0.785	1.360	0.771	1.275	-58.594
-0.295	-0.643	-0.427	-1.274	-0.832	-0.558	0.507	0.667	1.244	1.196	1.642	1.346	-0.069	-1.201	-0.287	-0.601	-0.484	-1.094	-0.743	-1.088	-1.699	-1.071	-0.514	-0.058	1.023	1.534	0.795	1.344	-54.688
-0.331	-0.859	-0.540	-1.483	-1.065	-0.672	0.465	0.868	1.473	1.257	1.773	1.354	-0.193	-1.372	-0.267	-0.713	-0.509	-1.001	-0.787	-1.251	-1.884	-1.177	-0.527	-0.090	1.219	1.630	0.755	1.332	-50.781
-0.335	-1.000	-0.590	-1.612	-1.238	-0.719	0.374	1.066	1.658	1.257	1.837	1.288	-0.328	-1.505	-0.217	-0.764	-0.471	-0.852	-0.788	-1.366	-2.009	-1.226	-0.540	-0.145	1.344	1.623	0.653	1.233	-46.875
-0.307	-1.042	-0.561	-1.634	-1.332	-0.696	0.248	1.239	1.778	1.201	1.832	1.157	-0.456	-1.587	-0.135	-0.739	-0.372	-0.664	-0.744	-1.413	-2.057	-1.213	-0.553	-0.220	1.378	1.501	0.493	1.052	-42.969
-0.249	-0.973	-0.445	-1.535	-1.337	-0.611	0.103	1.366	1.816	1.094	1.760	0.972	-0.564	-1.605	-0.029	-0.633	-0.223	-0.455	-0.658	-1.383	-2.021	-1.143	-0.568	-0.312	1.313	1.267	0.289	0.801	-39.062
-0.161	-0.795	-0.245	-1.314	-1.257	-0.477	-0.045	1.426	1.758	0.940	1.627	0.751	-0.642	-1.559	0.095	-0.452	-0.038	-0.242	-0.536	-1.274	-1.901	-1.026	-0.579	-0.416	1.155	0.942	0.058	0.508	-35.156
-0.050	-0.522	0.018	-0.981	-1.102	-0.308	-0.186	1.410	1.601	0.743	1.443	0.513	-0.689	-1.455	0.227	-0.212	0.160	-0.038	-0.391	-1.097	-1.711	-0.878	-0.584	-0.528	0.924	0.557	-0.180	0.201	-31.250
0.079	-0.180	0.312	-0.559	-0.893	-0.118	-0.315	1.315	1.350	0.507	1.221	0.276	-0.709	-1.306	0.361	0.066	0.353	0.146	-0.239	-0.867	-1.469	-0.719	-0.577	-0.643	0.645	0.156	-0.406	-0.085	-27.344
0.217	0.197	0.599	-0.080	-0.652	0.078	-0.429	1.149	1.019	0.237	0.979	0.060	-0.708	-1.132	0.487	0.353	0.521	0.304	-0.095	-0.607	-1.200	-0.570	-0.558	-0.755	0.349	-0.218	-0.600	-0.321	-23.438
0.354	0.575	0.843	0.417	-0.405	0.270	-0.529	0.930	0.632	-0.056	0.733	-0.119	-0.698	-0.956	0.599	0.622	0.650	0.431	0.028	-0.343	-0.931	-0.448	-0.526	-0.862	0.066	-0.528	-0.749	-0.480	-19.531
0.483	0.920	1.018	0.892	-0.173	0.448	-0.618	0.681	0.217	-0.359	0.502	-0.252	-0.692	-0.800	0.693	0.847	0.733	0.529	0.120	-0.098	-0.690	-0.365	-0.486	-0.960	-0.179	-0.746	-0.847	-0.552	-15.625
0.593	1.203	1.112	1.308	0.025	0.603	-0.697	0.428	-0.195	-0.654	0.302	-0.335	-0.701	-0.683	0.763	1.013	0.768	0.600	0.177	0.107	-0.496	-0.327	-0.443	-1.048	-0.369	-0.863	-0.894	-0.536	-11.719
0.681	1.407	1.130	1.633	0.178	0.727	-0.767	0.196	-0.572	-0.923	0.148	-0.368	-0.734	-0.616	0.808	1.111	0.762	0.651	0.203	0.260	-0.364	-0.330	-0.402	-1.129	-0.497	-0.883	-0.899	-0.446	-7.812
0.745	1.525	1.088	1.851	0.281	0.815	-0.825	0.008	-0.887	-1.146	0.050	-0.359	-0.795	-0.605	0.829	1.146	0.728	0.691	0.205	0.355	-0.299	-0.364	-0.368	-1.203	-0.567	-0.829	-0.875	-0.307	-3.906
0.787	1.564	1.011	1.956	0.338	0.865	-0.868	-0.123	-1.120	-1.306	0.012	-0.319	-0.882	-0.648	0.831	1.133	0.681	0.727	0.194	0.397	-0.295	-0.414	-0.341	-1.272	-0.593	-0.732	-0.840	-0.147	0.000
0.812	1.541	0.923	1.962	0.356	0.881	-0.893	-0.191	-1.261	-1.394	0.033	-0.259	-0.988	-0.731	0.819	1.091	0.637	0.768	0.178	0.397	-0.338	-0.463	-0.320	-1.339	-0.589	-0.624	-0.808	0.002	3.906
0.826	1.484	0.845	1.897	0.347	0.870	-0.900	-0.202	-1.311	-1.407	0.106	-0.190	-1.098	-0.838	0.801	1.044	0.608	0.816	0.164	0.373	-0.410	-0.496	-0.300	-1.399	-0.576	-0.534	-0.789	0.118	7.812
0.833	1.419	0.793	1.794	0.326	0.844	-0.891	-0.165	-1.280	-1.352	0.220	-0.120	-1.197	-0.945	0.782	1.011	0.599	0.870	0.150	0.344	-0.489	-0.503	-0.278	-1.450	-0.566	-0.477	-0.785	0.188	11.719
0.835	1.368	0.771	1.691	0.307	0.817	-0.870	-0.097	-1.184	-1.245	0.360	-0.051	-1.268	-1.031	0.767	1.002	0.610	0.926	0.133	0.324	-0.555	-0.481	-0.254	-1.482	-0.568	-0.458	-0.791	0.211	15.625
0.831	1.343	0.776	1.614	0.300	0.801	-0.842	-0.012	-1.043	-1.106	0.514	0.016	-1.299	-1.079	0.753	1.020	0.632	0.975	0.107	0.325	-0.597	-0.438	-0.230	-1.489	-0.582	-0.468	-0.798	0.197	19.531
0.820	1.344	0.796	1.577	0.310	0.806	-0.808	0.080	-0.871	-0.955	0.671	0.083	-1.284	-1.082	0.737	1.058	0.656	1.008	0.067	0.348	-0.609	-0.384	-0.210	-1.465	-0.603	-0.491	-0.795	0.165	23.438
0.799	1.362	0.824	1.578	0.336	0.832	-0.768	0.175	-0.679	-0.807	0.822	0.152	-1.225	-1.044	0.714	1.104	0.674	1.016	0.009	0.387	-0.598	-0.337	-0.205	-1.412	-0.625	-0.509	-0.774	0.131	27.344
0.768	1.381	0.851	1.602	0.373	0.877	-0.718	0.278	-0.468	-0.668	0.965	0.226	-1.133	-0.980	0.676	1.142	0.677	0.989	-0.065	0.432	-0.576	-0.315	-0.224	-1.337	-0.637	-0.510	-0.734	0.110	31.250
0.730	1.380	0.873	1.623	0.412	0.928	-0.649	0.398	-0.232	-0.530	1.107	0.309	-1.027	-0.913	0.617	1.158	0.662	0.924	-0.152	0.466	-0.564	-0.333	-0.276	-1.255	-0.634	-0.485	-0.676	0.110	35.156
0.686	1.346	0.884	1.615	0.438	0.971	-0.553	0.546	0.043	-0.372	1.258	0.405	-0.927	-0.870	0.531	1.139	0.627	0.818	-0.248	0.471	-0.581	-0.401	-0.364	-1.182	-0.610	-0.431	-0.609	0.130	39.062
0.636	1.265	0.879	1.551	0.440	0.988	-0.419	0.731	0.372	-0.164	1.437	0.520	-0.850	-0.875	0.414	1.075	0.573	0.674	-0.348	0.431	-0.645	-0.520	-0.488	-1.131	-0.558	-0.346	-0.540	0.168	42.969
0.576	1.133	0.853	1.414	0.405	0.965	-0.239	0.958	0.769	0.130	1.664	0.662	-0.809	-0.944	0.262	0.959	0.497	0.495	-0.450	0.335	-0.769	-0.683	-0.639	-1.108	-0.472	-0.227	-0.471	0.216	46.875
0.499	0.952	0.800	1.195	0.329	0.894	-0.009	1.222	1.240	0.537	1.957	0.841	-0.806	-1.081	0.072	0.788	0.397	0.290	-0.555	0.176	-0.956	-0.875	-0.805	-1.110	-0.345	-0.066	-0.401	0.269	50.781
0.393	0.724	0.713	0.897	0.209	0.773	0.272	1.514	1.782	1.074	2.329	1.065	-0.835	-1.279	-0.157	0.559	0.268	0.065	-0.666	-0.048	-1.203	-1.077	-0.968	-1.126	-0.166	0.150	-0.321	0.329	54.688
0.247	0.457	0.588	0.528	0.051	0.611	0.595	1.816	2.381	1.737	2.784	1.343	-0.880	-1.521	-0.426	0.270	0.100	-0.169	-0.789	-0.334	-1.499	-1.269	-1.111	-1.131	0.076	0.437	-0.213	0.405	58.594
0.051	0.156	0.420	0.106	-0.137	0.419	0.943	2.109	3.011	2.499	3.315	1.681	-0.921	-1.786	-0.733	-0.078	-0.111	-0.408	-0.932	-0.675	-1.826	-1.434	-1.220	-1.101	0.391	0.815	-0.058	0.515	62.500
-0.201	-0.174	0.207	-0.351	-0.346	0.213	1.293	2.372	3.638	3.309	3.905	2.079	-0.943	-2.048	-1.069	-0.481	-0.371	-0.646	-1.101	-1.062	-2.169	-1.558	-1.285	-1.006	0.788	1.307	0.165	0.683	66.406
-0.505	-0.526	-0.049	-0.822	-0.565	0.003	1.614	2.586	4.222	4.100	4.526	2.530	-0.932	-2.287	-1.422	-0.929	-0.676	-0.880	-1.297	-1.481	-2.509	-1.639	-1.304	-0.828	1.268	1.925	0.473	0.934	70.312
-0.849	-0.891	-0.338	-1.285	-0.786	-0.201	1.873	2.736	4.725	4.793	5.140	3.017	-0.889	-2.487	-1.774	-1.404	-1.016	-1.106	-1.520	-1.915	-2.833	-1.678	-1.279	-0.554	1.827	2.676	0.869	1.284	74.219
-1.213	-1.252	-0.642	-1.717	-1.002	-0.394	2.037	2.813	5.111	5.314	5.698	3.507	-0.820	-2.640	-2.105	-1.881	-1.371	-1.317	-1.758	-2.343	-3.129	-1.682	-1.217	-0.187	2.450	3.547	1.344	1.732	78.125
-1.569	-1.590	-0.938	-2.094	-1.203	-0.571	2.084	2.815	5.355	5.601	6.147	3.959	-0.740	-2.742	-2.394	-2.329	-1.712	-1.504	-1.996	-2.739	-3.386	-1.661	-1.127	0.255	3.110	4.510	1.869	2.251	82.031
-1.885	-1.880	-1.201	-2.391	-1.380	-0.728	2.002	2.746	5.446	5.618	6.435	4.322	-0.665	-2.792	-2.625	-2.711	-2.006	-1.656	-2.209	-3.075	-3.592	-1.617	-1.013	0.746	3.769	5.512	2.403	2.792	85.938
-2.134	-2.097	-1.408	-2.587	-1.517	-0.856	1.796	2.616	5.385	5.358	6.517	4.543	-0.605	-2.786	-2.786	-2.990	-2.218	-1.760	-2.370	-3.316	-3.731	-1.550	-0.879	1.250	4.380	6.482	2.893	3.282	89.844
-2.292	-2.216	-1.546	-2.660	-1.598	-0.944	1.488	2.439	5.186	4.849	6.363	4.576	-0.562	-2.716	-2.871	-3.133	-2.318	-1.806	-2.446	-3.429	-3.780	-1.447	-0.720	1.732	4.887	7.334	3.285	3.638	93.750
-2.346	-2.217	-1.610	-2.598	-1.602	-0.977	1.115	2.229	4.868	4.144	5.962	4.392	-0.524	-2.572	-2.879	-3.114	-2.281	-1.785	-2.410	-3.385	-3.718	-1.290	-0.530	2.159	5.235	7.972	3.529	3.779	97.656
-2.293	-2.086	-1.604	-2.397	-1.512	-0.944	0.723	1.995	4.456	3.314	5.326	3.980	-0.473	-2.337	-2.809	-2.918	-2.095	-1.693	-2.239	-3.158	-3.520	-1.061	-0.301	2.506	5.370	8.303	3.590	3.642	101.562
-2.138	-1.818	-1.535	-2.061	-1.316	-0.833	0.355	1.740	3.966	2.434	4.486	3.355	-0.385	-1.998	-2.664	-2.540	-1.763	-1.533	-1.923	-2.739	-3.167	-0.742	-0.027	2.753	5.251	8.249	3.448	3.194	105.469
-1.893	-1.414	-1.409	-1.602	-1.007	-0.642	0.050	1.458	3.412	1.573	3.493	2.553	-0.240	-1.545	-2.448	-1.991	-1.298	-1.312	-1.471	-2.127	-2.650	-0.327	0.291	2.892	4.850	7.763	3.106	2.440	109.375
-1.573	-0.886	-1.228	-1.040	-0.589	-0.373	-0.171	1.142	2.798	0.783	2.408	1.628	-0.023	-0.983	-2.165	-1.294	-0.727	-1.041	-0.903	-1.341	-1.975	0.175	0.644	2.918	4.166	6.835	2.585	1.425	113.281
-1.195	-0.255	-0.990	-0.400	-0.079	-0.039	-0.301	0.782	2.133	0.103	1.301	0.650	0.264	-0.331	-1.825	-0.489	-0.085	-0.739	-0.258	-0.421	-1.165	0.739	1.012	2.836	3.223	5.507	1.926	0.229	117.188
-0.781	0.444	-0.693	0.284	0.494	0.340	-0.348	0.377	1.429	-0.449	0.247	-0.303	0.609	0.375	-1.446	0.370	0.583	-0.423	0.411	0.578	-0.266	1.321	1.367	2.653	2.076	3.874	1.188	-1.037	121.094
-0.358	1.163	-0.342	0.970	1.087	0.734	-0.328	-0.062	0.712	-0.861	-0.681	-1.154	0.985	1.082	-1.048	1.217	1.227	-0.114	1.046	1.582	0.658	1.864	1.674	2.387	0.808	2.076	0.437	-2.250	125.000
0.044	1.847	0.048	1.607	1.648	1.109	-0.262	-0.511	0.026	-1.127	-1.410	-1.825	1.360	1.728	-0.663	1.982	1.796	0.164	1.587	2.506	1.532	2.310	1.895	2.059	-0.477	0.285	-0.252	-3.283	128.906
0.394	2.433	0.449	2.141	2.118	1.424	-0.169	-0.933	-0.574	-1.242	-1.879	-2.253	1.697	2.252	-0.323	2.593	2.238	0.387	1.979	3.269	2.278	2.601	1.997	1.699	-1.665	-1.316	-0.809	-4.022	132.812
0.662	2.866	0.823	2.520	2.446	1.643	-0.064	-1.282	-1.024	-1.200	-2.043	-2.390	1.964	2.601	-0.066	2.995	2.507	0.533	2.178	3.802	2.826	2.693	1.957	1.340	-2.648	-2.556	-1.172	-4.382	136.719
0.823	3.101	1.128	2.702	2.588	1.735	0.042	-1.517	-1.265	-0.997	-1.874	-2.210	2.137	2.742	0.073	3.147	2.566	0.579	2.157	4.058	3.127	2.563	1.761	1.015	-3.333	-3.299	-1.297	-4.310	140.625
0.862	3.114	1.323	2.665	2.525	1.683	0.148	-1.605	-1.251	-0.630	-1.370	-1.710	2.202	2.665	0.068	3.036	2.395	0.508	1.909	4.022	3.156	2.213	1.415	0.757	-3.658	-3.466	-1.161	-3.796	144.531
0.773	2.905	1.380	2.407	2.256	1.484	0.254	-1.528	-0.957	-0.102	-0.552	-0.912	2.159	2.380	-0.101	2.672	1.991	0.308	1.446	3.709	2.917	1.665	0.934	0.588	-3.597	-3.034	-0.764	-2.871	148.438
0.559	2.498	1.279	1.953	1.807	1.154	0.369	-1.283	-0.379	0.579	0.544	0.143	2.015	1.916	-0.437	2.087	1.369	-0.026	0.797	3.158	2.437	0.959	0.347	0.521	-3.161	-2.046	-0.132	-1.599	152.344
0.234	1.929	1.015	1.340	1.219	0.724	0.504	-0.881	0.464	1.398	1.867	1.402	1.786	1.315	-0.932	1.325	0.559	-0.490	0.001	2.423	1.762	0.146	-0.308	0.557	-2.396	-0.591	0.695	-0.068	156.250
-0.186	1.246	0.597	0.618	0.546	0.234	0.673	-0.338	1.542	2.341	3.363	2.803	1.493	0.619	-1.564	0.434	-0.397	-1.069	-0.896	1.559	0.944	-0.723	-0.994	0.684	-1.373	1.205	1.658	1.624	160.156
-0.681	0.493	0.043	-0.161	-0.160	-0.272	0.893	0.325	2.812	3.389	4.978	4.285	1.156	-0.131	-2.302	-0.541	-1.455	-1.737	-1.851	0.617	0.036	-1.602	-1.675	0.881	-0.176	3.200	2.698	3.377	164.062
-1.230	-0.292	-0.617	-0.951	-0.850	-0.753	1.176	1.088	4.232	4.521	6.658	5.789	0.798	-0.900	-3.112	-1.559	-2.566	-2.463	-2.827	-0.363	-0.916	-2.457	-2.323	1.121	1.105	5.258	3.753	5.102	167.969
-1.814	-1.080	-1.346	-1.716	-1.488	-1.178	1.529	1.932	5.756	5.714	8.357	7.264	0.437	-1.662	-3.957	-2.590	-3.685	-3.212	-3.791	-1.353	-1.873	-3.264	-2.915	1.377	2.388	7.256	4.770	6.724	171.875
-2.414	-1.849	-2.104	-2.426	-2.050	-1.526	1.953	2.836	7.339	6.942	10.028	8.664	0.088	-2.397	-4.797	-3.609	-4.770	-3.949	-4.722	-2.336	-2.807	-4.009	-3.440	1.624	3.606	9.100	5.703	8.186	175.781
-3.015	-2.584	-2.847	-3.064	-2.523	-1.787	2.436	3.783	8.937	8.172	11.625	9.947	-0.238	-3.095	-5.600	-4.594	-5.784	-4.645	-5.601	-3.297	-3.701	-4.687	-3.889	1.844	4.714	10.725	6.521	9.447	179.688
-3.601	-3.270	-3.535	-3.624	-2.906	-1.965	2.960	4.749	10.507	9.368	13.105	11.081	-0.533	-3.745	-6.335	-5.526	-6.699	-5.276	-6.416	-4.223	-4.540	-5.293	-4.263	2.028	5.686	12.096	7.205	10.486	183.594
-4.158	-3.896	-4.132	-4.106	-3.201	-2.068	3.500	5.711	12.008	10.492	14.427	12.039	-0.793	-4.343	-6.978	-6.386	-7.496	-5.829	-7.158	-5.100	-5.320	-5.826	-4.565	2.175	6.516	13.205	7.746	11.293	187.500
-4.672	-4.449	-4.616	-4.522	-3.420	-2.109	4.028	6.646	13.402	11.508	15.556	12.806	-1.014	-4.883	-7.516	-7.156	-8.167	-6.299	-7.823	-5.914	-6.034	-6.283	-4.800	2.294	7.214	14.061	8.148	11.875	191.406
-5.133	-4.921	-4.976	-4.888	-3.574	-2.102	4.519	7.532	14.656	12.387	16.469	13.376	-1.195	-5.358	-7.941	-7.825	-8.713	-6.688	-8.405	-6.651	-6.680	-6.666	-4.976	2.394	7.800	14.692	8.423	12.250	195.312
-5.533	-5.312	-5.220	-5.222	-3.677	-2.060	4.955	8.347	15.746	13.109	17.152	13.754	-1.334	-5.762	-8.256	-8.386	-9.148	-7.004	-8.907	-7.303	-7.257	-6.974	-5.101	2.488	8.296	15.131	8.591	12.445	199.219
-5.868	-5.624	-5.371	-5.540	-3.743	-1.994	5.324	9.075	16.658	13.663	17.606	13.958	-1.432	-6.091	-8.472	-8.843	-9.491	-7.258	-9.330	-7.867	-7.762	-7.213	-5.181	2.588	8.727	15.418	8.676	12.498	203.125
-6.136	-5.867	-5.460	-5.849	-3.782	-1.912	5.621	9.702	17.384	14.053	17.844	14.011	-1.487	-6.339	-8.606	-9.208	-9.763	-7.462	-9.680	-8.347	-8.193	-7.389	-5.221	2.701	9.110	15.592	8.702	12.445	207.031
-6.340	-6.055	-5.519	-6.146	-3.802	-1.822	5.851	10.217	17.926	14.287	17.887	13.943	-1.498	-6.502	-8.683	-9.499	-9.987	-7.626	-9.962	-8.751	-8.550	-7.509	-5.224	2.831	9.458	15.689	8.692	12.324	210.938
-6.483	-6.199	-5.573	-6.418	-3.807	-1.728	6.016	10.614	18.290	14.381	17.763	13.783	-1.464	-6.577	-8.729	-9.733	-10.178	-7.758	-10.177	-9.090	-8.827	-7.579	-5.188	2.977	9.777	15.736	8.665	12.164	214.844
-6.571	-6.311	-5.635	-6.649	-3.799	-1.634	6.124	10.886	18.485	14.353	17.501	13.556	-1.382	-6.564	-8.765	-9.924	-10.344	-7.866	-10.325	-9.369	-9.019	-7.597	-5.112	3.135	10.065	15.753	8.634	11.986	218.750
-6.608	-6.396	-5.705	-6.819	-3.776	-1.546	6.178	11.034	18.520	14.218	17.130	13.281	-1.253	-6.464	-8.806	-10.076	-10.482	-7.950	-10.402	-9.588	-9.117	-7.561	-4.994	3.303	10.315	15.748	8.604	11.797	222.656
-6.600	-6.455	-5.774	-6.915	-3.736	-1.466	6.182	11.063	18.407	13.995	16.671	12.970	-1.079	-6.280	-8.859	-10.184	-10.583	-8.011	-10.402	-9.737	-9.112	-7.465	-4.834	3.475	10.513	15.715	8.573	11.595	226.562
-6.550	-6.485	-5.829	-6.931	-3.672	-1.397	6.139	10.983	18.160	13.697	16.144	12.628	-0.865	-6.017	-8.919	-10.237	-10.631	-8.045	-10.321	-9.803	-8.996	-7.304	-4.636	3.646	10.644	15.641	8.535	11.368	230.469
-6.465	-6.480	-5.864	-6.871	-3.578	-1.338	6.054	10.809	17.793	13.340	15.563	12.256	-0.619	-5.684	-8.973	-10.218	-10.608	-8.049	-10.156	-9.767	-8.763	-7.072	-4.409	3.813	10.693	15.508	8.480	11.102	234.375
-6.351	-6.435	-5.877	-6.743	-3.449	-1.286	5.935	10.560	17.326	12.936	14.939	11.852	-0.346	-5.286	-9.005	-10.113	-10.499	-8.020	-9.910	-9.619	-8.416	-6.772	-4.162	3.975	10.648	15.298	8.399	10.782	238.281
-6.216	-6.348	-5.873	-6.561	-3.274	-1.232	5.794	10.253	16.777	12.497	14.277	11.415	-0.054	-4.834	-9.001	-9.916	-10.295	-7.955	-9.590	-9.352	-7.962	-6.408	-3.904	4.132	10.504	14.997	8.287	10.399	242.188
-6.071	-6.217	-5.861	-6.335	-3.046	-1.165	5.643	9.903	16.166	12.033	13.586	10.948	0.252	-4.334	-8.952	-9.627	-9.999	-7.858	-9.207	-8.973	-7.416	-5.989	-3.646	4.289	10.263	14.605	8.144	9.952	246.094
-5.926	-6.042	-5.853	-6.076	-2.759	-1.073	5.500	9.522	15.511	11.554	12.872	10.457	0.570	-3.796	-8.856	-9.256	-9.622	-7.736	-8.778	-8.493	-6.796	-5.528	-3.393	4.452	9.939	14.132	7.978	9.450	250.000
-5.793	-5.824	-5.856	-5.791	-2.408	-0.946	5.380	9.117	14.827	11.068	12.144	9.956	0.901	-3.225	-8.723	-8.821	-9.186	-7.600	-8.324	-7.933	-6.120	-5.041	-3.152	4.630	9.549	13.598	7.801	8.911	253.906
-5.682	-5.569	-5.874	-5.485	-1.997	-0.782	5.299	8.694	14.124	10.584	11.415	9.458	1.250	-2.628	-8.565	-8.345	-8.720	-7.465	-7.864	-7.313	-5.405	-4.540	-2.925	4.829	9.119	13.032	7.631	8.358	257.812
-5.599	-5.283	-5.906	-5.165	-1.535	-0.584	5.269	8.253	13.411	10.112	10.699	8.979	1.622	-2.007	-8.402	-7.849	-8.252	-7.344	-7.417	-6.652	-4.665	-4.039	-2.714	5.056	8.671	12.462	7.482	7.813	261.719
-5.549	-4.972	-5.942	-4.833	-1.036	-0.365	5.296	7.797	12.696	9.662	10.007	8.532	2.024	-1.365	-8.249	-7.352	-7.808	-7.252	-6.993	-5.966	-3.905	-3.545	-2.519	5.313	8.228	11.910	7.365	7.292	265.625
-5.528	-4.646	-5.974	-4.494	-0.516	-0.139	5.385	7.330	11.983	9.241	9.352	8.125	2.461	-0.702	-8.121	-6.869	-7.404	-7.201	-6.594	-5.263	-3.128	-3.061	-2.336	5.596	7.802	11.386	7.284	6.800	269.531
-5.533	-4.315	-5.997	-4.149	0.013	0.076	5.530	6.854	11.277	8.859	8.742	7.759	2.933	-0.018	-8.028	-6.404	-7.046	-7.201	-6.216	-4.552	-2.330	-2.589	-2.165	5.896	7.403	10.891	7.234	6.337	273.438
-5.552	-3.987	-6.011	-3.795	0.538	0.271	5.721	6.377	10.585	8.520	8.180	7.434	3.438	0.684	-7.973	-5.956	-6.733	-7.259	-5.848	-3.834	-1.509	-2.130	-2.003	6.199	7.029	10.417	7.207	5.893	277.344
-5.576	-3.671	-6.023	-3.429	1.052	0.438	5.942	5.904	9.914	8.228	7.667	7.143	3.968	1.401	-7.956	-5.520	-6.453	-7.380	-5.480	-3.112	-0.664	-1.684	-1.852	6.488	6.680	9.951	7.190	5.460	281.250
-5.594	-3.370	-6.038	-3.048	1.550	0.574	6.173	5.446	9.274	7.981	7.201	6.883	4.510	2.123	-7.971	-5.088	-6.191	-7.559	-5.102	-2.390	0.201	-1.254	-1.712	6.746	6.349	9.483	7.170	5.030	285.156
-5.599	-3.088	-6.066	-2.650	2.028	0.681	6.392	5.009	8.673	7.775	6.779	6.648	5.050	2.840	-8.011	-4.655	-5.933	-7.789	-4.710	-1.670	1.077	-0.844	-1.584	6.959	6.033	9.009	7.140	4.606	289.062
-5.586	-2.820	-6.109	-2.237	2.483	0.762	6.581	4.600	8.120	7.603	6.394	6.436	5.569	3.538	-8.067	-4.215	-5.667	-8.053	-4.306	-0.955	1.951	-0.455	-1.469	7.121	5.730	8.534	7.095	4.195	292.969
-5.555	-2.564	-6.167	-1.815	2.911	0.817	6.723	4.221	7.621	7.454	6.042	6.246	6.052	4.205	-8.128	-3.768	-5.389	-8.331	-3.893	-0.249	2.810	-0.089	-1.364	7.231	5.441	8.072	7.039	3.810	296.875
-5.512	-2.311	-6.241	-1.391	3.309	0.848	6.809	3.870	7.176	7.317	5.713	6.079	6.486	4.831	-8.183	-3.318	-5.099	-8.601	-3.481	0.445	3.639	0.258	-1.263	7.297	5.171	7.642	6.979	3.466	300.781
-5.464	-2.055	-6.328	-0.976	3.670	0.853	6.838	3.545	6.782	7.178	5.404	5.932	6.864	5.410	-8.224	-2.871	-4.807	-8.847	-3.081	1.124	4.425	0.589	-1.160	7.332	4.929	7.269	6.926	3.177	304.688
-5.421	-1.791	-6.430	-0.583	3.991	0.830	6.812	3.240	6.435	7.025	5.107	5.805	7.183	5.940	-8.242	-2.436	-4.524	-9.057	-2.704	1.781	5.160	0.912	-1.046	7.355	4.722	6.971	6.887	2.949	308.594
-5.393	-1.519	-6.554	-0.223	4.262	0.778	6.739	2.954	6.126	6.849	4.819	5.693	7.443	6.421	-8.234	-2.023	-4.262	-9.223	-2.357	2.411	5.834	1.233	-0.910	7.383	4.561	6.762	6.870	2.781	312.500
-5.385	-1.246	-6.706	0.089	4.478	0.698	6.629	2.685	5.849	6.640	4.535	5.587	7.647	6.852	-8.197	-1.644	-4.030	-9.341	-2.045	3.006	6.441	1.558	-0.745	7.431	4.454	6.643	6.875	2.663	316.406
-5.398	-0.980	-6.891	0.345	4.631	0.595	6.491	2.436	5.597	6.395	4.251	5.477	7.798	7.234	-8.135	-1.305	-3.828	-9.406	-1.767	3.555	6.973	1.893	-0.544	7.507	4.406	6.603	6.897	2.577	320.312
-5.428	-0.734	-7.108	0.538	4.716	0.476	6.329	2.210	5.365	6.110	3.964	5.351	7.895	7.563	-8.053	-1.010	-3.650	-9.417	-1.519	4.051	7.423	2.237	-0.306	7.612	4.418	6.624	6.924	2.504	324.219
-5.463	-0.520	-7.341	0.668	4.733	0.353	6.146	2.010	5.149	5.787	3.669	5.199	7.938	7.834	-7.957	-0.760	-3.486	-9.371	-1.296	4.483	7.786	2.587	-0.031	7.740	4.485	6.679	6.943	2.424	328.125
-5.489	-0.342	-7.567	0.744	4.688	0.238	5.941	1.838	4.948	5.432	3.366	5.012	7.926	8.040	-7.856	-0.548	-3.323	-9.273	-1.090	4.847	8.056	2.934	0.273	7.876	4.598	6.739	6.939	2.324	332.031
-5.495	-0.201	-7.756	0.782	4.593	0.142	5.711	1.693	4.762	5.052	3.055	4.790	7.854	8.174	-7.756	-0.368	-3.152	-9.128	-0.896	5.138	8.232	3.266	0.596	8.006	4.745	6.781	6.901	2.198	335.938
-5.469	-0.092	-7.881	0.802	4.464	0.071	5.454	1.576	4.593	4.659	2.740	4.538	7.722	8.232	-7.659	-0.211	-2.967	-8.949	-0.710	5.358	8.317	3.570	0.927	8.114	4.910	6.788	6.823	2.052	339.844
-5.410	-0.005	-7.925	0.826	4.320	0.028	5.168	1.481	4.439	4.266	2.431	4.268	7.535	8.215	-7.565	-0.069	-2.768	-8.745	-0.530	5.511	8.318	3.835	1.252	8.184	5.077	6.753	6.709	1.894	343.750
-5.319	0.070	-7.890	0.870	4.179	0.010	4.855	1.406	4.302	3.887	2.137	3.996	7.301	8.131	-7.467	0.065	-2.556	-8.523	-0.355	5.606	8.249	4.052	1.557	8.208	5.231	6.677	6.562	1.740	347.656
-5.204	0.141	-7.791	0.943	4.053	0.012	4.521	1.344	4.177	3.531	1.870	3.736	7.034	7.993	-7.356	0.198	-2.338	-8.283	-0.182	5.655	8.124	4.220	1.833	8.181	5.356	6.565	6.394	1.602	351.562
-5.075	0.212	-7.653	1.043	3.949	0.023	4.175	1.292	4.058	3.205	1.635	3.500	6.750	7.815	-7.220	0.330	-2.116	-8.020	-0.009	5.670	7.962	4.343	2.071	8.104	5.443	6.425	6.212	1.488	355.469
-4.940	0.284	-7.508	1.162	3.863	0.034	3.829	1.244	3.937	2.909	1.437	3.292	6.464	7.615	-7.047	0.464	-1.894	-7.724	0.167	5.665	7.778	4.428	2.274	7.982	5.483	6.266	6.022	1.397	359.375
-4.805	0.355	-7.380	1.283	3.790	0.035	3.496	1.197	3.811	2.639	1.272	3.106	6.187	7.407	-6.831	0.596	-1.673	-7.385	0.348	5.647	7.585	4.488	2.445	7.821	5.475	6.094	5.827	1.318	363.281
-4.672	0.423	-7.283	1.391	3.721	0.021	3.190	1.152	3.676	2.392	1.132	2.932	5.922	7.198	-6.568	0.723	-1.454	-7.001	0.534	5.623	7.394	4.532	2.594	7.630	5.423	5.914	5.622	1.237	367.188
-4.542	0.487	-7.218	1.475	3.648	-0.007	2.923	1.111	3.538	2.163	1.010	2.758	5.668	6.991	-6.266	0.839	-1.241	-6.578	0.719	5.594	7.205	4.567	2.731	7.416	5.335	5.729	5.405	1.135	371.094
-4.411	0.549	-7.167	1.528	3.568	-0.040	2.706	1.082	3.406	1.955	0.898	2.572	5.418	6.782	-5.937	0.936	-1.043	-6.135	0.895	5.554	7.016	4.593	2.861	7.184	5.222	5.542	5.169	0.998	375.000
-4.274	0.612	-7.106	1.550	3.484	-0.063	2.546	1.074	3.294	1.772	0.791	2.368	5.164	6.563	-5.603	1.004	-0.871	-5.699	1.048	5.494	6.820	4.604	2.984	6.939	5.098	5.354	4.912	0.819	378.906
-4.130	0.677	-7.000	1.546	3.400	-0.058	2.448	1.096	3.216	1.620	0.686	2.144	4.905	6.327	-5.284	1.032	-0.739	-5.298	1.163	5.402	6.607	4.592	3.092	6.684	4.975	5.165	4.636	0.601	382.812
-3.979	0.745	-6.820	1.522	3.325	-0.009	2.408	1.153	3.181	1.503	0.581	1.903	4.642	6.073	-5.002	1.010	-0.661	-4.961	1.226	5.265	6.370	4.548	3.178	6.424	4.863	4.974	4.345	0.353	386.719
-3.821	0.815	-6.544	1.483	3.269	0.094	2.419	1.247	3.189	1.419	0.471	1.650	4.386	5.806	-4.767	0.933	-0.643	-4.704	1.232	5.078	6.107	4.467	3.230	6.161	4.767	4.774	4.044	0.087	390.625
-3.660	0.884	-6.165	1.436	3.238	0.256	2.467	1.374	3.229	1.358	0.345	1.386	4.149	5.537	-4.580	0.803	-0.682	-4.524	1.179	4.839	5.825	4.351	3.242	5.898	4.685	4.558	3.741	-0.183	394.531
-3.498	0.950	-5.693	1.386	3.238	0.470	2.533	1.521	3.283	1.297	0.188	1.106	3.948	5.288	-4.433	0.630	-0.766	-4.405	1.078	4.560	5.539	4.211	3.214	5.636	4.611	4.313	3.436	-0.453	398.438
-3.334	1.012	-5.154	1.340	3.272	0.725	2.594	1.675	3.321	1.211	-0.022	0.800	3.794	5.082	-4.303	0.435	-0.871	-4.314	0.950	4.262	5.275	4.062	3.153	5.375	4.530	4.024	3.125	-0.726	402.344
-3.165	1.072	-4.585	1.305	3.342	1.002	2.626	1.816	3.317	1.067	-0.307	0.452	3.689	4.945	-4.165	0.250	-0.967	-4.210	0.822	3.976	5.064	3.929	3.072	5.108	4.426	3.678	2.799	-1.014	406.250
-2.986	1.138	-4.030	1.288	3.445	1.285	2.606	1.925	3.242	0.838	-0.683	0.048	3.628	4.894	-3.992	0.109	-1.020	-4.055	0.727	3.742	4.938	3.837	2.990	4.830	4.283	3.263	2.447	-1.335	410.156
-2.787	1.220	-3.529	1.299	3.578	1.557	2.519	1.984	3.082	0.504	-1.157	-0.423	3.595	4.940	-3.764	0.050	-1.000	-3.819	0.696	3.599	4.927	3.808	2.924	4.531	4.088	2.775	2.055	-1.704	414.062
-2.559	1.327	-3.114	1.347	3.736	1.804	2.356	1.981	2.832	0.063	-1.719	-0.958	3.565	5.077	-3.474	0.100	-0.885	-3.489	0.755	3.581	5.047	3.858	2.888	4.204	3.834	2.221	1.619	-2.129	417.969
-2.301	1.467	-2.800	1.438	3.911	2.018	2.120	1.912	2.502	-0.472	-2.342	-1.541	3.515	5.287	-3.125	0.271	-0.671	-3.068	0.913	3.704	5.298	3.990	2.886	3.846	3.528	1.622	1.142	-2.603	421.875
-2.015	1.640	-2.591	1.574	4.091	2.196	1.823	1.783	2.119	-1.067	-2.983	-2.139	3.422	5.536	-2.736	0.550	-0.372	-2.580	1.164	3.958	5.656	4.191	2.916	3.459	3.185	1.008	0.639	-3.101	425.781
-1.714	1.834	-2.474	1.743	4.263	2.336	1.486	1.611	1.718	-1.678	-3.591	-2.711	3.275	5.785	-2.332	0.902	-0.018	-2.060	1.480	4.308	6.076	4.437	2.968	3.058	2.830	0.418	0.139	-3.583	429.688
-1.416	2.027	-2.428	1.925	4.409	2.438	1.137	1.422	1.340	-2.253	-4.110	-3.207	3.072	5.991	-1.946	1.272	0.348	-1.553	1.820	4.693	6.498	4.692	3.026	2.660	2.493	-0.108	-0.325	-3.997	433.594
-1.144	2.192	-2.425	2.093	4.515	2.503	0.803	1.243	1.021	-2.746	-4.499	-3.584	2.823	6.118	-1.604	1.597	0.679	-1.104	2.138	5.045	6.860	4.921	3.076	2.290	2.201	-0.537	-0.715	-4.293	437.500
-0.915	2.302	-2.436	2.219	4.574	2.536	0.510	1.100	0.788	-3.122	-4.730	-3.816	2.546	6.145	-1.327	1.824	0.934	-0.751	2.391	5.295	7.108	5.092	3.107	1.970	1.972	-0.850	-1.006	-4.435	441.406
-0.743	2.342	-2.435	2.283	4.585	2.545	0.279	1.005	0.650	-3.364	-4.804	-3.891	2.263	6.065	-1.124	1.918	1.086	-0.518	2.549	5.402	7.213	5.185	3.110	1.715	1.809	-1.046	-1.181	-4.407	445.312
-0.629	2.310	-2.403	2.278	4.558	2.541	0.121	0.962	0.603	-3.476	-4.741	-3.826	1.997	5.891	-0.993	1.873	1.127	-0.417	2.599	5.352	7.173	5.195	3.085	1.529	1.699	-1.142	-1.243	-4.221	449.219
-0.564	2.221	-2.333	2.211	4.511	2.536	0.037	0.959	0.628	-3.477	-4.580	-3.651	1.765	5.650	-0.921	1.715	1.070	-0.441	2.552	5.171	7.017	5.131	3.033	1.405	1.618	-1.167	-1.212	-3.911	453.125
-0.530	2.102	-2.226	2.101	4.461	2.542	0.019	0.979	0.697	-3.397	-4.370	-3.409	1.576	5.376	-0.888	1.492	0.944	-0.571	2.431	4.910	6.792	5.011	2.959	1.327	1.536	-1.155	-1.117	-3.531	457.031
-0.510	1.982	-2.092	1.972	4.425	2.565	0.053	0.997	0.781	-3.272	-4.154	-3.146	1.430	5.102	-0.874	1.259	0.785	-0.776	2.270	4.636	6.553	4.858	2.871	1.272	1.428	-1.137	-0.994	-3.134	460.938
-0.486	1.891	-1.945	1.848	4.413	2.604	0.119	0.993	0.856	-3.133	-3.964	-2.897	1.321	4.855	-0.860	1.069	0.630	-1.020	2.103	4.411	6.349	4.695	2.773	1.219	1.281	-1.129	-0.872	-2.769	464.844
-0.449	1.845	-1.804	1.745	4.422	2.655	0.196	0.955	0.907	-3.003	-3.814	-2.686	1.236	4.648	-0.835	0.956	0.509	-1.265	1.957	4.276	6.208	4.538	2.670	1.152	1.095	-1.132	-0.773	-2.467	468.750
-0.400	1.848	-1.685	1.667	4.445	2.708	0.266	0.880	0.930	-2.895	-3.699	-2.516	1.165	4.483	-0.793	0.930	0.437	-1.478	1.846	4.243	6.138	4.395	2.565	1.064	0.886	-1.131	-0.703	-2.236	472.656
-0.347	1.888	-1.602	1.609	4.464	2.752	0.319	0.777	0.931	-2.809	-3.597	-2.376	1.099	4.350	-0.736	0.975	0.415	-1.638	1.771	4.295	6.122	4.265	2.461	0.958	0.679	-1.105	-0.656	-2.063	476.562
-0.306	1.945	-1.561	1.555	4.463	2.777	0.350	0.663	0.924	-2.736	-3.482	-2.245	1.034	4.234	-0.673	1.057	0.426	-1.732	1.719	4.391	6.129	4.144	2.359	0.844	0.501	-1.029	-0.616	-1.917	480.469
-0.291	1.994	-1.564	1.490	4.426	2.772	0.362	0.557	0.926	-2.665	-3.325	-2.094	0.972	4.120	-0.612	1.134	0.448	-1.766	1.673	4.483	6.126	4.021	2.260	0.734	0.376	-0.885	-0.562	-1.760	484.375
-0.311	2.012	-1.607	1.398	4.343	2.733	0.361	0.477	0.951	-2.580	-3.108	-1.902	0.914	3.996	-0.562	1.166	0.451	-1.754	1.611	4.526	6.085	3.889	2.165	0.641	0.315	-0.669	-0.475	-1.557	488.281
-0.369	1.984	-1.682	1.277	4.214	2.658	0.356	0.438	1.007	-2.473	-2.826	-1.654	0.866	3.857	-0.528	1.129	0.413	-1.719	1.517	4.491	5.993	3.743	2.074	0.570	0.317	-0.395	-0.347	-1.283	492.188
-0.454	1.909	-1.776	1.130	4.046	2.554	0.350	0.442	1.092	-2.339	-2.488	-1.352	0.828	3.704	-0.510	1.018	0.322	-1.682	1.385	4.373	5.853	3.582	1.984	0.518	0.364	-0.093	-0.181	-0.933	496.094
-0.549	1.797	-1.874	0.975	3.853	2.432	0.347	0.483	1.193	-2.185	-2.119	-1.012	0.798	3.546	-0.504	0.847	0.182	-1.662	1.221	4.190	5.686	3.410	1.894	0.472	0.431	0.196	0.007	-0.525	500.000
-0.628	1.668	-1.960	0.834	3.657	2.309	0.345	0.545	1.293	-2.024	-1.754	-0.665	0.769	3.397	-0.497	0.647	0.013	-1.662	1.040	3.976	5.520	3.236	1.802	0.413	0.486	0.420	0.188	-0.096	503.906
-0.667	1.550	-2.015	0.730	3.479	2.207	0.340	0.607	1.367	-1.879	-1.432	-0.353	0.732	3.270	-0.475	0.462	-0.153	-1.673	0.870	3.776	5.387	3.072	1.707	0.319	0.494	0.531	0.324	0.299	507.812
-0.644	1.469	-2.023	0.682	3.342	2.147	0.325	0.650	1.392	-1.776	-1.191	-0.123	0.676	3.178	-0.421	0.333	-0.275	-1.672	0.742	3.633	5.318	2.932	1.611	0.168	0.430	0.487	0.373	0.596	511.719
-0.546	1.452	-1.969	0.703	3.263	2.147	0.296	0.657	1.350	-1.742	-1.064	-0.021	0.590	3.131	-0.319	0.299	-0.312	-1.629	0.686	3.583	5.330	2.833	1.522	-0.058	0.276	0.263	0.299	0.733	515.625
-0.369	1.515	-1.842	0.797	3.252	2.215	0.248	0.618	1.232	-1.801	-1.071	-0.080	0.464	3.133	-0.158	0.386	-0.234	-1.518	0.728	3.650	5.434	2.786	1.451	-0.362	0.031	-0.146	0.077	0.660	519.531
-0.121	1.669	-1.636	0.958	3.308	2.348	0.178	0.535	1.039	-1.969	-1.218	-0.320	0.294	3.182	0.063	0.605	-0.023	-1.325	0.882	3.841	5.626	2.802	1.412	-0.737	-0.292	-0.719	-0.299	0.353	523.438
0.183	1.909	-1.356	1.177	3.426	2.536	0.085	0.416	0.781	-2.249	-1.497	-0.735	0.078	3.271	0.333	0.951	0.316	-1.055	1.149	4.147	5.891	2.886	1.419	-1.162	-0.665	-1.413	-0.816	-0.185	527.344
0.518	2.224	-1.018	1.435	3.590	2.756	-0.030	0.279	0.480	-2.625	-1.882	-1.296	-0.181	3.386	0.633	1.401	0.757	-0.730	1.511	4.543	6.206	3.032	1.480	-1.603	-1.050	-2.165	-1.436	-0.916	531.250
0.857	2.587	-0.648	1.713	3.781	2.987	-0.162	0.147	0.165	-3.068	-2.336	-1.954	-0.475	3.509	0.935	1.917	1.259	-0.389	1.932	4.994	6.538	3.225	1.593	-2.019	-1.407	-2.903	-2.104	-1.773	535.156
1.172	2.964	-0.282	1.989	3.977	3.206	-0.300	0.046	-0.128	-3.535	-2.810	-2.640	-0.795	3.617	1.209	2.450	1.764	-0.077	2.364	5.453	6.849	3.440	1.743	-2.371	-1.696	-3.552	-2.757	-2.664	539.062
1.435	3.320	0.046	2.238	4.157	3.398	-0.430	-0.001	-0.365	-3.973	-3.251	-3.282	-1.127	3.685	1.428	2.943	2.215	0.162	2.751	5.870	7.100	3.640	1.905	-2.626	-1.888	-4.051	-3.329	-3.493	542.969
1.625	3.615	0.307	2.437	4.302	3.553	-0.537	0.026	-0.515	-4.331	-3.610	-3.812	-1.459	3.691	1.574	3.344	2.557	0.297	3.037	6.195	7.254	3.789	2.049	-2.764	-1.965	-4.356	-3.766	-4.165	546.875
1.726	3.817	0.485	2.563	4.394	3.668	-0.604	0.134	-0.554	-4.565	-3.848	-4.173	-1.775	3.617	1.636	3.607	2.755	0.317	3.182	6.390	7.281	3.853	2.144	-2.777	-1.926	-4.451	-4.028	-4.610	550.781
1.734	3.903	0.573	2.594	4.421	3.740	-0.617	0.321	-0.475	-4.646	-3.938	-4.333	-2.060	3.453	1.619	3.703	2.791	0.229	3.164	6.429	7.164	3.810	2.171	-2.677	-1.784	-4.345	-4.101	-4.783	554.688
1.651	3.860	0.575	2.517	4.373	3.764	-0.569	0.569	-0.283	-4.564	-3.872	-4.282	-2.299	3.204	1.533	3.623	2.675	0.060	2.988	6.307	6.904	3.655	2.122	-2.485	-1.563	-4.073	-3.990	-4.677	558.594
1.491	3.693	0.500	2.328	4.249	3.736	-0.457	0.853	-0.001	-4.327	-3.661	-4.037	-2.474	2.886	1.397	3.383	2.436	-0.156	2.681	6.042	6.521	3.400	2.003	-2.230	-1.293	-3.686	-3.723	-4.317	562.500
1.277	3.421	0.359	2.036	4.056	3.653	-0.291	1.138	0.337	-3.966	-3.333	-3.635	-2.573	2.527	1.234	3.017	2.119	-0.379	2.287	5.668	6.053	3.075	1.837	-1.945	-1.007	-3.242	-3.339	-3.759	566.406
1.034	3.079	0.166	1.664	3.808	3.514	-0.087	1.389	0.686	-3.524	-2.933	-3.131	-2.584	2.163	1.069	2.581	1.777	-0.578	1.861	5.236	5.549	2.717	1.650	-1.661	-0.735	-2.798	-2.888	-3.077	570.312
0.791	2.712	-0.060	1.248	3.530	3.325	0.133	1.576	1.003	-3.056	-2.513	-2.586	-2.503	1.831	0.923	2.134	1.462	-0.727	1.459	4.802	5.064	2.371	1.474	-1.403	-0.500	-2.402	-2.420	-2.357	574.219
0.575	2.367	-0.295	0.828	3.247	3.101	0.343	1.673	1.245	-2.618	-2.129	-2.067	-2.337	1.566	0.815	1.739	1.218	-0.814	1.127	4.419	4.651	2.075	1.336	-1.189	-0.321	-2.087	-1.984	-1.680	578.125
0.410	2.091	-0.510	0.446	2.990	2.862	0.516	1.669	1.383	-2.264	-1.833	-1.633	-2.101	1.393	0.757	1.449	1.074	-0.836	0.901	4.131	4.350	1.859	1.254	-1.032	-0.205	-1.869	-1.616	-1.116	582.031
0.310	1.921	-0.675	0.143	2.782	2.636	0.626	1.564	1.398	-2.041	-1.668	-1.331	-1.823	1.321	0.756	1.303	1.047	-0.797	0.799	3.967	4.183	1.739	1.235	-0.935	-0.146	-1.747	-1.347	-0.714	585.938
0.287	1.883	-0.761	-0.055	2.644	2.450	0.655	1.372	1.291	-1.984	-1.663	-1.196	-1.538	1.346	0.813	1.320	1.136	-0.705	0.822	3.940	4.155	1.716	1.277	-0.898	-0.134	-1.706	-1.194	-0.504	589.844
0.340	1.982	-0.751	-0.131	2.584	2.327	0.592	1.117	1.076	-2.111	-1.831	-1.246	-1.289	1.450	0.923	1.502	1.330	-0.569	0.956	4.043	4.252	1.779	1.370	-0.917	-0.147	-1.724	-1.165	-0.492	593.750
0.466	2.207	-0.636	-0.089	2.600	2.282	0.430	0.830	0.781	-2.425	-2.167	-1.481	-1.116	1.603	1.081	1.829	1.609	-0.397	1.178	4.259	4.445	1.908	1.500	-0.988	-0.160	-1.776	-1.260	-0.667	597.656
0.652	2.529	-0.424	0.055	2.680	2.318	0.176	0.545	0.440	-2.913	-2.651	-1.886	-1.058	1.769	1.281	2.270	1.948	-0.198	1.457	4.556	4.696	2.077	1.650	-1.109	-0.149	-1.839	-1.472	-1.002	601.562
0.885	2.911	-0.133	0.272	2.804	2.426	-0.163	0.292	0.091	-3.546	-3.246	-2.433	-1.141	1.909	1.518	2.781	2.324	0.018	1.763	4.898	4.961	2.261	1.807	-1.277	-0.094	-1.896	-1.787	-1.460	605.469
1.148	3.310	0.210	0.527	2.949	2.584	-0.570	0.094	-0.232	-4.281	-3.906	-3.080	-1.378	1.987	1.789	3.316	2.714	0.242	2.070	5.244	5.198	2.432	1.961	-1.491	0.014	-1.938	-2.185	-1.995	609.375
1.427	3.689	0.574	0.785	3.087	2.767	-1.029	-0.036	-0.503	-5.066	-4.575	-3.774	-1.765	1.974	2.089	3.835	3.102	0.463	2.356	5.557	5.371	2.571	2.102	-1.749	0.174	-1.961	-2.641	-2.559	613.281
1.708	4.018	0.928	1.014	3.195	2.943	-1.518	-0.098	-0.706	-5.844	-5.197	-4.462	-2.282	1.855	2.411	4.299	3.473	0.672	2.603	5.808	5.453	2.660	2.225	-2.049	0.374	-1.968	-3.127	-3.103	617.188
1.976	4.278	1.243	1.191	3.255	3.085	-2.015	-0.102	-0.839	-6.559	-5.721	-5.085	-2.892	1.624	2.746	4.685	3.812	0.860	2.799	5.975	5.427	2.689	2.322	-2.381	0.593	-1.960	-3.608	-3.579	621.094
2.219	4.464	1.493	1.304	3.256	3.173	-2.495	-0.067	-0.910	-7.159	-6.106	-5.592	-3.548	1.294	3.077	4.976	4.106	1.020	2.936	6.049	5.291	2.655	2.390	-2.732	0.807	-1.940	-4.048	-3.942	625.000
2.424	4.576	1.663	1.349	3.196	3.196	-2.936	-0.017	-0.934	-7.603	-6.325	-5.938	-4.198	0.891	3.386	5.167	4.344	1.144	3.009	6.031	5.056	2.563	2.424	-3.080	0.991	-1.910	-4.411	-4.156	628.906
2.580	4.622	1.742	1.333	3.086	3.157	-3.314	0.024	-0.930	-7.867	-6.370	-6.096	-4.786	0.455	3.652	5.263	4.512	1.226	3.018	5.935	4.744	2.425	2.425	-3.399	1.124	-1.871	-4.664	-4.199	632.812
2.676	4.615	1.732	1.269	2.943	3.070	-3.608	0.040	-0.917	-7.946	-6.253	-6.062	-5.264	0.032	3.857	5.273	4.603	1.258	2.966	5.781	4.394	2.261	2.394	-3.662	1.188	-1.828	-4.788	-4.069	636.719
2.708	4.568	1.642	1.173	2.793	2.956	-3.803	0.021	-0.911	-7.853	-6.004	-5.852	-5.597	-0.331	3.990	5.216	4.615	1.232	2.865	5.596	4.047	2.097	2.341	-3.843	1.175	-1.789	-4.777	-3.785	640.625
2.678	4.496	1.494	1.067	2.661	2.843	-3.891	-0.034	-0.922	-7.623	-5.670	-5.508	-5.762	-0.591	4.047	5.113	4.554	1.145	2.729	5.411	3.750	1.960	2.275	-3.926	1.081	-1.767	-4.645	-3.394	644.531
2.593	4.412	1.317	0.969	2.576	2.756	-3.874	-0.116	-0.957	-7.304	-5.310	-5.091	-5.759	-0.717	4.035	4.992	4.437	0.999	2.583	5.257	3.543	1.874	2.212	-3.906	0.910	-1.778	-4.422	-2.961	648.438
2.471	4.332	1.149	0.897	2.555	2.715	-3.767	-0.215	-1.021	-6.954	-4.987	-4.674	-5.603	-0.694	3.971	4.884	4.290	0.806	2.452	5.164	3.459	1.859	2.165	-3.790	0.673	-1.839	-4.154	-2.563	652.344
2.334	4.275	1.025	0.863	2.609	2.731	-3.591	-0.317	-1.112	-6.628	-4.760	-4.334	-5.328	-0.527	3.877	4.818	4.147	0.587	2.365	5.154	3.514	1.926	2.147	-3.601	0.385	-1.964	-3.895	-2.278	656.250
2.205	4.256	0.975	0.878	2.736	2.804	-3.377	-0.411	-1.232	-6.378	-4.676	-4.134	-4.975	-0.239	3.780	4.819	4.044	0.369	2.345	5.242	3.704	2.074	2.168	-3.373	0.064	-2.166	-3.697	-2.172	660.156
2.107	4.288	1.020	0.942	2.923	2.928	-3.155	-0.486	-1.372	-6.237	-4.758	-4.118	-4.589	0.137	3.703	4.902	4.010	0.184	2.406	5.423	4.007	2.289	2.228	-3.142	-0.274	-2.448	-3.604	-2.287	664.062
2.057	4.379	1.165	1.053	3.148	3.088	-2.950	-0.534	-1.523	-6.217	-5.005	-4.299	-4.210	0.556	3.660	5.063	4.063	0.057	2.544	5.681	4.386	2.544	2.319	-2.944	-0.612	-2.807	-3.640	-2.632	667.969
2.060	4.520	1.398	1.198	3.385	3.267	-2.779	-0.552	-1.669	-6.309	-5.388	-4.659	-3.864	0.974	3.657	5.284	4.199	0.006	2.741	5.981	4.791	2.805	2.427	-2.807	-0.938	-3.228	-3.807	-3.179	671.875
2.115	4.692	1.695	1.355	3.604	3.442	-2.648	-0.538	-1.792	-6.482	-5.852	-5.146	-3.565	1.351	3.683	5.528	4.392	0.033	2.962	6.278	5.170	3.031	2.532	-2.744	-1.240	-3.689	-4.083	-3.865	675.781
2.205	4.860	2.017	1.496	3.779	3.594	-2.550	-0.494	-1.872	-6.688	-6.324	-5.681	-3.311	1.661	3.720	5.748	4.600	0.125	3.163	6.522	5.473	3.186	2.612	-2.748	-1.510	-4.156	-4.419	-4.598	679.688
2.305	4.981	2.316	1.588	3.887	3.701	-2.470	-0.424	-1.892	-6.872	-6.723	-6.172	-3.083	1.889	3.740	5.891	4.771	0.256	3.300	6.666	5.666	3.241	2.648	-2.795	-1.738	-4.587	-4.750	-5.271	683.594
2.384	5.009	2.542	1.599	3.915	3.744	-2.385	-0.341	-1.844	-6.977	-6.973	-6.524	-2.856	2.037	3.713	5.914	4.853	0.390	3.335	6.677	5.729	3.183	2.627	-2.847	-1.920	-4.936	-5.002	-5.774	687.500
2.411	4.905	2.653	1.500	3.854	3.707	-2.275	-0.256	-1.726	-6.956	-7.015	-6.654	-2.603	2.117	3.615	5.788	4.809	0.489	3.248	6.539	5.662	3.012	2.543	-2.860	-2.050	-5.161	-5.106	-6.015	691.406
2.360	4.646	2.620	1.276	3.708	3.582	-2.124	-0.189	-1.550	-6.778	-6.817	-6.510	-2.301	2.150	3.433	5.507	4.620	0.523	3.034	6.260	5.485	2.745	2.401	-2.793	-2.127	-5.226	-5.009	-5.931	695.312
2.217	4.233	2.435	0.928	3.488	3.367	-1.930	-0.157	-1.338	-6.441	-6.383	-6.077	-1.936	2.158	3.167	5.087	4.296	0.472	2.712	5.867	5.229	2.412	2.213	-2.619	-2.152	-5.113	-4.686	-5.504	699.219
1.983	3.689	2.113	0.477	3.211	3.074	-1.701	-0.177	-1.121	-5.966	-5.753	-5.385	-1.511	2.163	2.838	4.567	3.872	0.332	2.319	5.406	4.936	2.051	1.999	-2.330	-2.128	-4.825	-4.146	-4.765	703.125
1.676	3.061	1.691	-0.038	2.904	2.727	-1.460	-0.260	-0.934	-5.405	-5.001	-4.504	-1.046	2.177	2.478	4.003	3.402	0.120	1.902	4.930	4.647	1.702	1.781	-1.946	-2.062	-4.386	-3.436	-3.787	707.031
1.328	2.411	1.222	-0.567	2.596	2.361	-1.241	-0.410	-0.807	-4.827	-4.219	-3.537	-0.576	2.207	2.130	3.454	2.947	-0.134	1.514	4.495	4.400	1.401	1.586	-1.507	-1.962	-3.841	-2.632	-2.679	710.938
0.977	1.808	0.768	-1.052	2.317	2.018	-1.080	-0.619	-0.766	-4.313	-3.509	-2.602	-0.146	2.253	1.840	2.980	2.567	-0.385	1.200	4.147	4.223	1.177	1.436	-1.068	-1.836	-3.251	-1.828	-1.571	714.844
0.667	1.315	0.390	-1.440	2.094	1.738	-1.011	-0.874	-0.824	-3.942	-2.964	-1.816	0.194	2.309	1.651	2.625	2.306	-0.588	0.997	3.918	4.132	1.048	1.350	-0.693	-1.695	-2.681	-1.125	-0.588	718.750
0.436	0.978	0.136	-1.689	1.947	1.555	-1.060	-1.152	-0.978	-3.775	-2.654	-1.279	0.401	2.367	1.590	2.419	2.190	-0.701	0.925	3.823	4.132	1.020	1.341	-0.436	-1.549	-2.194	-0.610	0.158	722.656
0.315	0.822	0.036	-1.775	1.891	1.490	-1.235	-1.427	-1.215	-3.848	-2.618	-1.056	0.445	2.419	1.673	2.369	2.222	-0.691	0.985	3.861	4.218	1.091	1.414	-0.339	-1.406	-1.843	-0.348	0.588	726.562
0.317	0.848	0.096	-1.693	1.929	1.548	-1.529	-1.672	-1.507	-4.167	-2.859	-1.174	0.311	2.462	1.893	2.468	2.387	-0.544	1.165	4.015	4.376	1.248	1.565	-0.418	-1.277	-1.666	-0.372	0.661	730.469
0.445	1.038	0.302	-1.460	2.055	1.721	-1.917	-1.862	-1.824	-4.703	-3.349	-1.618	0.008	2.493	2.227	2.691	2.656	-0.259	1.442	4.258	4.591	1.473	1.784	-0.667	-1.172	-1.680	-0.679	0.379	734.375
0.685	1.357	0.624	-1.105	2.256	1.987	-2.358	-1.980	-2.133	-5.401	-4.029	-2.335	-0.438	2.511	2.638	3.007	2.993	0.144	1.783	4.561	4.843	1.742	2.051	-1.057	-1.101	-1.885	-1.234	-0.222	738.281
1.015	1.764	1.018	-0.670	2.511	2.317	-2.808	-2.016	-2.403	-6.187	-4.828	-3.249	-0.984	2.518	3.079	3.380	3.359	0.633	2.155	4.895	5.113	2.032	2.342	-1.542	-1.069	-2.261	-1.976	-1.072	742.188
1.403	2.213	1.442	-0.203	2.794	2.678	-3.220	-1.971	-2.616	-6.983	-5.666	-4.264	-1.580	2.513	3.504	3.773	3.722	1.166	2.524	5.233	5.382	2.318	2.633	-2.066	-1.082	-2.772	-2.827	-2.082	746.094
1.811	2.658	1.849	0.247	3.076	3.032	-3.555	-1.857	-2.759	-7.710	-6.468	-5.282	-2.172	2.497	3.873	4.150	4.055	1.694	2.860	5.551	5.631	2.578	2.901	-2.572	-1.138	-3.370	-3.701	-3.148	750.000
2.203	3.057	2.203	0.635	3.328	3.346	-3.787	-1.693	-2.831	-8.306	-7.169	-6.211	-2.707	2.468	4.156	4.479	4.336	2.172	3.139	5.829	5.841	2.794	3.126	-3.006	-1.232	-3.996	-4.513	-4.169	753.906
2.540	3.373	2.471	0.919	3.520	3.587	-3.900	-1.502	-2.838	-8.726	-7.720	-6.972	-3.141	2.426	4.334	4.728	4.546	2.562	3.341	6.045	5.994	2.950	3.295	-3.326	-1.351	-4.592	-5.187	-5.048	757.812
2.790	3.573	2.634	1.071	3.631	3.732	-3.895	-1.307	-2.786	-8.941	-8.086	-7.505	-3.437	2.373	4.402	4.871	4.671	2.837	3.453	6.179	6.076	3.037	3.395	-3.501	-1.480	-5.102	-5.666	-5.707	761.719
2.925	3.637	2.685	1.071	3.646	3.763	-3.777	-1.125	-2.684	-8.941	-8.247	-7.773	-3.564	2.314	4.364	4.890	4.693	2.981	3.466	6.212	6.077	3.047	3.421	-3.517	-1.606	-5.481	-5.908	-6.092	765.625
2.927	3.555	2.631	0.916	3.564	3.680	-3.560	-0.963	-2.534	-8.732	-8.197	-7.761	-3.504	2.259	4.229	4.773	4.603	2.991	3.377	6.128	5.993	2.977	3.367	-3.373	-1.715	-5.700	-5.898	-6.175	769.531
2.785	3.331	2.499	0.615	3.394	3.489	-3.256	-0.822	-2.337	-8.325	-7.939	-7.477	-3.249	2.218	4.015	4.520	4.389	2.875	3.189	5.919	5.828	2.830	3.231	-3.081	-1.801	-5.751	-5.642	-5.959	773.438
2.500	2.981	2.325	0.192	3.156	3.210	-2.879	-0.696	-2.091	-7.743	-7.486	-6.944	-2.802	2.205	3.737	4.142	4.050	2.646	2.912	5.585	5.593	2.610	3.013	-2.663	-1.863	-5.646	-5.166	-5.475	777.344
2.080	2.530	2.152	-0.327	2.872	2.866	-2.440	-0.575	-1.792	-7.010	-6.861	-6.204	-2.178	2.230	3.412	3.655	3.590	2.321	2.561	5.137	5.303	2.327	2.718	-2.148	-1.904	-5.410	-4.508	-4.770	781.250
1.545	2.003	2.017	-0.911	2.565	2.479	-1.951	-0.450	-1.439	-6.155	-6.090	-5.304	-1.404	2.299	3.057	3.085	3.022	1.922	2.151	4.591	4.974	1.994	2.352	-1.563	-1.930	-5.080	-3.716	-3.906	785.156
0.920	1.429	1.940	-1.533	2.254	2.068	-1.422	-0.312	-1.036	-5.210	-5.210	-4.294	-0.515	2.410	2.683	2.455	2.367	1.470	1.701	3.971	4.623	1.623	1.931	-0.937	-1.948	-4.694	-2.839	-2.943	789.062
0.238	0.831	1.924	-2.173	1.948	1.650	-0.866	-0.160	-0.594	-4.208	-4.261	-3.226	0.446	2.554	2.302	1.791	1.653	0.989	1.228	3.304	4.264	1.230	1.473	-0.291	-1.964	-4.285	-1.922	-1.936	792.969
-0.466	0.231	1.950	-2.812	1.653	1.235	-0.299	0.007	-0.131	-3.187	-3.288	-2.148	1.433	2.717	1.922	1.118	0.913	0.502	0.749	2.620	3.905	0.830	0.999	0.355	-1.982	-3.881	-1.001	-0.931	796.875
