FP1	F3	F7	FC3	C3	C5	P3	P7	PO7	PO3	O1	Oz	Pz	CPz	FP2	Fz	F4	F8	FC4	FCz	Cz	C4	C6	P4	P8	PO8	PO4	O2	time
0.613	1.535	1.095	1.113	0.413	0.239	-0.126	-0.604	-1.228	-0.721	-1.063	-1.093	-0.153	0.239	1.170	1.606	0.723	0.362	0.948	1.051	0.564	0.670	0.492	-0.234	-0.332	-1.284	-1.106	-1.192	-199.219
0.694	1.314	0.816	0.930	0.335	0.071	-0.066	-0.726	-1.289	-0.696	-1.127	-1.184	-0.037	0.367	1.237	1.533	0.788	0.465	0.974	1.012	0.676	0.683	0.529	-0.126	-0.301	-1.132	-0.919	-1.146	-195.312
0.755	1.108	0.562	0.762	0.263	-0.091	-0.011	-0.834	-1.339	-0.674	-1.181	-1.269	0.067	0.483	1.295	1.461	0.839	0.555	0.994	0.978	0.779	0.695	0.559	-0.027	-0.269	-0.989	-0.738	-1.096	-191.406
0.777	0.922	0.351	0.616	0.197	-0.241	0.038	-0.914	-1.363	-0.651	-1.214	-1.334	0.151	0.574	1.332	1.387	0.864	0.617	0.998	0.948	0.863	0.703	0.578	0.057	-0.231	-0.858	-0.568	-1.035	-187.500
0.747	0.758	0.189	0.496	0.139	-0.373	0.079	-0.951	-1.349	-0.624	-1.218	-1.369	0.207	0.629	1.334	1.304	0.851	0.640	0.981	0.916	0.917	0.706	0.582	0.123	-0.183	-0.735	-0.412	-0.956	-183.594
0.660	0.609	0.072	0.398	0.088	-0.482	0.116	-0.936	-1.286	-0.590	-1.184	-1.362	0.236	0.645	1.289	1.205	0.794	0.618	0.938	0.876	0.933	0.703	0.571	0.170	-0.121	-0.615	-0.272	-0.854	-179.688
0.518	0.466	-0.011	0.318	0.038	-0.564	0.148	-0.862	-1.169	-0.546	-1.109	-1.306	0.238	0.620	1.187	1.082	0.689	0.547	0.866	0.815	0.906	0.691	0.547	0.201	-0.043	-0.491	-0.147	-0.724	-175.781
0.331	0.319	-0.075	0.243	-0.013	-0.617	0.180	-0.731	-0.998	-0.489	-0.991	-1.196	0.219	0.553	1.026	0.929	0.542	0.434	0.768	0.724	0.831	0.668	0.514	0.219	0.053	-0.355	-0.040	-0.565	-171.875
0.113	0.160	-0.132	0.164	-0.070	-0.640	0.210	-0.547	-0.777	-0.418	-0.833	-1.033	0.181	0.449	0.812	0.743	0.360	0.289	0.644	0.594	0.707	0.627	0.477	0.224	0.165	-0.200	0.052	-0.379	-167.969
-0.116	-0.016	-0.190	0.071	-0.138	-0.636	0.238	-0.323	-0.515	-0.336	-0.640	-0.824	0.127	0.309	0.558	0.527	0.157	0.129	0.498	0.421	0.535	0.564	0.436	0.219	0.288	-0.025	0.126	-0.173	-164.062
-0.336	-0.204	-0.250	-0.040	-0.218	-0.609	0.260	-0.074	-0.226	-0.244	-0.423	-0.580	0.057	0.140	0.285	0.289	-0.054	-0.029	0.338	0.208	0.318	0.471	0.392	0.200	0.413	0.164	0.179	0.044	-160.156
-0.525	-0.394	-0.302	-0.168	-0.307	-0.565	0.272	0.181	0.075	-0.149	-0.191	-0.316	-0.028	-0.053	0.017	0.042	-0.258	-0.167	0.169	-0.035	0.067	0.344	0.342	0.167	0.527	0.355	0.211	0.257	-156.250
-0.664	-0.570	-0.335	-0.304	-0.399	-0.506	0.269	0.423	0.367	-0.056	0.041	-0.052	-0.127	-0.260	-0.223	-0.199	-0.439	-0.272	0.000	-0.291	-0.207	0.182	0.283	0.115	0.615	0.532	0.216	0.451	-152.344
-0.741	-0.713	-0.336	-0.435	-0.487	-0.436	0.253	0.637	0.634	0.027	0.259	0.197	-0.239	-0.468	-0.416	-0.415	-0.590	-0.340	-0.160	-0.540	-0.486	-0.010	0.212	0.046	0.663	0.675	0.193	0.609	-148.438
-0.752	-0.809	-0.296	-0.545	-0.559	-0.357	0.223	0.809	0.857	0.094	0.452	0.413	-0.357	-0.661	-0.550	-0.593	-0.701	-0.370	-0.303	-0.760	-0.748	-0.219	0.128	-0.039	0.663	0.766	0.141	0.721	-144.531
-0.701	-0.845	-0.217	-0.618	-0.604	-0.272	0.188	0.930	1.025	0.143	0.611	0.587	-0.470	-0.819	-0.623	-0.721	-0.772	-0.368	-0.421	-0.929	-0.970	-0.426	0.032	-0.131	0.612	0.794	0.064	0.779	-140.625
-0.601	-0.820	-0.108	-0.644	-0.612	-0.182	0.154	0.997	1.131	0.173	0.728	0.714	-0.564	-0.922	-0.643	-0.790	-0.802	-0.345	-0.506	-1.030	-1.130	-0.610	-0.069	-0.219	0.516	0.754	-0.034	0.786	-136.719
-0.474	-0.740	0.010	-0.618	-0.578	-0.091	0.132	1.011	1.171	0.189	0.805	0.798	-0.622	-0.955	-0.625	-0.799	-0.795	-0.315	-0.556	-1.054	-1.210	-0.747	-0.166	-0.290	0.386	0.651	-0.145	0.751	-132.812
-0.342	-0.617	0.114	-0.540	-0.497	-0.001	0.130	0.975	1.150	0.196	0.844	0.845	-0.628	-0.906	-0.586	-0.749	-0.756	-0.288	-0.567	-0.998	-1.198	-0.820	-0.252	-0.330	0.240	0.499	-0.260	0.686	-128.906
-0.227	-0.469	0.182	-0.419	-0.372	0.085	0.153	0.896	1.076	0.200	0.850	0.867	-0.573	-0.774	-0.539	-0.648	-0.692	-0.275	-0.542	-0.865	-1.096	-0.821	-0.319	-0.332	0.094	0.316	-0.369	0.610	-125.000
-0.145	-0.314	0.200	-0.267	-0.210	0.163	0.202	0.781	0.958	0.207	0.832	0.873	-0.454	-0.569	-0.496	-0.505	-0.609	-0.278	-0.484	-0.670	-0.912	-0.752	-0.364	-0.292	-0.039	0.123	-0.462	0.534	-121.094
-0.107	-0.170	0.165	-0.101	-0.025	0.233	0.271	0.641	0.810	0.219	0.796	0.870	-0.278	-0.311	-0.460	-0.337	-0.514	-0.296	-0.401	-0.433	-0.668	-0.624	-0.386	-0.214	-0.150	-0.057	-0.530	0.470	-117.188
-0.111	-0.049	0.084	0.061	0.166	0.291	0.351	0.485	0.645	0.236	0.748	0.861	-0.063	-0.026	-0.431	-0.161	-0.414	-0.324	-0.301	-0.179	-0.392	-0.459	-0.389	-0.109	-0.234	-0.209	-0.566	0.420	-113.281
-0.149	0.041	-0.026	0.202	0.343	0.336	0.428	0.323	0.476	0.256	0.689	0.843	0.168	0.258	-0.406	0.005	-0.312	-0.350	-0.190	0.065	-0.114	-0.280	-0.377	0.011	-0.288	-0.322	-0.565	0.383	-109.375
-0.206	0.097	-0.144	0.310	0.489	0.366	0.488	0.163	0.314	0.272	0.622	0.808	0.387	0.513	-0.381	0.145	-0.213	-0.366	-0.078	0.277	0.138	-0.109	-0.354	0.130	-0.313	-0.389	-0.525	0.353	-105.469
-0.266	0.120	-0.249	0.375	0.587	0.380	0.518	0.016	0.170	0.281	0.547	0.750	0.569	0.717	-0.355	0.249	-0.117	-0.364	0.032	0.438	0.341	0.037	-0.323	0.239	-0.311	-0.413	-0.448	0.323	-101.562
-0.313	0.117	-0.326	0.394	0.630	0.378	0.509	-0.110	0.053	0.277	0.466	0.660	0.695	0.857	-0.327	0.309	-0.028	-0.340	0.132	0.539	0.481	0.147	-0.286	0.327	-0.288	-0.399	-0.337	0.286	-97.656
-0.339	0.096	-0.363	0.371	0.617	0.361	0.459	-0.207	-0.031	0.261	0.382	0.540	0.754	0.927	-0.299	0.325	0.052	-0.296	0.218	0.576	0.555	0.217	-0.245	0.390	-0.250	-0.354	-0.201	0.239	-93.750
-0.336	0.064	-0.357	0.312	0.554	0.331	0.369	-0.271	-0.082	0.232	0.300	0.392	0.745	0.929	-0.274	0.298	0.117	-0.239	0.281	0.554	0.565	0.249	-0.201	0.428	-0.205	-0.286	-0.051	0.182	-89.844
-0.305	0.031	-0.310	0.228	0.455	0.293	0.247	-0.301	-0.101	0.195	0.225	0.227	0.675	0.871	-0.254	0.235	0.159	-0.177	0.315	0.481	0.519	0.247	-0.154	0.441	-0.162	-0.203	0.098	0.117	-85.938
-0.249	0.001	-0.225	0.130	0.337	0.253	0.104	-0.300	-0.097	0.150	0.158	0.060	0.555	0.763	-0.239	0.144	0.174	-0.120	0.314	0.369	0.431	0.219	-0.108	0.434	-0.124	-0.110	0.232	0.048	-82.031
-0.170	-0.018	-0.111	0.031	0.214	0.214	-0.050	-0.276	-0.081	0.098	0.101	-0.096	0.403	0.617	-0.228	0.036	0.161	-0.071	0.276	0.233	0.312	0.170	-0.064	0.408	-0.094	-0.012	0.337	-0.021	-78.125
-0.072	-0.025	0.022	-0.060	0.101	0.179	-0.205	-0.238	-0.068	0.036	0.049	-0.228	0.234	0.442	-0.214	-0.077	0.125	-0.030	0.204	0.089	0.178	0.108	-0.026	0.365	-0.069	0.085	0.405	-0.085	-74.219
0.040	-0.021	0.161	-0.137	0.003	0.151	-0.351	-0.196	-0.066	-0.035	-0.002	-0.324	0.064	0.250	-0.195	-0.186	0.074	0.005	0.103	-0.050	0.037	0.036	0.001	0.308	-0.046	0.177	0.433	-0.141	-70.312
0.160	-0.010	0.294	-0.197	-0.078	0.126	-0.482	-0.157	-0.084	-0.118	-0.053	-0.380	-0.096	0.049	-0.165	-0.282	0.020	0.040	-0.016	-0.172	-0.101	-0.042	0.017	0.236	-0.020	0.263	0.426	-0.185	-66.406
0.281	0.002	0.407	-0.241	-0.144	0.101	-0.592	-0.127	-0.120	-0.205	-0.104	-0.389	-0.236	-0.152	-0.127	-0.360	-0.027	0.079	-0.142	-0.272	-0.229	-0.121	0.018	0.153	0.012	0.338	0.397	-0.211	-62.500
0.390	0.006	0.485	-0.275	-0.201	0.072	-0.674	-0.104	-0.166	-0.287	-0.149	-0.352	-0.348	-0.343	-0.084	-0.423	-0.061	0.123	-0.264	-0.349	-0.343	-0.200	0.007	0.062	0.053	0.404	0.364	-0.212	-58.594
0.474	-0.005	0.519	-0.305	-0.254	0.035	-0.725	-0.087	-0.208	-0.349	-0.180	-0.269	-0.428	-0.515	-0.043	-0.473	-0.077	0.168	-0.373	-0.405	-0.439	-0.275	-0.015	-0.031	0.100	0.459	0.346	-0.183	-54.688
0.519	-0.034	0.504	-0.335	-0.306	-0.008	-0.742	-0.071	-0.234	-0.375	-0.189	-0.147	-0.471	-0.658	-0.013	-0.515	-0.079	0.207	-0.461	-0.442	-0.511	-0.340	-0.046	-0.118	0.150	0.503	0.354	-0.125	-50.781
0.518	-0.079	0.440	-0.364	-0.354	-0.056	-0.723	-0.055	-0.232	-0.355	-0.170	0.005	-0.478	-0.762	0.001	-0.552	-0.070	0.231	-0.525	-0.466	-0.555	-0.391	-0.081	-0.193	0.194	0.530	0.393	-0.041	-46.875
0.469	-0.134	0.335	-0.391	-0.391	-0.100	-0.670	-0.035	-0.195	-0.284	-0.121	0.171	-0.449	-0.819	-0.005	-0.584	-0.056	0.233	-0.564	-0.475	-0.565	-0.424	-0.117	-0.252	0.224	0.538	0.454	0.056	-42.969
0.381	-0.185	0.202	-0.405	-0.407	-0.130	-0.589	-0.012	-0.125	-0.166	-0.048	0.332	-0.390	-0.823	-0.029	-0.608	-0.039	0.209	-0.579	-0.469	-0.539	-0.433	-0.152	-0.291	0.230	0.519	0.523	0.150	-39.062
0.267	-0.222	0.057	-0.398	-0.391	-0.136	-0.487	0.014	-0.028	-0.013	0.040	0.466	-0.308	-0.775	-0.067	-0.618	-0.023	0.161	-0.573	-0.445	-0.476	-0.417	-0.184	-0.314	0.204	0.469	0.577	0.223	-35.156
0.144	-0.233	-0.079	-0.361	-0.336	-0.108	-0.375	0.042	0.084	0.159	0.128	0.556	-0.211	-0.679	-0.114	-0.609	-0.008	0.099	-0.551	-0.402	-0.376	-0.376	-0.213	-0.322	0.139	0.386	0.597	0.258	-31.250
0.030	-0.212	-0.192	-0.291	-0.237	-0.043	-0.262	0.069	0.199	0.334	0.205	0.591	-0.108	-0.541	-0.164	-0.578	0.009	0.033	-0.517	-0.339	-0.245	-0.314	-0.239	-0.321	0.035	0.272	0.573	0.247	-27.344
-0.062	-0.160	-0.269	-0.189	-0.099	0.057	-0.158	0.094	0.304	0.494	0.263	0.565	-0.003	-0.376	-0.213	-0.527	0.029	-0.025	-0.476	-0.259	-0.094	-0.236	-0.261	-0.312	-0.100	0.136	0.502	0.190	-23.438
-0.125	-0.086	-0.308	-0.064	0.067	0.181	-0.070	0.113	0.388	0.629	0.295	0.485	0.098	-0.197	-0.261	-0.463	0.052	-0.066	-0.434	-0.168	0.067	-0.150	-0.279	-0.299	-0.256	-0.008	0.396	0.098	-19.531
-0.160	-0.001	-0.309	0.072	0.247	0.317	-0.003	0.125	0.445	0.734	0.303	0.365	0.195	-0.018	-0.306	-0.393	0.079	-0.087	-0.395	-0.074	0.224	-0.065	-0.291	-0.280	-0.415	-0.143	0.271	-0.010	-15.625
-0.174	0.078	-0.281	0.202	0.424	0.449	0.041	0.129	0.471	0.808	0.293	0.227	0.285	0.148	-0.350	-0.331	0.104	-0.090	-0.366	0.014	0.364	0.010	-0.299	-0.256	-0.557	-0.255	0.151	-0.113	-11.719
-0.179	0.139	-0.237	0.314	0.581	0.565	0.062	0.126	0.469	0.852	0.271	0.093	0.369	0.290	-0.392	-0.287	0.125	-0.084	-0.351	0.087	0.475	0.070	-0.301	-0.226	-0.663	-0.329	0.052	-0.190	-7.812
-0.185	0.174	-0.190	0.399	0.705	0.656	0.064	0.116	0.441	0.870	0.246	-0.016	0.443	0.400	-0.433	-0.268	0.137	-0.078	-0.353	0.138	0.550	0.108	-0.297	-0.191	-0.717	-0.362	-0.011	-0.226	-3.906
-0.202	0.181	-0.153	0.451	0.788	0.716	0.048	0.103	0.393	0.863	0.223	-0.086	0.502	0.473	-0.471	-0.278	0.141	-0.080	-0.371	0.165	0.583	0.125	-0.290	-0.154	-0.713	-0.352	-0.036	-0.214	0.000
-0.229	0.164	-0.134	0.469	0.823	0.746	0.016	0.086	0.331	0.831	0.205	-0.109	0.539	0.507	-0.499	-0.312	0.139	-0.092	-0.402	0.167	0.575	0.122	-0.278	-0.118	-0.650	-0.306	-0.030	-0.159	3.906
-0.262	0.130	-0.136	0.456	0.809	0.746	-0.033	0.065	0.258	0.772	0.189	-0.089	0.546	0.499	-0.512	-0.364	0.136	-0.112	-0.438	0.148	0.528	0.104	-0.263	-0.088	-0.539	-0.233	-0.006	-0.069	7.812
-0.289	0.090	-0.155	0.415	0.746	0.721	-0.102	0.040	0.176	0.686	0.173	-0.034	0.515	0.452	-0.504	-0.425	0.137	-0.131	-0.472	0.112	0.448	0.077	-0.244	-0.068	-0.399	-0.143	0.019	0.039	11.719
-0.294	0.051	-0.183	0.353	0.637	0.674	-0.194	0.006	0.088	0.571	0.153	0.040	0.443	0.366	-0.468	-0.485	0.149	-0.136	-0.496	0.064	0.341	0.045	-0.222	-0.061	-0.252	-0.048	0.027	0.149	15.625
-0.264	0.020	-0.208	0.275	0.493	0.610	-0.311	-0.039	-0.006	0.431	0.123	0.115	0.329	0.247	-0.403	-0.537	0.174	-0.115	-0.507	0.011	0.214	0.013	-0.195	-0.069	-0.121	0.044	0.007	0.246	19.531
-0.191	0.003	-0.218	0.192	0.323	0.534	-0.452	-0.096	-0.106	0.271	0.080	0.175	0.178	0.101	-0.308	-0.576	0.215	-0.059	-0.499	-0.042	0.075	-0.017	-0.163	-0.093	-0.019	0.122	-0.049	0.316	23.438
-0.073	0.001	-0.200	0.111	0.142	0.451	-0.612	-0.166	-0.210	0.101	0.024	0.203	0.002	-0.062	-0.188	-0.599	0.269	0.035	-0.475	-0.093	-0.071	-0.044	-0.127	-0.130	0.045	0.179	-0.141	0.353	27.344
0.083	0.015	-0.151	0.041	-0.034	0.369	-0.780	-0.244	-0.314	-0.068	-0.045	0.191	-0.187	-0.233	-0.047	-0.608	0.333	0.160	-0.438	-0.141	-0.216	-0.069	-0.085	-0.181	0.073	0.210	-0.260	0.354	31.250
0.261	0.041	-0.071	-0.012	-0.191	0.295	-0.945	-0.322	-0.411	-0.222	-0.119	0.135	-0.373	-0.403	0.104	-0.609	0.397	0.304	-0.395	-0.187	-0.358	-0.096	-0.042	-0.242	0.075	0.216	-0.394	0.321	35.156
0.439	0.075	0.031	-0.045	-0.318	0.236	-1.090	-0.388	-0.491	-0.346	-0.190	0.040	-0.540	-0.562	0.252	-0.611	0.449	0.445	-0.357	-0.238	-0.493	-0.127	-0.001	-0.309	0.065	0.202	-0.526	0.263	39.062
0.589	0.108	0.142	-0.058	-0.409	0.199	-1.199	-0.428	-0.536	-0.422	-0.243	-0.082	-0.674	-0.704	0.378	-0.625	0.473	0.560	-0.338	-0.298	-0.618	-0.166	0.032	-0.378	0.056	0.180	-0.635	0.192	42.969
0.683	0.130	0.248	-0.056	-0.462	0.188	-1.259	-0.426	-0.529	-0.435	-0.264	-0.214	-0.761	-0.821	0.462	-0.664	0.454	0.622	-0.350	-0.374	-0.732	-0.215	0.051	-0.440	0.063	0.166	-0.704	0.124	46.875
0.694	0.131	0.332	-0.049	-0.481	0.205	-1.258	-0.370	-0.453	-0.371	-0.237	-0.335	-0.792	-0.909	0.481	-0.737	0.380	0.612	-0.402	-0.470	-0.831	-0.273	0.050	-0.487	0.095	0.179	-0.719	0.072	50.781
0.605	0.101	0.380	-0.045	-0.470	0.248	-1.191	-0.251	-0.292	-0.225	-0.153	-0.429	-0.763	-0.964	0.417	-0.853	0.242	0.519	-0.500	-0.585	-0.911	-0.339	0.027	-0.508	0.159	0.233	-0.671	0.049	54.688
0.408	0.031	0.383	-0.055	-0.438	0.313	-1.058	-0.069	-0.040	0.005	-0.007	-0.482	-0.675	-0.984	0.259	-1.013	0.043	0.345	-0.642	-0.717	-0.970	-0.407	-0.020	-0.495	0.259	0.335	-0.562	0.057	58.594
0.111	-0.082	0.333	-0.084	-0.390	0.392	-0.865	0.171	0.302	0.309	0.195	-0.490	-0.533	-0.965	0.009	-1.213	-0.204	0.105	-0.817	-0.856	-1.000	-0.471	-0.087	-0.443	0.394	0.483	-0.402	0.095	62.500
-0.266	-0.236	0.228	-0.132	-0.331	0.478	-0.622	0.456	0.721	0.669	0.442	-0.456	-0.346	-0.907	-0.321	-1.443	-0.482	-0.178	-1.010	-0.992	-0.999	-0.525	-0.169	-0.352	0.560	0.663	-0.209	0.148	66.406
-0.695	-0.421	0.074	-0.194	-0.262	0.565	-0.344	0.773	1.198	1.062	0.713	-0.392	-0.129	-0.810	-0.708	-1.686	-0.766	-0.477	-1.205	-1.113	-0.963	-0.563	-0.259	-0.230	0.749	0.852	-0.007	0.200	70.312
-1.142	-0.622	-0.122	-0.260	-0.182	0.649	-0.045	1.103	1.710	1.463	0.988	-0.316	0.103	-0.678	-1.123	-1.926	-1.034	-0.767	-1.384	-1.209	-0.892	-0.584	-0.351	-0.087	0.950	1.023	0.178	0.229	74.219
-1.572	-0.822	-0.345	-0.317	-0.089	0.732	0.258	1.435	2.233	1.845	1.246	-0.243	0.333	-0.516	-1.539	-2.145	-1.268	-1.029	-1.536	-1.273	-0.789	-0.589	-0.439	0.062	1.146	1.149	0.323	0.219	78.125
-1.961	-1.002	-0.579	-0.355	0.017	0.816	0.552	1.758	2.745	2.189	1.471	-0.186	0.547	-0.336	-1.932	-2.331	-1.458	-1.254	-1.654	-1.306	-0.664	-0.585	-0.518	0.199	1.323	1.212	0.410	0.162	82.031
-2.291	-1.149	-0.808	-0.368	0.137	0.903	0.820	2.065	3.229	2.480	1.654	-0.152	0.732	-0.152	-2.285	-2.482	-1.604	-1.441	-1.742	-1.313	-0.530	-0.579	-0.588	0.312	1.466	1.206	0.430	0.059	85.938
-2.555	-1.258	-1.015	-0.356	0.264	0.996	1.048	2.354	3.672	2.709	1.794	-0.136	0.878	0.022	-2.592	-2.599	-1.713	-1.594	-1.806	-1.304	-0.403	-0.578	-0.648	0.393	1.567	1.137	0.387	-0.074	89.844
-2.754	-1.331	-1.190	-0.325	0.390	1.090	1.220	2.616	4.062	2.871	1.895	-0.127	0.981	0.171	-2.850	-2.692	-1.797	-1.720	-1.856	-1.292	-0.297	-0.587	-0.696	0.443	1.622	1.024	0.296	-0.213	93.750
-2.895	-1.373	-1.325	-0.287	0.502	1.179	1.321	2.842	4.382	2.966	1.962	-0.110	1.040	0.285	-3.061	-2.771	-1.865	-1.824	-1.900	-1.287	-0.224	-0.608	-0.734	0.465	1.635	0.895	0.180	-0.332	97.656
-2.982	-1.396	-1.416	-0.256	0.587	1.251	1.340	3.014	4.616	2.997	2.000	-0.070	1.059	0.357	-3.222	-2.842	-1.924	-1.906	-1.941	-1.293	-0.189	-0.637	-0.760	0.472	1.615	0.776	0.068	-0.404	101.562
-3.018	-1.407	-1.460	-0.245	0.633	1.292	1.270	3.111	4.739	2.966	2.010	0.004	1.044	0.391	-3.326	-2.908	-1.973	-1.962	-1.978	-1.308	-0.189	-0.666	-0.774	0.476	1.574	0.691	-0.014	-0.410	105.469
-3.000	-1.409	-1.455	-0.258	0.630	1.288	1.110	3.106	4.726	2.876	1.987	0.114	1.006	0.392	-3.361	-2.961	-2.002	-1.980	-1.999	-1.322	-0.212	-0.684	-0.773	0.488	1.522	0.650	-0.045	-0.344	109.375
-2.917	-1.397	-1.401	-0.292	0.581	1.232	0.867	2.973	4.551	2.728	1.919	0.250	0.956	0.374	-3.311	-2.988	-1.995	-1.948	-1.989	-1.315	-0.241	-0.678	-0.755	0.516	1.463	0.650	-0.016	-0.212	113.281
-2.760	-1.358	-1.295	-0.333	0.493	1.125	0.556	2.690	4.192	2.521	1.791	0.394	0.905	0.355	-3.160	-2.965	-1.928	-1.855	-1.929	-1.263	-0.248	-0.631	-0.716	0.560	1.395	0.674	0.072	-0.036	117.188
-2.517	-1.271	-1.138	-0.355	0.386	0.977	0.193	2.247	3.635	2.257	1.584	0.519	0.862	0.351	-2.897	-2.869	-1.780	-1.693	-1.797	-1.141	-0.208	-0.531	-0.654	0.616	1.307	0.696	0.200	0.156	121.094
-2.181	-1.116	-0.930	-0.332	0.284	0.807	-0.198	1.646	2.881	1.935	1.284	0.599	0.833	0.380	-2.519	-2.678	-1.534	-1.463	-1.581	-0.927	-0.098	-0.370	-0.565	0.677	1.183	0.683	0.344	0.328	125.000
-1.754	-0.878	-0.677	-0.240	0.212	0.640	-0.597	0.907	1.948	1.560	0.886	0.611	0.821	0.454	-2.036	-2.384	-1.184	-1.173	-1.276	-0.614	0.096	-0.147	-0.450	0.733	1.009	0.609	0.474	0.449	128.906
-1.248	-0.554	-0.387	-0.067	0.191	0.500	-0.983	0.067	0.873	1.142	0.396	0.544	0.823	0.576	-1.473	-1.989	-0.737	-0.841	-0.892	-0.207	0.376	0.129	-0.311	0.778	0.779	0.458	0.564	0.497	132.812
-0.685	-0.156	-0.072	0.183	0.230	0.403	-1.337	-0.828	-0.289	0.697	-0.163	0.401	0.837	0.743	-0.864	-1.517	-0.218	-0.489	-0.451	0.273	0.727	0.441	-0.154	0.809	0.497	0.229	0.599	0.462	136.719
-0.095	0.289	0.250	0.492	0.327	0.359	-1.646	-1.726	-1.474	0.248	-0.759	0.197	0.860	0.945	-0.252	-1.002	0.339	-0.142	0.016	0.791	1.124	0.767	0.014	0.832	0.181	-0.061	0.576	0.350	140.625
0.487	0.744	0.561	0.829	0.470	0.365	-1.901	-2.575	-2.612	-0.179	-1.349	-0.043	0.888	1.168	0.319	-0.488	0.892	0.178	0.473	1.305	1.535	1.084	0.188	0.852	-0.139	-0.383	0.505	0.176	144.531
1.023	1.168	0.843	1.157	0.638	0.410	-2.099	-3.331	-3.642	-0.561	-1.893	-0.294	0.918	1.395	0.811	-0.019	1.401	0.454	0.889	1.774	1.927	1.374	0.361	0.882	-0.431	-0.702	0.406	-0.034	148.438
1.485	1.525	1.081	1.441	0.805	0.478	-2.239	-3.963	-4.512	-0.874	-2.357	-0.529	0.951	1.613	1.200	0.368	1.831	0.675	1.238	2.165	2.268	1.622	0.529	0.929	-0.666	-0.985	0.301	-0.255	152.344
1.850	1.790	1.266	1.654	0.951	0.552	-2.325	-4.453	-5.192	-1.106	-2.715	-0.732	0.986	1.807	1.476	0.647	2.158	0.840	1.509	2.454	2.541	1.822	0.690	0.996	-0.827	-1.207	0.210	-0.463	156.250
2.106	1.951	1.393	1.783	1.058	0.619	-2.365	-4.797	-5.668	-1.252	-2.959	-0.894	1.025	1.970	1.646	0.808	2.374	0.953	1.696	2.636	2.737	1.975	0.841	1.083	-0.907	-1.353	0.144	-0.641	160.156
2.252	2.010	1.465	1.828	1.120	0.670	-2.366	-5.002	-5.946	-1.317	-3.093	-1.016	1.067	2.098	1.729	0.857	2.483	1.024	1.809	2.714	2.858	2.085	0.979	1.182	-0.915	-1.424	0.101	-0.782	164.062
2.300	1.982	1.490	1.801	1.137	0.703	-2.339	-5.087	-6.049	-1.315	-3.133	-1.107	1.112	2.189	1.754	0.811	2.501	1.064	1.860	2.706	2.915	2.162	1.101	1.280	-0.869	-1.430	0.073	-0.886	167.969
2.268	1.893	1.478	1.726	1.118	0.723	-2.292	-5.072	-6.008	-1.262	-3.102	-1.179	1.156	2.245	1.751	0.698	2.454	1.087	1.865	2.636	2.924	2.211	1.201	1.363	-0.794	-1.391	0.043	-0.960	171.875
2.182	1.769	1.442	1.627	1.076	0.737	-2.236	-4.984	-5.855	-1.178	-3.024	-1.244	1.195	2.267	1.744	0.548	2.368	1.106	1.840	2.530	2.897	2.237	1.273	1.419	-0.713	-1.332	-0.006	-1.016	175.781
2.071	1.637	1.395	1.529	1.023	0.753	-2.176	-4.844	-5.625	-1.080	-2.926	-1.312	1.221	2.254	1.748	0.388	2.269	1.131	1.799	2.410	2.847	2.243	1.311	1.436	-0.647	-1.275	-0.086	-1.066	179.688
1.960	1.521	1.347	1.448	0.973	0.778	-2.118	-4.672	-5.346	-0.981	-2.825	-1.385	1.227	2.208	1.770	0.240	2.177	1.167	1.753	2.294	2.779	2.228	1.310	1.408	-0.608	-1.235	-0.203	-1.119	183.594
1.869	1.434	1.305	1.395	0.934	0.813	-2.062	-4.484	-5.037	-0.891	-2.734	-1.459	1.207	2.130	1.804	0.115	2.103	1.213	1.705	2.188	2.694	2.190	1.268	1.335	-0.600	-1.221	-0.351	-1.179	187.500
1.806	1.381	1.270	1.368	0.907	0.856	-2.008	-4.286	-4.711	-0.813	-2.656	-1.527	1.159	2.023	1.839	0.015	2.050	1.263	1.657	2.093	2.592	2.126	1.188	1.226	-0.619	-1.229	-0.517	-1.246	191.406
1.770	1.357	1.238	1.358	0.891	0.901	-1.954	-4.084	-4.374	-0.745	-2.587	-1.577	1.084	1.891	1.861	-0.068	2.011	1.307	1.605	2.002	2.469	2.037	1.078	1.091	-0.655	-1.246	-0.680	-1.313	195.312
1.753	1.350	1.201	1.350	0.878	0.940	-1.895	-3.876	-4.027	-0.683	-2.521	-1.597	0.987	1.741	1.857	-0.149	1.971	1.333	1.546	1.904	2.324	1.923	0.947	0.946	-0.693	-1.254	-0.819	-1.370	199.219
1.741	1.342	1.150	1.329	0.860	0.964	-1.831	-3.660	-3.667	-0.619	-2.445	-1.584	0.875	1.581	1.821	-0.245	1.917	1.332	1.471	1.788	2.157	1.790	0.809	0.808	-0.716	-1.235	-0.915	-1.408	203.125
1.719	1.316	1.080	1.280	0.827	0.968	-1.761	-3.432	-3.295	-0.548	-2.350	-1.536	0.756	1.419	1.747	-0.370	1.833	1.296	1.375	1.646	1.973	1.643	0.675	0.691	-0.709	-1.172	-0.957	-1.419	207.031
1.677	1.257	0.989	1.195	0.773	0.949	-1.688	-3.189	-2.912	-0.464	-2.232	-1.460	0.640	1.263	1.636	-0.535	1.709	1.223	1.250	1.477	1.778	1.488	0.554	0.604	-0.659	-1.052	-0.939	-1.400	210.938
1.606	1.156	0.882	1.070	0.695	0.909	-1.616	-2.932	-2.522	-0.363	-2.086	-1.365	0.534	1.120	1.489	-0.744	1.538	1.117	1.095	1.282	1.582	1.333	0.453	0.553	-0.556	-0.873	-0.865	-1.349	214.844
1.502	1.009	0.768	0.908	0.591	0.850	-1.549	-2.663	-2.132	-0.244	-1.916	-1.260	0.443	0.994	1.310	-0.993	1.323	0.981	0.910	1.067	1.392	1.182	0.375	0.538	-0.399	-0.637	-0.747	-1.270	218.750
1.363	0.818	0.655	0.716	0.467	0.779	-1.491	-2.386	-1.747	-0.105	-1.724	-1.152	0.374	0.889	1.097	-1.278	1.068	0.821	0.696	0.841	1.218	1.039	0.319	0.557	-0.191	-0.352	-0.597	-1.167	222.656
1.187	0.591	0.552	0.504	0.328	0.704	-1.441	-2.104	-1.375	0.055	-1.514	-1.042	0.328	0.804	0.851	-1.586	0.781	0.641	0.460	0.610	1.062	0.908	0.284	0.605	0.059	-0.030	-0.430	-1.043	226.562
0.971	0.338	0.460	0.282	0.183	0.631	-1.395	-1.824	-1.018	0.236	-1.290	-0.926	0.307	0.742	0.568	-1.908	0.471	0.443	0.210	0.381	0.927	0.792	0.265	0.678	0.341	0.315	-0.257	-0.900	230.469
0.716	0.071	0.375	0.060	0.042	0.566	-1.346	-1.550	-0.678	0.439	-1.054	-0.799	0.315	0.703	0.247	-2.234	0.149	0.230	-0.044	0.155	0.814	0.693	0.260	0.776	0.638	0.669	-0.086	-0.740	234.375
0.422	-0.197	0.290	-0.150	-0.086	0.513	-1.286	-1.290	-0.356	0.661	-0.811	-0.656	0.352	0.690	-0.111	-2.552	-0.176	-0.001	-0.288	-0.061	0.722	0.615	0.266	0.896	0.938	1.016	0.080	-0.565	238.281
0.094	-0.453	0.196	-0.340	-0.190	0.473	-1.207	-1.050	-0.055	0.898	-0.570	-0.499	0.419	0.705	-0.499	-2.853	-0.491	-0.247	-0.512	-0.264	0.654	0.564	0.282	1.039	1.226	1.344	0.243	-0.382	242.188
-0.255	-0.686	0.085	-0.499	-0.264	0.444	-1.107	-0.840	0.220	1.143	-0.341	-0.333	0.519	0.753	-0.906	-3.125	-0.784	-0.504	-0.700	-0.446	0.612	0.545	0.308	1.203	1.491	1.639	0.404	-0.198	246.094
-0.612	-0.888	-0.046	-0.621	-0.302	0.424	-0.985	-0.668	0.461	1.383	-0.137	-0.171	0.651	0.837	-1.315	-3.357	-1.040	-0.764	-0.840	-0.599	0.601	0.564	0.348	1.387	1.721	1.891	0.566	-0.026	250.000
-0.956	-1.055	-0.196	-0.703	-0.303	0.409	-0.847	-0.542	0.656	1.607	0.028	-0.030	0.816	0.958	-1.706	-3.542	-1.249	-1.014	-0.924	-0.713	0.625	0.626	0.404	1.586	1.910	2.093	0.727	0.122	253.906
-1.271	-1.188	-0.360	-0.746	-0.270	0.398	-0.701	-0.467	0.797	1.804	0.144	0.073	1.009	1.118	-2.059	-3.672	-1.400	-1.236	-0.947	-0.783	0.688	0.732	0.477	1.793	2.050	2.238	0.885	0.233	257.812
-1.543	-1.291	-0.530	-0.755	-0.207	0.389	-0.554	-0.442	0.877	1.965	0.204	0.126	1.227	1.314	-2.360	-3.747	-1.491	-1.414	-0.909	-0.803	0.794	0.881	0.571	2.000	2.139	2.326	1.036	0.299	261.719
-1.765	-1.369	-0.699	-0.739	-0.120	0.381	-0.413	-0.461	0.893	2.086	0.209	0.121	1.462	1.543	-2.600	-3.766	-1.521	-1.534	-0.815	-0.773	0.941	1.069	0.685	2.200	2.176	2.356	1.172	0.320	265.625
-1.939	-1.429	-0.860	-0.705	-0.015	0.377	-0.282	-0.515	0.849	2.166	0.166	0.057	1.708	1.798	-2.774	-3.735	-1.496	-1.590	-0.675	-0.697	1.127	1.289	0.818	2.387	2.166	2.334	1.289	0.298	269.531
-2.073	-1.474	-1.009	-0.660	0.102	0.378	-0.163	-0.591	0.752	2.210	0.086	-0.060	1.956	2.071	-2.887	-3.659	-1.423	-1.581	-0.499	-0.579	1.347	1.532	0.967	2.556	2.116	2.267	1.378	0.241	273.438
-2.180	-1.503	-1.145	-0.608	0.230	0.386	-0.055	-0.678	0.615	2.221	-0.020	-0.220	2.196	2.354	-2.947	-3.544	-1.312	-1.517	-0.299	-0.426	1.593	1.789	1.130	2.707	2.041	2.165	1.438	0.159	277.344
-2.274	-1.516	-1.267	-0.551	0.365	0.400	0.043	-0.766	0.449	2.207	-0.141	-0.409	2.422	2.636	-2.963	-3.397	-1.172	-1.416	-0.084	-0.245	1.859	2.052	1.302	2.840	1.954	2.038	1.467	0.061	281.250
-2.364	-1.505	-1.377	-0.486	0.508	0.421	0.130	-0.850	0.267	2.171	-0.268	-0.612	2.623	2.908	-2.947	-3.224	-1.008	-1.295	0.139	-0.043	2.133	2.310	1.479	2.956	1.873	1.900	1.465	-0.044	285.156
-2.455	-1.468	-1.475	-0.410	0.656	0.446	0.205	-0.932	0.077	2.117	-0.399	-0.816	2.792	3.160	-2.908	-3.034	-0.827	-1.173	0.366	0.173	2.407	2.557	1.660	3.057	1.811	1.762	1.434	-0.151	289.062
-2.543	-1.400	-1.563	-0.322	0.806	0.474	0.266	-1.013	-0.113	2.046	-0.533	-1.013	2.923	3.381	-2.853	-2.832	-0.631	-1.064	0.595	0.397	2.668	2.784	1.839	3.142	1.775	1.634	1.376	-0.256	292.969
-2.623	-1.301	-1.638	-0.220	0.953	0.502	0.307	-1.099	-0.301	1.959	-0.673	-1.197	3.009	3.565	-2.784	-2.625	-0.422	-0.975	0.822	0.622	2.909	2.988	2.014	3.212	1.767	1.523	1.293	-0.360	296.875
-2.683	-1.173	-1.696	-0.106	1.092	0.526	0.326	-1.196	-0.485	1.857	-0.823	-1.364	3.050	3.704	-2.704	-2.416	-0.202	-0.904	1.047	0.845	3.118	3.165	2.180	3.264	1.779	1.435	1.187	-0.460	300.781
-2.713	-1.020	-1.733	0.019	1.216	0.543	0.319	-1.307	-0.666	1.742	-0.983	-1.517	3.044	3.797	-2.614	-2.208	0.025	-0.843	1.265	1.061	3.292	3.317	2.334	3.296	1.802	1.371	1.060	-0.557	304.688
-2.709	-0.851	-1.746	0.148	1.321	0.551	0.286	-1.430	-0.842	1.615	-1.154	-1.657	2.996	3.846	-2.512	-2.003	0.257	-0.784	1.474	1.268	3.428	3.446	2.471	3.305	1.820	1.329	0.918	-0.650	308.594
-2.672	-0.675	-1.733	0.280	1.405	0.547	0.230	-1.562	-1.013	1.482	-1.333	-1.785	2.915	3.858	-2.401	-1.800	0.487	-0.716	1.670	1.466	3.528	3.555	2.587	3.292	1.823	1.305	0.770	-0.741	312.500
-2.611	-0.501	-1.699	0.409	1.468	0.533	0.156	-1.697	-1.176	1.345	-1.512	-1.901	2.811	3.844	-2.281	-1.601	0.708	-0.633	1.846	1.651	3.600	3.651	2.681	3.259	1.804	1.295	0.625	-0.831	316.406
-2.543	-0.336	-1.650	0.534	1.511	0.507	0.073	-1.829	-1.328	1.212	-1.684	-2.000	2.697	3.816	-2.159	-1.406	0.915	-0.532	2.001	1.825	3.652	3.735	2.753	3.208	1.764	1.292	0.495	-0.920	320.312
-2.485	-0.186	-1.592	0.653	1.537	0.472	-0.010	-1.949	-1.464	1.087	-1.838	-2.078	2.589	3.788	-2.041	-1.218	1.101	-0.419	2.130	1.986	3.695	3.814	2.806	3.146	1.707	1.292	0.391	-1.011	324.219
-2.454	-0.052	-1.535	0.765	1.550	0.431	-0.084	-2.053	-1.579	0.978	-1.965	-2.127	2.496	3.769	-1.936	-1.040	1.263	-0.300	2.234	2.133	3.736	3.888	2.842	3.078	1.644	1.292	0.318	-1.101	328.125
-2.462	0.065	-1.482	0.870	1.554	0.386	-0.142	-2.140	-1.671	0.892	-2.054	-2.144	2.430	3.768	-1.855	-0.875	1.399	-0.186	2.311	2.267	3.782	3.959	2.866	3.013	1.584	1.286	0.281	-1.189	332.031
-2.508	0.167	-1.436	0.967	1.552	0.340	-0.179	-2.209	-1.738	0.834	-2.101	-2.124	2.395	3.789	-1.808	-0.725	1.508	-0.092	2.365	2.386	3.837	4.029	2.882	2.957	1.536	1.276	0.277	-1.270	335.938
-2.589	0.256	-1.398	1.054	1.547	0.293	-0.195	-2.263	-1.783	0.809	-2.103	-2.067	2.392	3.832	-1.802	-0.593	1.591	-0.029	2.398	2.492	3.903	4.097	2.894	2.918	1.505	1.263	0.303	-1.335	339.844
-2.693	0.333	-1.371	1.131	1.543	0.246	-0.188	-2.307	-1.809	0.821	-2.060	-1.974	2.421	3.894	-1.842	-0.479	1.650	-0.009	2.413	2.586	3.978	4.164	2.906	2.904	1.496	1.252	0.354	-1.373	343.750
-2.809	0.396	-1.357	1.191	1.540	0.195	-0.162	-2.346	-1.821	0.871	-1.979	-1.849	2.479	3.974	-1.930	-0.385	1.687	-0.037	2.414	2.669	4.062	4.230	2.922	2.922	1.513	1.250	0.424	-1.373	347.656
-2.931	0.443	-1.362	1.232	1.538	0.137	-0.120	-2.383	-1.824	0.955	-1.864	-1.695	2.565	4.067	-2.063	-0.313	1.701	-0.114	2.406	2.740	4.153	4.297	2.941	2.975	1.557	1.269	0.512	-1.322	351.562
-3.054	0.470	-1.395	1.250	1.537	0.070	-0.064	-2.424	-1.821	1.068	-1.726	-1.518	2.674	4.170	-2.235	-0.265	1.692	-0.234	2.392	2.800	4.248	4.365	2.965	3.066	1.629	1.317	0.616	-1.213	355.469
-3.183	0.476	-1.462	1.244	1.536	-0.009	0.003	-2.471	-1.814	1.202	-1.574	-1.326	2.805	4.282	-2.435	-0.242	1.662	-0.387	2.376	2.849	4.347	4.433	2.992	3.191	1.730	1.402	0.738	-1.041	359.375
-3.321	0.462	-1.565	1.217	1.538	-0.098	0.076	-2.525	-1.806	1.348	-1.416	-1.126	2.951	4.401	-2.652	-0.243	1.610	-0.559	2.358	2.888	4.450	4.499	3.018	3.344	1.856	1.523	0.878	-0.814	363.281
-3.473	0.430	-1.701	1.176	1.546	-0.192	0.155	-2.582	-1.794	1.496	-1.262	-0.929	3.107	4.525	-2.870	-0.263	1.539	-0.737	2.342	2.919	4.555	4.561	3.041	3.512	1.999	1.673	1.033	-0.546	367.188
-3.643	0.387	-1.864	1.130	1.563	-0.282	0.238	-2.639	-1.777	1.640	-1.118	-0.745	3.266	4.653	-3.079	-0.297	1.454	-0.906	2.328	2.946	4.665	4.617	3.056	3.682	2.151	1.837	1.199	-0.258	371.094
-3.827	0.339	-2.039	1.089	1.595	-0.358	0.323	-2.685	-1.748	1.773	-0.988	-0.585	3.420	4.782	-3.269	-0.339	1.359	-1.054	2.315	2.972	4.778	4.663	3.062	3.837	2.298	1.995	1.370	0.021	375.000
-4.022	0.294	-2.212	1.061	1.646	-0.409	0.410	-2.711	-1.703	1.894	-0.876	-0.457	3.561	4.912	-3.437	-0.380	1.260	-1.171	2.304	2.998	4.892	4.697	3.057	3.964	2.430	2.127	1.538	0.267	378.906
-4.220	0.255	-2.369	1.051	1.719	-0.427	0.497	-2.705	-1.637	2.000	-0.780	-0.365	3.683	5.039	-3.585	-0.417	1.164	-1.256	2.295	3.027	5.005	4.717	3.042	4.053	2.535	2.216	1.696	0.458	382.812
-4.414	0.225	-2.496	1.062	1.813	-0.407	0.583	-2.660	-1.548	2.091	-0.700	-0.310	3.783	5.159	-3.715	-0.445	1.075	-1.308	2.286	3.058	5.112	4.725	3.018	4.097	2.607	2.253	1.841	0.581	386.719
-4.598	0.202	-2.587	1.089	1.922	-0.351	0.665	-2.571	-1.437	2.170	-0.634	-0.286	3.859	5.268	-3.831	-0.464	0.997	-1.335	2.277	3.088	5.207	4.723	2.987	4.097	2.640	2.236	1.969	0.634	390.625
-4.764	0.183	-2.641	1.126	2.040	-0.266	0.737	-2.441	-1.312	2.236	-0.579	-0.285	3.912	5.364	-3.936	-0.475	0.934	-1.343	2.268	3.115	5.284	4.714	2.951	4.058	2.631	2.173	2.080	0.626	394.531
-4.908	0.166	-2.660	1.169	2.158	-0.164	0.794	-2.278	-1.183	2.288	-0.538	-0.296	3.945	5.442	-4.027	-0.479	0.887	-1.342	2.259	3.138	5.340	4.702	2.912	3.988	2.579	2.073	2.172	0.574	398.438
-5.022	0.151	-2.653	1.211	2.269	-0.056	0.830	-2.099	-1.065	2.326	-0.510	-0.306	3.961	5.501	-4.100	-0.476	0.860	-1.338	2.251	3.156	5.374	4.693	2.871	3.895	2.482	1.948	2.241	0.498	402.344
-5.096	0.139	-2.628	1.252	2.368	0.047	0.840	-1.921	-0.974	2.345	-0.499	-0.307	3.962	5.541	-4.148	-0.466	0.851	-1.333	2.243	3.169	5.387	4.686	2.829	3.787	2.341	1.806	2.282	0.417	406.250
-5.121	0.140	-2.592	1.293	2.452	0.138	0.824	-1.764	-0.923	2.342	-0.511	-0.296	3.950	5.563	-4.164	-0.448	0.862	-1.328	2.237	3.181	5.385	4.682	2.784	3.672	2.157	1.652	2.288	0.344	410.156
-5.086	0.161	-2.548	1.341	2.522	0.216	0.785	-1.646	-0.923	2.308	-0.551	-0.275	3.926	5.570	-4.142	-0.418	0.894	-1.318	2.231	3.198	5.377	4.679	2.737	3.552	1.933	1.483	2.250	0.279	414.062
-4.984	0.213	-2.495	1.405	2.584	0.284	0.730	-1.578	-0.983	2.237	-0.629	-0.256	3.890	5.565	-4.080	-0.373	0.945	-1.294	2.230	3.226	5.370	4.676	2.690	3.431	1.676	1.296	2.163	0.215	417.969
-4.813	0.303	-2.427	1.493	2.643	0.350	0.669	-1.569	-1.105	2.122	-0.752	-0.258	3.842	5.553	-3.979	-0.306	1.018	-1.245	2.237	3.274	5.378	4.673	2.648	3.311	1.397	1.084	2.023	0.137	421.875
-4.579	0.431	-2.339	1.610	2.707	0.423	0.610	-1.618	-1.286	1.962	-0.929	-0.298	3.783	5.542	-3.844	-0.213	1.113	-1.165	2.258	3.351	5.408	4.676	2.620	3.195	1.106	0.843	1.832	0.027	425.781
-4.300	0.592	-2.229	1.757	2.782	0.508	0.563	-1.718	-1.517	1.762	-1.159	-0.391	3.720	5.536	-3.684	-0.092	1.231	-1.048	2.300	3.463	5.468	4.690	2.612	3.086	0.817	0.570	1.601	-0.125	429.688
-4.002	0.775	-2.102	1.929	2.870	0.609	0.533	-1.853	-1.781	1.534	-1.433	-0.538	3.660	5.542	-3.512	0.054	1.369	-0.899	2.366	3.611	5.559	4.722	2.630	2.990	0.541	0.273	1.343	-0.320	433.594
-3.717	0.964	-1.966	2.114	2.973	0.721	0.524	-2.005	-2.057	1.298	-1.733	-0.730	3.613	5.564	-3.341	0.220	1.523	-0.730	2.454	3.789	5.680	4.776	2.671	2.912	0.287	-0.038	1.083	-0.542	437.500
-3.481	1.143	-1.837	2.296	3.085	0.837	0.535	-2.154	-2.320	1.082	-2.030	-0.941	3.588	5.604	-3.183	0.395	1.684	-0.558	2.560	3.988	5.820	4.852	2.729	2.858	0.062	-0.345	0.844	-0.764	441.406
-3.321	1.296	-1.729	2.459	3.200	0.946	0.562	-2.282	-2.548	0.909	-2.293	-1.140	3.594	5.665	-3.049	0.571	1.841	-0.404	2.674	4.193	5.971	4.946	2.792	2.832	-0.131	-0.629	0.653	-0.952	445.312
-3.255	1.416	-1.654	2.591	3.309	1.037	0.599	-2.381	-2.726	0.799	-2.495	-1.294	3.634	5.746	-2.947	0.738	1.985	-0.284	2.786	4.389	6.120	5.049	2.847	2.838	-0.291	-0.872	0.533	-1.078	449.219
-3.286	1.498	-1.617	2.683	3.404	1.101	0.637	-2.449	-2.848	0.760	-2.618	-1.382	3.707	5.843	-2.877	0.890	2.107	-0.209	2.888	4.564	6.260	5.153	2.881	2.877	-0.418	-1.061	0.500	-1.121	453.125
-3.401	1.544	-1.616	2.735	3.478	1.132	0.669	-2.495	-2.920	0.790	-2.657	-1.395	3.808	5.955	-2.838	1.026	2.204	-0.177	2.973	4.708	6.385	5.250	2.888	2.944	-0.514	-1.192	0.559	-1.078	457.031
-3.576	1.561	-1.643	2.751	3.529	1.129	0.690	-2.530	-2.952	0.876	-2.622	-1.341	3.927	6.073	-2.823	1.144	2.274	-0.180	3.041	4.815	6.493	5.334	2.867	3.035	-0.581	-1.265	0.705	-0.962	460.938
-3.779	1.553	-1.688	2.739	3.555	1.096	0.701	-2.569	-2.958	1.001	-2.528	-1.239	4.052	6.191	-2.825	1.245	2.320	-0.203	3.090	4.882	6.580	5.401	2.820	3.143	-0.621	-1.285	0.920	-0.798	464.844
-3.981	1.527	-1.743	2.706	3.558	1.041	0.707	-2.617	-2.949	1.144	-2.396	-1.114	4.171	6.300	-2.843	1.325	2.341	-0.234	3.121	4.907	6.645	5.450	2.757	3.260	-0.632	-1.260	1.182	-0.616	468.750
-4.156	1.483	-1.801	2.659	3.539	0.972	0.718	-2.674	-2.928	1.291	-2.243	-0.989	4.279	6.388	-2.876	1.377	2.338	-0.267	3.131	4.888	6.683	5.478	2.684	3.379	-0.613	-1.195	1.464	-0.439	472.656
-4.292	1.423	-1.862	2.600	3.502	0.899	0.746	-2.731	-2.892	1.433	-2.079	-0.877	4.370	6.447	-2.929	1.393	2.307	-0.305	3.115	4.823	6.688	5.482	2.609	3.497	-0.560	-1.095	1.743	-0.283	476.562
-4.387	1.345	-1.929	2.529	3.450	0.831	0.799	-2.773	-2.830	1.572	-1.906	-0.779	4.445	6.467	-3.010	1.363	2.241	-0.359	3.064	4.712	6.651	5.460	2.536	3.608	-0.472	-0.962	2.000	-0.151	480.469
-4.449	1.248	-2.003	2.442	3.382	0.774	0.883	-2.780	-2.727	1.713	-1.720	-0.688	4.502	6.441	-3.120	1.278	2.136	-0.441	2.973	4.555	6.565	5.408	2.464	3.708	-0.352	-0.798	2.222	-0.035	484.375
-4.489	1.133	-2.087	2.337	3.298	0.731	0.996	-2.740	-2.573	1.864	-1.514	-0.589	4.543	6.364	-3.258	1.140	1.991	-0.556	2.835	4.355	6.425	5.320	2.391	3.793	-0.209	-0.610	2.403	0.079	488.281
-4.515	1.005	-2.181	2.214	3.196	0.701	1.130	-2.647	-2.365	2.029	-1.284	-0.471	4.562	6.235	-3.412	0.956	1.811	-0.702	2.655	4.121	6.230	5.197	2.313	3.853	-0.059	-0.407	2.539	0.203	492.188
-4.530	0.872	-2.281	2.073	3.075	0.682	1.271	-2.504	-2.111	2.208	-1.033	-0.326	4.554	6.056	-3.562	0.743	1.612	-0.861	2.445	3.865	5.986	5.041	2.228	3.882	0.078	-0.204	2.631	0.344	496.094
-4.531	0.741	-2.380	1.921	2.935	0.667	1.403	-2.327	-1.830	2.392	-0.771	-0.157	4.514	5.836	-3.686	0.527	1.415	-1.011	2.222	3.607	5.705	4.858	2.136	3.874	0.183	-0.017	2.682	0.499	500.000
-4.510	0.623	-2.469	1.767	2.781	0.651	1.511	-2.141	-1.549	2.568	-0.516	0.024	4.438	5.587	-3.760	0.334	1.244	-1.126	2.011	3.366	5.408	4.659	2.040	3.823	0.243	0.135	2.695	0.660	503.906
-4.458	0.528	-2.539	1.623	2.618	0.628	1.583	-1.971	-1.296	2.717	-0.287	0.196	4.327	5.326	-3.769	0.189	1.122	-1.187	1.835	3.164	5.117	4.459	1.945	3.733	0.250	0.238	2.676	0.808	507.812
-4.372	0.460	-2.581	1.500	2.457	0.596	1.612	-1.841	-1.098	2.823	-0.102	0.337	4.185	5.073	-3.706	0.109	1.065	-1.186	1.712	3.017	4.858	4.269	1.858	3.610	0.204	0.284	2.632	0.925	511.719
-4.251	0.425	-2.587	1.407	2.308	0.556	1.598	-1.764	-0.971	2.874	0.025	0.426	4.025	4.845	-3.576	0.101	1.076	-1.128	1.649	2.933	4.649	4.103	1.784	3.464	0.115	0.271	2.570	0.993	515.625
-4.101	0.423	-2.556	1.351	2.182	0.512	1.545	-1.744	-0.920	2.865	0.084	0.445	3.858	4.655	-3.393	0.158	1.148	-1.029	1.645	2.913	4.502	3.968	1.727	3.307	-0.003	0.207	2.497	0.999	519.531
-3.932	0.453	-2.487	1.333	2.085	0.467	1.461	-1.773	-0.940	2.795	0.075	0.385	3.694	4.510	-3.178	0.266	1.265	-0.911	1.689	2.944	4.416	3.869	1.687	3.152	-0.131	0.107	2.421	0.940	523.438
-3.752	0.508	-2.386	1.349	2.018	0.429	1.352	-1.835	-1.016	2.671	0.001	0.245	3.540	4.406	-2.953	0.404	1.405	-0.792	1.763	3.008	4.381	3.803	1.665	3.006	-0.250	-0.012	2.345	0.819	527.344
-3.567	0.583	-2.260	1.391	1.975	0.402	1.225	-1.914	-1.132	2.504	-0.129	0.031	3.393	4.332	-2.735	0.547	1.547	-0.682	1.848	3.084	4.380	3.767	1.660	2.873	-0.340	-0.132	2.268	0.646	531.250
-3.380	0.670	-2.119	1.447	1.944	0.387	1.083	-1.991	-1.270	2.303	-0.308	-0.243	3.250	4.271	-2.533	0.677	1.674	-0.583	1.926	3.150	4.390	3.753	1.671	2.752	-0.389	-0.240	2.188	0.435	535.156
-3.186	0.761	-1.970	1.507	1.913	0.383	0.925	-2.056	-1.414	2.079	-0.523	-0.558	3.101	4.206	-2.353	0.779	1.777	-0.486	1.986	3.189	4.390	3.752	1.698	2.640	-0.390	-0.328	2.098	0.202	539.062
-2.983	0.850	-1.820	1.559	1.870	0.387	0.750	-2.103	-1.553	1.843	-0.763	-0.892	2.938	4.124	-2.190	0.848	1.853	-0.383	2.020	3.192	4.363	3.753	1.737	2.527	-0.346	-0.397	1.991	-0.039	542.969
-2.767	0.933	-1.672	1.598	1.806	0.396	0.555	-2.130	-1.678	1.603	-1.013	-1.221	2.758	4.015	-2.040	0.884	1.904	-0.267	2.029	3.159	4.302	3.746	1.787	2.408	-0.268	-0.451	1.864	-0.274	546.875
-2.540	1.005	-1.529	1.619	1.721	0.406	0.344	-2.141	-1.783	1.371	-1.255	-1.522	2.562	3.881	-1.898	0.893	1.932	-0.138	2.014	3.093	4.206	3.723	1.842	2.275	-0.175	-0.497	1.716	-0.490	550.781
-2.311	1.063	-1.395	1.624	1.619	0.412	0.125	-2.136	-1.860	1.158	-1.471	-1.771	2.361	3.727	-1.764	0.882	1.941	-0.006	1.978	3.003	4.083	3.676	1.897	2.127	-0.087	-0.545	1.555	-0.677	554.688
-2.095	1.102	-1.274	1.611	1.510	0.413	-0.087	-2.118	-1.901	0.978	-1.640	-1.952	2.170	3.566	-1.641	0.855	1.931	0.117	1.925	2.897	3.946	3.600	1.944	1.969	-0.020	-0.597	1.395	-0.823	558.594
-1.910	1.118	-1.171	1.583	1.403	0.409	-0.270	-2.086	-1.901	0.845	-1.745	-2.051	2.008	3.410	-1.540	0.814	1.897	0.211	1.855	2.782	3.806	3.494	1.977	1.811	0.013	-0.651	1.252	-0.919	562.500
-1.775	1.105	-1.091	1.540	1.308	0.400	-0.404	-2.039	-1.858	0.773	-1.777	-2.064	1.892	3.272	-1.469	0.754	1.834	0.264	1.768	2.660	3.675	3.363	1.988	1.666	0.013	-0.702	1.147	-0.960	566.406
-1.704	1.060	-1.041	1.480	1.231	0.384	-0.473	-1.978	-1.776	0.766	-1.733	-1.994	1.838	3.162	-1.437	0.672	1.740	0.268	1.664	2.531	3.559	3.214	1.978	1.551	-0.011	-0.738	1.096	-0.944	570.312
-1.703	0.983	-1.022	1.401	1.173	0.361	-0.467	-1.906	-1.663	0.825	-1.622	-1.854	1.849	3.084	-1.447	0.563	1.614	0.224	1.544	2.396	3.461	3.057	1.947	1.480	-0.040	-0.746	1.110	-0.876	574.219
-1.766	0.878	-1.035	1.303	1.129	0.330	-0.390	-1.832	-1.539	0.939	-1.465	-1.662	1.923	3.037	-1.492	0.428	1.462	0.142	1.411	2.255	3.378	2.904	1.901	1.464	-0.055	-0.717	1.189	-0.768	578.125
-1.874	0.754	-1.074	1.187	1.092	0.289	-0.259	-1.768	-1.424	1.085	-1.287	-1.445	2.045	3.015	-1.558	0.274	1.296	0.040	1.271	2.112	3.304	2.766	1.848	1.503	-0.034	-0.646	1.322	-0.636	582.031
-1.999	0.622	-1.127	1.057	1.055	0.237	-0.095	-1.724	-1.339	1.237	-1.119	-1.232	2.192	3.009	-1.624	0.114	1.131	-0.063	1.133	1.972	3.232	2.649	1.796	1.588	0.033	-0.535	1.487	-0.502	585.938
-2.109	0.497	-1.179	0.923	1.010	0.178	0.073	-1.710	-1.303	1.367	-0.990	-1.049	2.340	3.005	-1.668	-0.033	0.986	-0.147	1.009	1.845	3.156	2.558	1.753	1.703	0.148	-0.398	1.657	-0.385	589.844
-2.176	0.395	-1.213	0.797	0.955	0.117	0.219	-1.730	-1.326	1.447	-0.920	-0.922	2.462	2.993	-1.666	-0.150	0.879	-0.198	0.908	1.741	3.071	2.495	1.721	1.824	0.298	-0.252	1.804	-0.305	593.750
-2.180	0.331	-1.214	0.693	0.891	0.060	0.322	-1.783	-1.409	1.459	-0.922	-0.867	2.537	2.962	-1.604	-0.220	0.823	-0.206	0.842	1.669	2.975	2.457	1.702	1.928	0.462	-0.119	1.902	-0.271	597.656
-2.119	0.315	-1.175	0.622	0.822	0.016	0.371	-1.862	-1.543	1.395	-0.996	-0.890	2.553	2.909	-1.476	-0.230	0.824	-0.170	0.814	1.632	2.871	2.440	1.693	1.994	0.615	-0.021	1.937	-0.288	601.562
-2.002	0.350	-1.095	0.593	0.757	-0.010	0.364	-1.955	-1.714	1.262	-1.131	-0.984	2.507	2.834	-1.286	-0.179	0.879	-0.093	0.827	1.634	2.762	2.441	1.691	2.010	0.732	0.029	1.901	-0.351	605.469
-1.856	0.435	-0.983	0.605	0.701	-0.013	0.308	-2.049	-1.899	1.074	-1.306	-1.133	2.407	2.742	-1.051	-0.073	0.978	0.016	0.877	1.668	2.658	2.454	1.692	1.976	0.792	0.024	1.802	-0.447	609.375
-1.709	0.557	-0.853	0.655	0.661	0.007	0.216	-2.130	-2.077	0.855	-1.495	-1.312	2.270	2.643	-0.791	0.077	1.104	0.142	0.954	1.728	2.565	2.474	1.691	1.896	0.788	-0.035	1.651	-0.560	613.281
-1.589	0.701	-0.721	0.730	0.638	0.045	0.104	-2.186	-2.230	0.631	-1.672	-1.496	2.115	2.546	-0.528	0.250	1.239	0.275	1.047	1.799	2.491	2.500	1.687	1.787	0.722	-0.138	1.466	-0.676	617.188
-1.509	0.850	-0.601	0.815	0.629	0.096	-0.013	-2.211	-2.344	0.422	-1.820	-1.665	1.960	2.460	-0.282	0.427	1.367	0.405	1.144	1.870	2.438	2.526	1.679	1.663	0.606	-0.273	1.260	-0.782	621.094
-1.468	0.989	-0.499	0.894	0.627	0.148	-0.125	-2.207	-2.419	0.242	-1.931	-1.811	1.816	2.387	-0.065	0.591	1.477	0.529	1.235	1.928	2.407	2.553	1.672	1.539	0.462	-0.428	1.045	-0.876	625.000
-1.446	1.107	-0.416	0.955	0.622	0.193	-0.229	-2.179	-2.462	0.092	-2.009	-1.936	1.687	2.326	0.121	0.728	1.565	0.651	1.315	1.964	2.392	2.579	1.673	1.425	0.313	-0.594	0.825	-0.962	628.906
-1.413	1.201	-0.343	0.990	0.601	0.222	-0.327	-2.142	-2.488	-0.036	-2.068	-2.053	1.565	2.270	0.285	0.834	1.634	0.778	1.382	1.971	2.382	2.604	1.690	1.324	0.182	-0.767	0.598	-1.052	632.812
-1.335	1.272	-0.266	0.997	0.556	0.231	-0.426	-2.109	-2.517	-0.156	-2.127	-2.181	1.438	2.206	0.440	0.910	1.693	0.923	1.438	1.949	2.366	2.627	1.729	1.230	0.086	-0.947	0.359	-1.163	636.719
-1.186	1.327	-0.169	0.982	0.481	0.220	-0.535	-2.096	-2.565	-0.286	-2.208	-2.337	1.291	2.122	0.605	0.963	1.753	1.092	1.486	1.901	2.330	2.646	1.797	1.136	0.032	-1.135	0.102	-1.306	640.625
-0.954	1.373	-0.042	0.952	0.375	0.193	-0.661	-2.113	-2.646	-0.438	-2.324	-2.534	1.109	2.010	0.795	1.005	1.824	1.288	1.530	1.834	2.265	2.659	1.895	1.033	0.021	-1.331	-0.174	-1.491	644.531
-0.644	1.420	0.122	0.917	0.245	0.156	-0.805	-2.164	-2.763	-0.620	-2.480	-2.772	0.891	1.867	1.018	1.044	1.911	1.504	1.572	1.756	2.168	2.661	2.016	0.912	0.044	-1.533	-0.467	-1.717	648.438
-0.277	1.474	0.319	0.889	0.102	0.119	-0.965	-2.248	-2.913	-0.830	-2.674	-3.038	0.640	1.697	1.276	1.091	2.014	1.729	1.611	1.676	2.040	2.651	2.151	0.772	0.086	-1.734	-0.769	-1.974	652.344
0.115	1.541	0.539	0.875	-0.039	0.090	-1.132	-2.357	-3.089	-1.060	-2.892	-3.315	0.372	1.514	1.560	1.152	2.132	1.948	1.648	1.605	1.893	2.626	2.286	0.615	0.127	-1.925	-1.067	-2.245	656.250
0.498	1.621	0.765	0.881	-0.163	0.075	-1.294	-2.483	-3.281	-1.296	-3.119	-3.577	0.111	1.338	1.858	1.232	2.258	2.147	1.683	1.552	1.743	2.587	2.404	0.448	0.149	-2.099	-1.347	-2.510	660.156
0.843	1.713	0.978	0.909	-0.256	0.077	-1.439	-2.614	-3.480	-1.522	-3.338	-3.801	-0.117	1.191	2.151	1.332	2.385	2.316	1.716	1.529	1.613	2.538	2.493	0.283	0.132	-2.248	-1.594	-2.745	664.062
1.130	1.816	1.159	0.960	-0.306	0.098	-1.558	-2.743	-3.679	-1.724	-3.537	-3.969	-0.287	1.094	2.424	1.450	2.509	2.451	1.750	1.541	1.524	2.483	2.543	0.134	0.063	-2.369	-1.795	-2.933	667.969
1.353	1.925	1.298	1.031	-0.308	0.136	-1.642	-2.863	-3.874	-1.891	-3.707	-4.070	-0.379	1.062	2.660	1.583	2.624	2.550	1.785	1.593	1.493	2.430	2.550	0.012	-0.064	-2.464	-1.942	-3.062	671.875
1.515	2.038	1.389	1.121	-0.261	0.188	-1.689	-2.972	-4.063	-2.015	-3.848	-4.106	-0.383	1.101	2.850	1.725	2.727	2.612	1.825	1.686	1.531	2.387	2.517	-0.072	-0.247	-2.538	-2.028	-3.128	675.781
1.627	2.154	1.435	1.225	-0.169	0.252	-1.696	-3.067	-4.246	-2.094	-3.961	-4.087	-0.302	1.208	2.987	1.872	2.816	2.638	1.868	1.814	1.637	2.359	2.452	-0.113	-0.475	-2.600	-2.055	-3.137	679.688
1.700	2.272	1.444	1.341	-0.038	0.324	-1.665	-3.147	-4.420	-2.131	-4.052	-4.030	-0.148	1.371	3.073	2.018	2.888	2.625	1.912	1.970	1.801	2.352	2.366	-0.111	-0.727	-2.656	-2.025	-3.099	683.594
1.745	2.390	1.429	1.463	0.120	0.400	-1.599	-3.209	-4.579	-2.131	-4.126	-3.953	0.059	1.569	3.115	2.157	2.944	2.573	1.954	2.139	2.002	2.365	2.269	-0.071	-0.980	-2.713	-1.945	-3.033	687.500
1.767	2.505	1.402	1.583	0.291	0.475	-1.500	-3.251	-4.717	-2.102	-4.188	-3.875	0.293	1.780	3.123	2.283	2.984	2.484	1.987	2.308	2.216	2.398	2.171	-0.003	-1.209	-2.773	-1.827	-2.956	691.406
1.770	2.613	1.374	1.694	0.462	0.547	-1.375	-3.273	-4.826	-2.052	-4.239	-3.809	0.527	1.981	3.112	2.392	3.009	2.361	2.009	2.463	2.417	2.447	2.081	0.081	-1.393	-2.835	-1.683	-2.887	695.312
1.754	2.706	1.350	1.788	0.620	0.612	-1.231	-3.274	-4.901	-1.991	-4.282	-3.764	0.739	2.153	3.096	2.479	3.021	2.211	2.015	2.593	2.585	2.507	2.002	0.168	-1.520	-2.894	-1.528	-2.840	699.219
1.724	2.779	1.336	1.862	0.754	0.667	-1.079	-3.259	-4.943	-1.928	-4.317	-3.747	0.911	2.287	3.088	2.543	3.022	2.044	2.007	2.691	2.707	2.573	1.939	0.246	-1.587	-2.948	-1.377	-2.825	703.125
1.684	2.829	1.331	1.913	0.859	0.712	-0.931	-3.234	-4.954	-1.870	-4.349	-3.760	1.035	2.381	3.094	2.583	3.012	1.872	1.986	2.757	2.783	2.643	1.893	0.307	-1.599	-2.993	-1.248	-2.847	707.031
1.644	2.855	1.333	1.943	0.931	0.744	-0.802	-3.208	-4.946	-1.824	-4.380	-3.802	1.107	2.440	3.119	2.604	2.995	1.710	1.961	2.797	2.819	2.713	1.869	0.346	-1.569	-3.028	-1.154	-2.905	710.938
1.613	2.859	1.341	1.956	0.973	0.765	-0.704	-3.191	-4.931	-1.798	-4.415	-3.869	1.132	2.474	3.160	2.612	2.975	1.574	1.938	2.817	2.831	2.784	1.869	0.364	-1.513	-3.058	-1.108	-2.996	714.844
1.601	2.847	1.354	1.956	0.988	0.776	-0.649	-3.189	-4.924	-1.794	-4.456	-3.954	1.117	2.490	3.213	2.611	2.956	1.480	1.924	2.825	2.831	2.855	1.895	0.361	-1.446	-3.088	-1.118	-3.111	718.750
1.614	2.824	1.373	1.948	0.980	0.779	-0.641	-3.209	-4.936	-1.815	-4.505	-4.044	1.071	2.495	3.274	2.607	2.941	1.442	1.925	2.826	2.829	2.923	1.944	0.341	-1.380	-3.124	-1.184	-3.241	722.656
1.650	2.798	1.400	1.935	0.953	0.774	-0.684	-3.252	-4.976	-1.860	-4.559	-4.125	1.000	2.487	3.337	2.603	2.936	1.470	1.941	2.820	2.827	2.985	2.013	0.306	-1.322	-3.167	-1.303	-3.373	726.562
1.709	2.772	1.437	1.916	0.908	0.763	-0.773	-3.315	-5.044	-1.925	-4.614	-4.180	0.909	2.458	3.400	2.598	2.941	1.563	1.971	2.806	2.820	3.036	2.094	0.260	-1.275	-3.218	-1.459	-3.492	730.469
1.781	2.750	1.484	1.889	0.846	0.745	-0.901	-3.393	-5.138	-2.004	-4.663	-4.194	0.801	2.400	3.463	2.591	2.959	1.713	2.007	2.776	2.795	3.072	2.176	0.203	-1.240	-3.271	-1.634	-3.583	734.375
1.860	2.732	1.543	1.850	0.766	0.716	-1.058	-3.478	-5.249	-2.090	-4.698	-4.156	0.677	2.302	3.526	2.579	2.986	1.904	2.042	2.725	2.741	3.088	2.249	0.137	-1.214	-3.317	-1.803	-3.632	738.281
1.938	2.715	1.607	1.795	0.670	0.676	-1.233	-3.563	-5.364	-2.175	-4.713	-4.063	0.540	2.163	3.589	2.559	3.017	2.109	2.066	2.651	2.649	3.080	2.302	0.064	-1.199	-3.345	-1.941	-3.629	742.188
2.011	2.697	1.672	1.721	0.558	0.623	-1.413	-3.641	-5.469	-2.253	-4.701	-3.918	0.396	1.986	3.651	2.528	3.044	2.302	2.070	2.555	2.517	3.048	2.326	-0.012	-1.192	-3.344	-2.026	-3.567	746.094
2.076	2.672	1.728	1.626	0.436	0.559	-1.587	-3.706	-5.552	-2.319	-4.661	-3.732	0.252	1.786	3.710	2.485	3.058	2.457	2.048	2.444	2.354	2.994	2.316	-0.084	-1.193	-3.307	-2.042	-3.449	750.000
2.133	2.639	1.765	1.515	0.312	0.488	-1.742	-3.755	-5.603	-2.367	-4.597	-3.522	0.119	1.585	3.758	2.433	3.053	2.556	1.996	2.328	2.176	2.924	2.272	-0.147	-1.200	-3.235	-1.987	-3.284	753.906
2.183	2.599	1.775	1.396	0.196	0.418	-1.867	-3.786	-5.618	-2.396	-4.516	-3.312	0.012	1.408	3.789	2.378	3.028	2.587	1.920	2.225	2.007	2.846	2.199	-0.194	-1.210	-3.134	-1.870	-3.090	757.812
2.226	2.557	1.753	1.281	0.102	0.356	-1.956	-3.801	-5.600	-2.406	-4.428	-3.125	-0.060	1.276	3.799	2.329	2.986	2.554	1.828	2.147	1.868	2.769	2.107	-0.220	-1.223	-3.018	-1.711	-2.886	761.719
2.264	2.520	1.700	1.183	0.040	0.310	-2.003	-3.803	-5.557	-2.397	-4.345	-2.981	-0.090	1.206	3.789	2.296	2.937	2.466	1.735	2.110	1.781	2.702	2.008	-0.222	-1.242	-2.906	-1.538	-2.699	765.625
2.299	2.497	1.620	1.115	0.019	0.285	-2.009	-3.796	-5.502	-2.371	-4.280	-2.896	-0.073	1.204	3.764	2.290	2.896	2.343	1.658	2.122	1.760	2.652	1.918	-0.202	-1.271	-2.818	-1.382	-2.551	769.531
2.334	2.494	1.524	1.085	0.041	0.282	-1.976	-3.785	-5.446	-2.328	-4.239	-2.876	-0.015	1.266	3.736	2.317	2.877	2.211	1.611	2.185	1.809	2.624	1.847	-0.163	-1.318	-2.775	-1.270	-2.460	773.438
2.369	2.517	1.426	1.097	0.104	0.300	-1.912	-3.774	-5.403	-2.269	-4.228	-2.922	0.078	1.380	3.723	2.381	2.894	2.095	1.608	2.295	1.926	2.621	1.805	-0.114	-1.389	-2.796	-1.223	-2.440	777.344
2.406	2.569	1.340	1.149	0.204	0.336	-1.824	-3.767	-5.380	-2.193	-4.247	-3.025	0.195	1.531	3.739	2.481	2.955	2.016	1.655	2.445	2.103	2.640	1.795	-0.060	-1.491	-2.888	-1.253	-2.496	781.250
2.442	2.649	1.277	1.236	0.332	0.382	-1.720	-3.764	-5.382	-2.101	-4.291	-3.172	0.324	1.701	3.799	2.610	3.061	1.985	1.750	2.624	2.327	2.678	1.813	-0.009	-1.623	-3.054	-1.360	-2.625	785.156
2.477	2.753	1.242	1.348	0.477	0.435	-1.607	-3.766	-5.408	-1.994	-4.355	-3.351	0.458	1.877	3.906	2.763	3.209	2.006	1.887	2.822	2.582	2.729	1.855	0.037	-1.784	-3.286	-1.532	-2.814	789.062
2.512	2.874	1.232	1.473	0.631	0.488	-1.491	-3.771	-5.452	-1.876	-4.430	-3.545	0.589	2.048	4.055	2.928	3.387	2.068	2.052	3.028	2.853	2.787	1.912	0.075	-1.964	-3.565	-1.751	-3.045	792.969
2.546	3.003	1.239	1.603	0.785	0.540	-1.376	-3.779	-5.507	-1.752	-4.508	-3.740	0.715	2.211	4.228	3.099	3.581	2.154	2.232	3.234	3.126	2.846	1.974	0.107	-2.156	-3.868	-1.991	-3.293	796.875
