FP1	F3	F7	FC3	C3	C5	P3	P7	PO7	PO3	O1	Oz	Pz	CPz	FP2	Fz	F4	F8	FC4	FCz	Cz	C4	C6	P4	P8	PO8	PO4	O2	time
-1.040	-0.324	-1.130	-0.613	-0.195	-0.490	0.574	0.156	-0.019	0.480	0.272	0.620	0.388	0.507	-0.351	-0.283	-0.244	-0.371	-0.111	0.018	-0.009	0.508	-0.016	1.004	1.289	1.155	0.871	1.279	-199.219
-0.789	-0.259	-0.765	-0.485	-0.277	-0.387	0.431	0.080	-0.144	0.289	0.227	0.504	0.253	0.284	-0.357	-0.226	-0.219	-0.262	-0.107	-0.052	-0.169	0.366	0.007	0.853	1.154	1.074	0.777	1.203	-195.312
-0.549	-0.194	-0.428	-0.361	-0.348	-0.285	0.293	0.020	-0.253	0.113	0.187	0.393	0.126	0.089	-0.362	-0.170	-0.190	-0.166	-0.093	-0.108	-0.304	0.246	0.035	0.704	1.020	0.972	0.670	1.107	-191.406
-0.325	-0.126	-0.136	-0.242	-0.396	-0.184	0.164	-0.019	-0.336	-0.040	0.147	0.286	0.015	-0.053	-0.354	-0.114	-0.149	-0.086	-0.056	-0.134	-0.394	0.167	0.072	0.560	0.882	0.828	0.538	0.975	-187.500
-0.125	-0.051	0.096	-0.127	-0.410	-0.085	0.049	-0.032	-0.392	-0.165	0.104	0.182	-0.075	-0.126	-0.328	-0.054	-0.090	-0.020	0.010	-0.121	-0.422	0.143	0.119	0.425	0.730	0.630	0.378	0.794	-183.594
0.042	0.036	0.262	-0.013	-0.382	0.010	-0.047	-0.022	-0.423	-0.260	0.054	0.078	-0.138	-0.125	-0.281	0.013	-0.010	0.036	0.108	-0.063	-0.381	0.175	0.177	0.300	0.558	0.378	0.191	0.564	-179.688
0.172	0.138	0.366	0.102	-0.312	0.099	-0.120	0.004	-0.436	-0.331	-0.009	-0.030	-0.171	-0.052	-0.213	0.090	0.088	0.088	0.235	0.039	-0.274	0.257	0.241	0.191	0.360	0.081	-0.011	0.294	-175.781
0.264	0.253	0.413	0.219	-0.201	0.179	-0.166	0.036	-0.443	-0.382	-0.087	-0.145	-0.172	0.078	-0.126	0.179	0.201	0.145	0.385	0.177	-0.109	0.378	0.307	0.101	0.139	-0.241	-0.216	-0.001	-171.875
0.322	0.374	0.415	0.336	-0.059	0.244	-0.183	0.060	-0.455	-0.421	-0.181	-0.268	-0.144	0.249	-0.025	0.279	0.322	0.212	0.544	0.340	0.097	0.521	0.372	0.037	-0.098	-0.561	-0.404	-0.296	-167.969
0.356	0.491	0.381	0.449	0.101	0.289	-0.170	0.063	-0.481	-0.453	-0.293	-0.395	-0.090	0.438	0.084	0.384	0.440	0.292	0.702	0.512	0.322	0.670	0.433	0.003	-0.338	-0.851	-0.563	-0.569	-164.062
0.375	0.591	0.325	0.549	0.262	0.308	-0.132	0.034	-0.526	-0.482	-0.415	-0.519	-0.018	0.624	0.193	0.489	0.547	0.385	0.844	0.676	0.544	0.811	0.487	-0.000	-0.560	-1.085	-0.681	-0.797	-160.156
0.386	0.660	0.256	0.627	0.406	0.298	-0.074	-0.026	-0.585	-0.505	-0.539	-0.635	0.062	0.787	0.293	0.583	0.632	0.484	0.955	0.814	0.742	0.927	0.532	0.024	-0.747	-1.246	-0.753	-0.961	-156.250
0.392	0.688	0.184	0.676	0.517	0.260	-0.004	-0.111	-0.646	-0.519	-0.650	-0.731	0.139	0.910	0.374	0.654	0.687	0.579	1.025	0.909	0.895	1.006	0.563	0.067	-0.880	-1.324	-0.781	-1.052	-152.344
0.392	0.672	0.116	0.687	0.584	0.198	0.073	-0.204	-0.689	-0.518	-0.730	-0.800	0.203	0.981	0.425	0.692	0.705	0.657	1.043	0.949	0.989	1.035	0.575	0.119	-0.946	-1.318	-0.771	-1.066	-148.438
0.379	0.610	0.055	0.657	0.600	0.116	0.148	-0.284	-0.694	-0.497	-0.763	-0.833	0.245	0.995	0.436	0.687	0.680	0.706	1.004	0.927	1.015	1.005	0.561	0.168	-0.938	-1.233	-0.729	-1.005	-144.531
0.347	0.509	0.002	0.585	0.564	0.022	0.216	-0.330	-0.642	-0.451	-0.734	-0.826	0.262	0.951	0.404	0.637	0.612	0.715	0.909	0.842	0.972	0.912	0.517	0.202	-0.856	-1.082	-0.665	-0.879	-140.625
0.289	0.378	-0.048	0.475	0.480	-0.078	0.274	-0.327	-0.528	-0.380	-0.638	-0.776	0.252	0.856	0.327	0.542	0.506	0.681	0.764	0.701	0.865	0.758	0.441	0.216	-0.707	-0.876	-0.585	-0.701	-136.719
0.205	0.228	-0.099	0.333	0.358	-0.179	0.316	-0.272	-0.355	-0.286	-0.480	-0.684	0.218	0.721	0.215	0.412	0.373	0.605	0.583	0.516	0.705	0.555	0.337	0.210	-0.504	-0.629	-0.492	-0.487	-132.812
0.100	0.072	-0.155	0.169	0.209	-0.278	0.339	-0.173	-0.143	-0.179	-0.277	-0.557	0.165	0.557	0.083	0.258	0.226	0.496	0.384	0.306	0.508	0.319	0.215	0.189	-0.263	-0.355	-0.389	-0.254	-128.906
-0.014	-0.080	-0.220	-0.006	0.045	-0.372	0.338	-0.053	0.078	-0.069	-0.055	-0.402	0.100	0.381	-0.050	0.096	0.081	0.367	0.187	0.087	0.290	0.076	0.088	0.163	0.000	-0.066	-0.276	-0.018	-125.000
-0.123	-0.218	-0.291	-0.179	-0.122	-0.458	0.311	0.062	0.274	0.031	0.158	-0.229	0.030	0.206	-0.165	-0.061	-0.049	0.234	0.010	-0.123	0.070	-0.149	-0.029	0.143	0.268	0.226	-0.153	0.205	-121.094
-0.215	-0.336	-0.364	-0.338	-0.283	-0.531	0.256	0.147	0.413	0.110	0.333	-0.049	-0.038	0.041	-0.247	-0.200	-0.154	0.110	-0.134	-0.311	-0.139	-0.333	-0.120	0.138	0.525	0.507	-0.019	0.405	-117.188
-0.278	-0.431	-0.431	-0.472	-0.428	-0.588	0.173	0.181	0.473	0.161	0.450	0.127	-0.099	-0.106	-0.288	-0.313	-0.228	0.006	-0.239	-0.467	-0.322	-0.462	-0.176	0.154	0.758	0.766	0.121	0.573	-113.281
-0.309	-0.498	-0.479	-0.570	-0.550	-0.622	0.066	0.158	0.448	0.180	0.502	0.292	-0.150	-0.232	-0.287	-0.396	-0.272	-0.077	-0.305	-0.586	-0.472	-0.530	-0.195	0.188	0.954	0.990	0.261	0.702	-109.375
-0.306	-0.537	-0.499	-0.627	-0.645	-0.632	-0.058	0.082	0.345	0.171	0.490	0.438	-0.192	-0.338	-0.250	-0.447	-0.291	-0.139	-0.338	-0.665	-0.581	-0.543	-0.179	0.229	1.101	1.167	0.389	0.787	-105.469
-0.277	-0.546	-0.482	-0.639	-0.707	-0.612	-0.189	-0.028	0.190	0.138	0.427	0.558	-0.227	-0.426	-0.188	-0.470	-0.290	-0.186	-0.348	-0.705	-0.649	-0.514	-0.138	0.264	1.188	1.287	0.495	0.828	-101.562
-0.228	-0.527	-0.424	-0.607	-0.734	-0.563	-0.316	-0.146	0.015	0.092	0.333	0.651	-0.259	-0.503	-0.116	-0.468	-0.280	-0.222	-0.348	-0.709	-0.679	-0.464	-0.088	0.275	1.209	1.339	0.564	0.821	-97.656
-0.169	-0.481	-0.327	-0.534	-0.721	-0.485	-0.425	-0.245	-0.144	0.041	0.228	0.713	-0.292	-0.569	-0.047	-0.449	-0.269	-0.249	-0.346	-0.684	-0.675	-0.410	-0.041	0.248	1.160	1.317	0.588	0.767	-93.750
-0.109	-0.413	-0.199	-0.428	-0.666	-0.379	-0.505	-0.301	-0.256	-0.006	0.131	0.742	-0.328	-0.626	0.006	-0.418	-0.262	-0.268	-0.351	-0.634	-0.646	-0.366	-0.009	0.176	1.045	1.220	0.558	0.668	-89.844
-0.056	-0.328	-0.052	-0.300	-0.570	-0.249	-0.547	-0.301	-0.303	-0.044	0.054	0.734	-0.365	-0.670	0.037	-0.378	-0.262	-0.275	-0.362	-0.568	-0.597	-0.337	0.004	0.060	0.871	1.049	0.474	0.525	-85.938
-0.014	-0.233	0.098	-0.158	-0.432	-0.100	-0.548	-0.243	-0.279	-0.069	0.002	0.685	-0.399	-0.695	0.046	-0.331	-0.267	-0.267	-0.377	-0.490	-0.533	-0.321	-0.002	-0.088	0.652	0.813	0.342	0.347	-82.031
0.017	-0.135	0.238	-0.013	-0.260	0.060	-0.507	-0.138	-0.198	-0.082	-0.029	0.593	-0.424	-0.692	0.038	-0.276	-0.272	-0.244	-0.387	-0.403	-0.454	-0.311	-0.020	-0.250	0.402	0.527	0.172	0.140	-78.125
0.036	-0.040	0.356	0.127	-0.062	0.224	-0.430	-0.007	-0.080	-0.086	-0.049	0.458	-0.429	-0.654	0.022	-0.213	-0.272	-0.208	-0.384	-0.306	-0.358	-0.295	-0.043	-0.404	0.139	0.209	-0.018	-0.084	-74.219
0.049	0.049	0.444	0.256	0.150	0.382	-0.325	0.127	0.045	-0.082	-0.066	0.284	-0.404	-0.575	0.007	-0.138	-0.259	-0.170	-0.361	-0.201	-0.240	-0.263	-0.064	-0.530	-0.123	-0.120	-0.208	-0.311	-70.312
0.060	0.128	0.500	0.368	0.362	0.526	-0.202	0.239	0.154	-0.072	-0.088	0.084	-0.343	-0.453	0.003	-0.054	-0.231	-0.142	-0.316	-0.085	-0.100	-0.212	-0.078	-0.611	-0.371	-0.438	-0.375	-0.525	-66.406
0.071	0.196	0.524	0.461	0.559	0.649	-0.072	0.315	0.228	-0.055	-0.119	-0.127	-0.242	-0.296	0.012	0.037	-0.188	-0.137	-0.254	0.038	0.061	-0.143	-0.085	-0.637	-0.595	-0.721	-0.501	-0.710	-62.500
0.083	0.252	0.520	0.531	0.727	0.744	0.057	0.346	0.264	-0.026	-0.157	-0.327	-0.106	-0.115	0.034	0.129	-0.135	-0.167	-0.181	0.163	0.236	-0.064	-0.089	-0.610	-0.787	-0.953	-0.574	-0.852	-58.594
0.095	0.293	0.495	0.575	0.855	0.804	0.176	0.335	0.267	0.016	-0.194	-0.497	0.056	0.071	0.063	0.215	-0.078	-0.233	-0.111	0.282	0.412	0.012	-0.094	-0.539	-0.941	-1.119	-0.589	-0.940	-54.688
0.107	0.319	0.453	0.590	0.931	0.827	0.278	0.291	0.249	0.074	-0.222	-0.616	0.226	0.242	0.093	0.287	-0.024	-0.330	-0.055	0.385	0.569	0.070	-0.106	-0.439	-1.054	-1.209	-0.547	-0.968	-50.781
0.116	0.327	0.398	0.573	0.950	0.810	0.354	0.226	0.230	0.147	-0.230	-0.671	0.383	0.375	0.117	0.337	0.020	-0.442	-0.023	0.458	0.688	0.097	-0.130	-0.330	-1.121	-1.219	-0.459	-0.935	-46.875
0.122	0.313	0.335	0.520	0.908	0.752	0.399	0.157	0.223	0.230	-0.211	-0.654	0.509	0.452	0.131	0.357	0.048	-0.544	-0.022	0.491	0.746	0.082	-0.167	-0.232	-1.139	-1.151	-0.336	-0.849	-42.969
0.125	0.274	0.264	0.429	0.805	0.655	0.406	0.094	0.242	0.317	-0.160	-0.569	0.584	0.461	0.133	0.343	0.059	-0.616	-0.053	0.474	0.732	0.022	-0.217	-0.161	-1.104	-1.011	-0.194	-0.717	-39.062
0.124	0.208	0.188	0.303	0.648	0.523	0.374	0.045	0.291	0.399	-0.078	-0.422	0.600	0.398	0.127	0.291	0.050	-0.638	-0.112	0.405	0.637	-0.079	-0.276	-0.124	-1.014	-0.810	-0.043	-0.552	-35.156
0.117	0.116	0.109	0.143	0.446	0.361	0.304	0.013	0.366	0.470	0.031	-0.230	0.554	0.268	0.116	0.203	0.023	-0.600	-0.192	0.285	0.468	-0.210	-0.339	-0.123	-0.871	-0.561	0.105	-0.365	-31.250
0.101	0.001	0.026	-0.042	0.214	0.181	0.201	-0.005	0.457	0.519	0.157	-0.010	0.453	0.083	0.106	0.081	-0.018	-0.504	-0.284	0.123	0.238	-0.355	-0.398	-0.151	-0.680	-0.281	0.244	-0.166	-27.344
0.074	-0.129	-0.056	-0.244	-0.031	-0.007	0.073	-0.017	0.549	0.540	0.287	0.214	0.309	-0.139	0.101	-0.067	-0.066	-0.359	-0.376	-0.067	-0.031	-0.494	-0.444	-0.195	-0.451	0.013	0.372	0.036	-23.438
0.034	-0.265	-0.133	-0.449	-0.271	-0.190	-0.071	-0.029	0.624	0.529	0.405	0.423	0.141	-0.381	0.103	-0.230	-0.116	-0.180	-0.461	-0.269	-0.311	-0.609	-0.468	-0.242	-0.198	0.302	0.485	0.235	-19.531
-0.016	-0.396	-0.197	-0.643	-0.489	-0.352	-0.219	-0.050	0.664	0.485	0.496	0.595	-0.031	-0.623	0.111	-0.398	-0.159	0.015	-0.529	-0.465	-0.578	-0.686	-0.463	-0.280	0.062	0.568	0.582	0.424	-15.625
-0.073	-0.514	-0.240	-0.812	-0.670	-0.482	-0.362	-0.082	0.661	0.408	0.549	0.718	-0.193	-0.850	0.125	-0.558	-0.192	0.208	-0.577	-0.639	-0.810	-0.717	-0.425	-0.302	0.309	0.793	0.661	0.596	-11.719
-0.129	-0.610	-0.255	-0.945	-0.804	-0.567	-0.493	-0.124	0.611	0.305	0.557	0.783	-0.331	-1.052	0.138	-0.700	-0.211	0.383	-0.603	-0.780	-0.994	-0.702	-0.355	-0.306	0.526	0.963	0.718	0.743	-7.812
-0.176	-0.680	-0.237	-1.033	-0.885	-0.602	-0.604	-0.168	0.523	0.188	0.524	0.791	-0.438	-1.220	0.146	-0.816	-0.216	0.528	-0.607	-0.883	-1.121	-0.647	-0.258	-0.295	0.696	1.067	0.750	0.857	-3.906
-0.207	-0.724	-0.188	-1.073	-0.911	-0.584	-0.692	-0.201	0.412	0.070	0.457	0.747	-0.513	-1.349	0.144	-0.898	-0.211	0.634	-0.593	-0.946	-1.192	-0.567	-0.143	-0.277	0.809	1.101	0.750	0.929	0.000
-0.218	-0.745	-0.113	-1.064	-0.883	-0.517	-0.751	-0.211	0.301	-0.032	0.372	0.663	-0.555	-1.435	0.129	-0.943	-0.201	0.695	-0.565	-0.974	-1.211	-0.475	-0.025	-0.260	0.858	1.065	0.714	0.955	3.906
-0.209	-0.746	-0.023	-1.014	-0.806	-0.407	-0.779	-0.186	0.214	-0.103	0.285	0.554	-0.568	-1.474	0.099	-0.952	-0.194	0.708	-0.531	-0.971	-1.186	-0.386	0.084	-0.251	0.843	0.969	0.640	0.934	7.812
-0.186	-0.732	0.071	-0.929	-0.689	-0.267	-0.775	-0.120	0.168	-0.131	0.215	0.437	-0.552	-1.467	0.056	-0.927	-0.196	0.671	-0.496	-0.944	-1.122	-0.314	0.169	-0.253	0.767	0.824	0.531	0.869	11.719
-0.157	-0.705	0.157	-0.820	-0.538	-0.109	-0.738	-0.015	0.173	-0.108	0.171	0.324	-0.509	-1.411	0.003	-0.874	-0.211	0.585	-0.466	-0.897	-1.028	-0.263	0.221	-0.266	0.639	0.644	0.392	0.768	15.625
-0.131	-0.665	0.227	-0.694	-0.365	0.055	-0.670	0.121	0.229	-0.035	0.159	0.225	-0.437	-1.309	-0.054	-0.799	-0.240	0.455	-0.444	-0.835	-0.908	-0.235	0.233	-0.285	0.468	0.446	0.236	0.643	19.531
-0.115	-0.612	0.277	-0.560	-0.177	0.214	-0.576	0.271	0.324	0.083	0.173	0.146	-0.337	-1.164	-0.110	-0.709	-0.278	0.292	-0.430	-0.758	-0.767	-0.227	0.205	-0.303	0.266	0.244	0.076	0.505	23.438
-0.112	-0.545	0.306	-0.423	0.013	0.359	-0.463	0.415	0.438	0.231	0.204	0.090	-0.209	-0.983	-0.160	-0.614	-0.322	0.106	-0.421	-0.669	-0.612	-0.230	0.140	-0.313	0.044	0.049	-0.073	0.367	27.344
-0.123	-0.465	0.318	-0.289	0.197	0.485	-0.343	0.535	0.548	0.391	0.239	0.055	-0.060	-0.780	-0.201	-0.521	-0.362	-0.087	-0.415	-0.570	-0.450	-0.238	0.048	-0.310	-0.185	-0.126	-0.197	0.241	31.250
-0.145	-0.375	0.317	-0.166	0.362	0.585	-0.226	0.615	0.635	0.543	0.264	0.039	0.100	-0.567	-0.231	-0.439	-0.394	-0.271	-0.408	-0.465	-0.292	-0.244	-0.060	-0.290	-0.405	-0.270	-0.286	0.137	35.156
-0.177	-0.281	0.309	-0.059	0.499	0.658	-0.125	0.646	0.685	0.670	0.271	0.040	0.259	-0.363	-0.254	-0.375	-0.413	-0.433	-0.395	-0.359	-0.149	-0.244	-0.169	-0.252	-0.595	-0.370	-0.329	0.062	39.062
-0.217	-0.190	0.298	0.024	0.596	0.699	-0.051	0.629	0.694	0.758	0.258	0.052	0.401	-0.186	-0.276	-0.336	-0.418	-0.562	-0.374	-0.262	-0.031	-0.238	-0.266	-0.197	-0.731	-0.417	-0.321	0.018	42.969
-0.267	-0.114	0.285	0.076	0.647	0.709	-0.009	0.574	0.671	0.804	0.228	0.070	0.511	-0.051	-0.305	-0.327	-0.412	-0.654	-0.347	-0.182	0.048	-0.229	-0.338	-0.127	-0.790	-0.400	-0.259	0.007	46.875
-0.333	-0.065	0.270	0.090	0.645	0.687	0.001	0.500	0.636	0.814	0.193	0.087	0.577	0.028	-0.353	-0.351	-0.403	-0.708	-0.317	-0.132	0.080	-0.223	-0.376	-0.047	-0.756	-0.313	-0.143	0.023	50.781
-0.423	-0.054	0.247	0.060	0.592	0.636	-0.014	0.432	0.616	0.803	0.168	0.096	0.594	0.045	-0.430	-0.411	-0.404	-0.734	-0.290	-0.121	0.059	-0.227	-0.379	0.040	-0.621	-0.152	0.020	0.060	54.688
-0.549	-0.093	0.211	-0.014	0.493	0.564	-0.039	0.399	0.645	0.795	0.173	0.092	0.566	0.000	-0.546	-0.510	-0.428	-0.744	-0.276	-0.158	-0.015	-0.249	-0.352	0.130	-0.390	0.080	0.223	0.109	58.594
-0.719	-0.190	0.154	-0.132	0.359	0.480	-0.055	0.428	0.755	0.818	0.223	0.067	0.504	-0.098	-0.708	-0.653	-0.489	-0.752	-0.287	-0.249	-0.138	-0.295	-0.305	0.220	-0.078	0.374	0.449	0.158	62.500
-0.939	-0.348	0.068	-0.288	0.206	0.395	-0.042	0.541	0.971	0.895	0.332	0.018	0.425	-0.236	-0.923	-0.841	-0.600	-0.775	-0.331	-0.395	-0.298	-0.364	-0.252	0.307	0.289	0.715	0.680	0.196	66.406
-1.210	-0.562	-0.053	-0.473	0.052	0.323	0.018	0.749	1.307	1.044	0.503	-0.061	0.347	-0.391	-1.190	-1.075	-0.765	-0.826	-0.416	-0.589	-0.482	-0.453	-0.206	0.388	0.681	1.078	0.893	0.210	70.312
-1.522	-0.819	-0.209	-0.672	-0.084	0.277	0.135	1.055	1.759	1.268	0.730	-0.175	0.288	-0.543	-1.503	-1.348	-0.980	-0.913	-0.542	-0.821	-0.668	-0.556	-0.178	0.459	1.063	1.434	1.063	0.187	74.219
-1.857	-1.098	-0.394	-0.869	-0.185	0.267	0.310	1.448	2.310	1.556	0.998	-0.327	0.259	-0.669	-1.849	-1.649	-1.234	-1.037	-0.705	-1.071	-0.839	-0.660	-0.171	0.514	1.405	1.748	1.170	0.115	78.125
-2.194	-1.372	-0.594	-1.047	-0.241	0.299	0.531	1.906	2.925	1.885	1.279	-0.519	0.263	-0.755	-2.206	-1.961	-1.506	-1.196	-0.892	-1.320	-0.978	-0.756	-0.186	0.548	1.678	1.985	1.195	-0.016	82.031
-2.505	-1.611	-0.789	-1.188	-0.245	0.375	0.776	2.399	3.560	2.222	1.545	-0.748	0.294	-0.793	-2.550	-2.262	-1.771	-1.377	-1.088	-1.545	-1.074	-0.836	-0.214	0.555	1.861	2.117	1.132	-0.210	85.938
-2.764	-1.791	-0.955	-1.282	-0.200	0.487	1.017	2.891	4.166	2.530	1.764	-1.007	0.342	-0.783	-2.853	-2.529	-2.003	-1.567	-1.274	-1.726	-1.121	-0.893	-0.250	0.530	1.940	2.123	0.984	-0.463	89.844
-2.951	-1.892	-1.071	-1.322	-0.115	0.625	1.225	3.345	4.695	2.776	1.911	-1.283	0.394	-0.733	-3.091	-2.741	-2.179	-1.744	-1.429	-1.848	-1.119	-0.925	-0.283	0.472	1.913	1.999	0.766	-0.762	93.750
-3.047	-1.908	-1.121	-1.310	-0.001	0.770	1.374	3.724	5.102	2.936	1.968	-1.560	0.439	-0.650	-3.245	-2.880	-2.286	-1.889	-1.539	-1.901	-1.071	-0.932	-0.308	0.384	1.787	1.755	0.503	-1.090	97.656
-3.046	-1.840	-1.101	-1.249	0.130	0.905	1.448	3.996	5.352	2.993	1.925	-1.819	0.473	-0.546	-3.305	-2.937	-2.316	-1.982	-1.591	-1.881	-0.980	-0.916	-0.318	0.275	1.579	1.415	0.228	-1.419	101.562
-2.946	-1.700	-1.014	-1.150	0.265	1.012	1.442	4.132	5.420	2.946	1.781	-2.044	0.497	-0.425	-3.265	-2.906	-2.271	-2.008	-1.578	-1.788	-0.849	-0.876	-0.313	0.157	1.311	1.012	-0.027	-1.727	105.469
-2.752	-1.503	-0.874	-1.018	0.397	1.081	1.361	4.112	5.292	2.798	1.542	-2.226	0.518	-0.290	-3.129	-2.788	-2.156	-1.958	-1.497	-1.626	-0.676	-0.809	-0.288	0.045	1.010	0.579	-0.234	-1.993	109.375
-2.472	-1.263	-0.694	-0.859	0.523	1.107	1.215	3.923	4.962	2.561	1.213	-2.366	0.545	-0.137	-2.903	-2.585	-1.975	-1.829	-1.348	-1.398	-0.457	-0.709	-0.242	-0.045	0.697	0.146	-0.378	-2.207	113.281
-2.116	-0.990	-0.490	-0.673	0.648	1.094	1.017	3.560	4.433	2.244	0.799	-2.473	0.587	0.039	-2.593	-2.299	-1.732	-1.621	-1.127	-1.104	-0.187	-0.562	-0.168	-0.103	0.389	-0.266	-0.459	-2.372	117.188
-1.695	-0.688	-0.272	-0.456	0.774	1.052	0.779	3.026	3.714	1.855	0.306	-2.567	0.649	0.243	-2.210	-1.931	-1.424	-1.339	-0.831	-0.746	0.141	-0.356	-0.058	-0.121	0.099	-0.648	-0.490	-2.504	121.094
-1.218	-0.360	-0.045	-0.205	0.906	0.997	0.507	2.336	2.826	1.400	-0.260	-2.672	0.727	0.476	-1.764	-1.485	-1.048	-0.994	-0.460	-0.325	0.525	-0.079	0.096	-0.097	-0.169	-0.996	-0.495	-2.626	125.000
-0.697	-0.005	0.189	0.078	1.046	0.943	0.207	1.519	1.802	0.887	-0.888	-2.808	0.812	0.732	-1.269	-0.972	-0.607	-0.598	-0.018	0.149	0.957	0.270	0.301	-0.038	-0.410	-1.313	-0.504	-2.760	128.906
-0.146	0.367	0.429	0.386	1.188	0.904	-0.115	0.619	0.692	0.329	-1.556	-2.987	0.889	0.997	-0.742	-0.412	-0.113	-0.173	0.478	0.659	1.415	0.682	0.556	0.047	-0.621	-1.602	-0.544	-2.920	132.812
0.414	0.744	0.672	0.700	1.323	0.886	-0.450	-0.304	-0.439	-0.253	-2.229	-3.207	0.939	1.250	-0.206	0.163	0.411	0.259	1.000	1.174	1.867	1.129	0.850	0.141	-0.800	-1.862	-0.633	-3.108	136.719
0.959	1.101	0.912	0.995	1.436	0.891	-0.786	-1.183	-1.513	-0.826	-2.863	-3.452	0.946	1.464	0.312	0.713	0.928	0.668	1.510	1.657	2.275	1.574	1.162	0.226	-0.944	-2.086	-0.777	-3.310	140.625
1.457	1.411	1.137	1.241	1.513	0.912	-1.102	-1.952	-2.451	-1.351	-3.405	-3.694	0.900	1.614	0.783	1.190	1.396	1.028	1.966	2.069	2.601	1.971	1.463	0.287	-1.048	-2.265	-0.969	-3.502	144.531
1.875	1.646	1.331	1.411	1.541	0.939	-1.376	-2.549	-3.177	-1.787	-3.806	-3.899	0.798	1.680	1.178	1.550	1.772	1.314	2.325	2.373	2.811	2.277	1.722	0.314	-1.111	-2.385	-1.191	-3.653	148.438
2.182	1.780	1.475	1.484	1.511	0.959	-1.586	-2.933	-3.634	-2.095	-4.025	-4.030	0.647	1.649	1.469	1.760	2.020	1.507	2.554	2.542	2.886	2.457	1.911	0.304	-1.129	-2.428	-1.415	-3.730	152.344
2.352	1.799	1.552	1.447	1.421	0.961	-1.717	-3.084	-3.793	-2.249	-4.035	-4.058	0.460	1.522	1.634	1.799	2.119	1.598	2.635	2.561	2.822	2.494	2.008	0.263	-1.098	-2.380	-1.615	-3.712	156.250
2.372	1.697	1.549	1.302	1.276	0.934	-1.759	-3.009	-3.654	-2.238	-3.835	-3.966	0.259	1.312	1.658	1.666	2.062	1.587	2.568	2.433	2.629	2.388	2.007	0.204	-1.013	-2.229	-1.764	-3.585	160.156
2.241	1.484	1.461	1.061	1.084	0.873	-1.716	-2.737	-3.249	-2.071	-3.444	-3.752	0.065	1.039	1.540	1.380	1.862	1.481	2.369	2.175	2.335	2.162	1.914	0.143	-0.870	-1.970	-1.842	-3.351	164.062
1.975	1.179	1.291	0.748	0.860	0.779	-1.601	-2.318	-2.639	-1.775	-2.903	-3.432	-0.101	0.733	1.291	0.974	1.546	1.297	2.068	1.814	1.974	1.852	1.748	0.100	-0.667	-1.608	-1.837	-3.028	167.969
1.600	0.811	1.050	0.391	0.621	0.656	-1.438	-1.813	-1.899	-1.389	-2.268	-3.033	-0.224	0.424	0.938	0.496	1.155	1.057	1.706	1.389	1.587	1.504	1.535	0.088	-0.405	-1.157	-1.747	-2.641	171.875
1.153	0.412	0.759	0.021	0.384	0.515	-1.253	-1.284	-1.111	-0.960	-1.600	-2.592	-0.295	0.139	0.518	-0.005	0.731	0.786	1.324	0.940	1.212	1.162	1.302	0.115	-0.091	-0.645	-1.579	-2.224	175.781
0.674	0.015	0.438	-0.331	0.165	0.367	-1.070	-0.786	-0.351	-0.532	-0.957	-2.151	-0.314	-0.097	0.075	-0.481	0.318	0.509	0.961	0.507	0.881	0.864	1.073	0.179	0.259	-0.105	-1.350	-1.811	179.688
0.204	-0.351	0.113	-0.644	-0.024	0.228	-0.912	-0.361	0.323	-0.142	-0.388	-1.744	-0.288	-0.270	-0.349	-0.895	-0.051	0.248	0.646	0.123	0.614	0.631	0.868	0.271	0.624	0.428	-1.079	-1.432	183.594
-0.223	-0.665	-0.197	-0.902	-0.173	0.108	-0.789	-0.032	0.874	0.186	0.075	-1.399	-0.227	-0.377	-0.719	-1.223	-0.352	0.020	0.397	-0.192	0.419	0.471	0.696	0.377	0.983	0.920	-0.788	-1.108	187.500
-0.581	-0.918	-0.478	-1.102	-0.281	0.014	-0.704	0.196	1.291	0.441	0.420	-1.133	-0.145	-0.421	-1.014	-1.460	-0.576	-0.164	0.217	-0.429	0.294	0.374	0.561	0.480	1.312	1.344	-0.498	-0.848	191.406
-0.856	-1.112	-0.722	-1.250	-0.349	-0.049	-0.652	0.334	1.583	0.628	0.652	-0.948	-0.054	-0.414	-1.229	-1.619	-0.729	-0.300	0.099	-0.595	0.226	0.321	0.458	0.568	1.595	1.688	-0.222	-0.647	195.312
-1.048	-1.259	-0.928	-1.357	-0.384	-0.085	-0.618	0.406	1.775	0.761	0.791	-0.833	0.037	-0.372	-1.374	-1.725	-0.826	-0.391	0.026	-0.707	0.194	0.288	0.382	0.631	1.825	1.948	0.032	-0.493	199.219
-1.169	-1.376	-1.099	-1.442	-0.395	-0.098	-0.587	0.443	1.899	0.859	0.863	-0.770	0.123	-0.313	-1.471	-1.811	-0.896	-0.445	-0.027	-0.791	0.176	0.254	0.325	0.670	2.001	2.134	0.262	-0.365	203.125
-1.240	-1.484	-1.241	-1.522	-0.394	-0.098	-0.548	0.472	1.990	0.943	0.899	-0.736	0.204	-0.252	-1.548	-1.910	-0.964	-0.473	-0.082	-0.875	0.148	0.201	0.283	0.691	2.133	2.267	0.473	-0.243	207.031
-1.286	-1.599	-1.359	-1.611	-0.395	-0.093	-0.490	0.518	2.073	1.030	0.921	-0.709	0.282	-0.203	-1.629	-2.051	-1.055	-0.490	-0.159	-0.985	0.094	0.125	0.253	0.706	2.235	2.368	0.670	-0.112	210.938
-1.328	-1.732	-1.459	-1.718	-0.405	-0.090	-0.415	0.591	2.162	1.127	0.944	-0.673	0.360	-0.172	-1.735	-2.249	-1.184	-0.503	-0.268	-1.136	0.007	0.031	0.235	0.730	2.324	2.459	0.859	0.037	214.844
-1.384	-1.881	-1.541	-1.843	-0.433	-0.096	-0.326	0.693	2.258	1.233	0.971	-0.623	0.439	-0.160	-1.873	-2.505	-1.355	-0.520	-0.409	-1.332	-0.113	-0.067	0.232	0.773	2.412	2.558	1.041	0.198	218.750
-1.456	-2.040	-1.606	-1.981	-0.479	-0.111	-0.234	0.816	2.354	1.340	0.998	-0.561	0.521	-0.165	-2.043	-2.805	-1.559	-0.540	-0.572	-1.564	-0.253	-0.151	0.246	0.844	2.506	2.669	1.214	0.361	222.656
-1.542	-2.192	-1.650	-2.118	-0.538	-0.133	-0.149	0.945	2.433	1.436	1.012	-0.500	0.605	-0.177	-2.232	-3.125	-1.779	-0.564	-0.739	-1.812	-0.396	-0.203	0.279	0.943	2.608	2.789	1.375	0.504	226.562
-1.633	-2.319	-1.670	-2.240	-0.599	-0.157	-0.079	1.064	2.482	1.508	1.003	-0.453	0.690	-0.186	-2.425	-3.434	-1.993	-0.589	-0.890	-2.049	-0.519	-0.207	0.330	1.065	2.713	2.905	1.518	0.607	230.469
-1.715	-2.406	-1.663	-2.330	-0.649	-0.171	-0.024	1.159	2.488	1.546	0.962	-0.435	0.777	-0.180	-2.609	-3.703	-2.179	-0.615	-1.005	-2.246	-0.598	-0.155	0.396	1.201	2.811	3.001	1.638	0.651	234.375
-1.782	-2.441	-1.626	-2.376	-0.670	-0.166	0.017	1.225	2.451	1.550	0.885	-0.455	0.866	-0.145	-2.773	-3.906	-2.320	-0.647	-1.070	-2.376	-0.614	-0.046	0.471	1.341	2.891	3.057	1.734	0.626	238.281
-1.830	-2.423	-1.562	-2.369	-0.647	-0.130	0.054	1.261	2.376	1.523	0.777	-0.518	0.964	-0.071	-2.915	-4.032	-2.409	-0.691	-1.079	-2.421	-0.555	0.114	0.549	1.476	2.941	3.057	1.805	0.529	242.188
-1.863	-2.355	-1.474	-2.308	-0.568	-0.057	0.098	1.275	2.279	1.480	0.649	-0.622	1.077	0.050	-3.042	-4.076	-2.446	-0.753	-1.030	-2.374	-0.417	0.313	0.626	1.600	2.952	2.993	1.853	0.366	246.094
-1.891	-2.248	-1.371	-2.194	-0.428	0.056	0.162	1.276	2.176	1.436	0.512	-0.761	1.211	0.223	-3.161	-4.046	-2.438	-0.837	-0.930	-2.235	-0.203	0.536	0.700	1.712	2.919	2.862	1.881	0.152	250.000
-1.923	-2.116	-1.266	-2.036	-0.227	0.205	0.253	1.276	2.087	1.406	0.379	-0.929	1.371	0.448	-3.285	-3.957	-2.396	-0.943	-0.789	-2.017	0.076	0.770	0.771	1.812	2.839	2.668	1.893	-0.095	253.906
-1.971	-1.969	-1.172	-1.843	0.024	0.381	0.373	1.282	2.024	1.402	0.259	-1.118	1.559	0.718	-3.419	-3.824	-2.331	-1.064	-0.617	-1.738	0.404	1.003	0.845	1.904	2.714	2.423	1.892	-0.355	257.812
-2.041	-1.819	-1.102	-1.626	0.313	0.569	0.520	1.297	1.993	1.427	0.157	-1.321	1.771	1.027	-3.568	-3.661	-2.248	-1.187	-0.421	-1.417	0.767	1.231	0.928	1.992	2.552	2.142	1.880	-0.613	261.719
-2.134	-1.670	-1.065	-1.397	0.621	0.752	0.685	1.317	1.989	1.480	0.072	-1.536	2.001	1.363	-3.729	-3.479	-2.151	-1.296	-0.207	-1.073	1.149	1.453	1.027	2.077	2.362	1.845	1.862	-0.857	265.625
-2.251	-1.526	-1.070	-1.168	0.928	0.915	0.855	1.333	2.002	1.549	-0.002	-1.758	2.241	1.716	-3.892	-3.284	-2.037	-1.375	0.025	-0.723	1.537	1.673	1.148	2.163	2.159	1.550	1.840	-1.078	269.531
-2.390	-1.389	-1.118	-0.950	1.216	1.044	1.019	1.335	2.015	1.622	-0.071	-1.981	2.479	2.075	-4.046	-3.078	-1.903	-1.412	0.273	-0.379	1.923	1.898	1.294	2.251	1.961	1.278	1.818	-1.273	273.438
-2.549	-1.263	-1.206	-0.753	1.472	1.131	1.164	1.311	2.013	1.682	-0.141	-2.198	2.708	2.431	-4.181	-2.863	-1.744	-1.401	0.536	-0.049	2.298	2.133	1.461	2.342	1.788	1.048	1.802	-1.440	277.344
-2.728	-1.149	-1.329	-0.585	1.688	1.173	1.281	1.255	1.982	1.719	-0.219	-2.398	2.920	2.773	-4.288	-2.641	-1.562	-1.344	0.812	0.261	2.657	2.380	1.644	2.438	1.657	0.874	1.795	-1.577	281.250
-2.924	-1.050	-1.478	-0.448	1.862	1.175	1.366	1.168	1.916	1.723	-0.304	-2.570	3.108	3.093	-4.364	-2.417	-1.361	-1.249	1.094	0.548	2.994	2.636	1.833	2.542	1.583	0.765	1.799	-1.684	285.156
-3.138	-0.970	-1.641	-0.344	1.996	1.147	1.418	1.054	1.816	1.693	-0.396	-2.705	3.272	3.381	-4.413	-2.201	-1.151	-1.128	1.373	0.810	3.301	2.892	2.017	2.652	1.570	0.723	1.814	-1.760	289.062
-3.365	-0.909	-1.807	-0.268	2.098	1.099	1.442	0.923	1.689	1.632	-0.490	-2.797	3.410	3.633	-4.443	-1.999	-0.942	-0.995	1.638	1.047	3.574	3.140	2.188	2.768	1.616	0.743	1.835	-1.805	292.969
-3.597	-0.869	-1.968	-0.213	2.176	1.042	1.442	0.786	1.546	1.546	-0.580	-2.844	3.523	3.842	-4.466	-1.818	-0.746	-0.864	1.882	1.258	3.806	3.369	2.341	2.888	1.709	0.814	1.856	-1.822	296.875
-3.826	-0.848	-2.119	-0.169	2.236	0.985	1.426	0.653	1.402	1.446	-0.663	-2.851	3.614	4.010	-4.491	-1.663	-0.569	-0.744	2.099	1.446	3.996	3.571	2.477	3.007	1.835	0.922	1.870	-1.817	300.781
-4.042	-0.842	-2.257	-0.128	2.286	0.934	1.399	0.534	1.267	1.341	-0.734	-2.831	3.686	4.138	-4.526	-1.530	-0.417	-0.643	2.287	1.611	4.145	3.743	2.601	3.122	1.974	1.050	1.871	-1.796	304.688
-4.237	-0.845	-2.379	-0.080	2.330	0.891	1.367	0.432	1.150	1.244	-0.793	-2.798	3.741	4.232	-4.574	-1.415	-0.287	-0.564	2.448	1.760	4.258	3.887	2.717	3.231	2.109	1.180	1.857	-1.770	308.594
-4.408	-0.848	-2.486	-0.021	2.370	0.857	1.332	0.349	1.055	1.161	-0.842	-2.767	3.783	4.299	-4.632	-1.309	-0.174	-0.506	2.589	1.895	4.342	4.006	2.831	3.331	2.227	1.297	1.831	-1.749	312.500
-4.554	-0.842	-2.576	0.052	2.408	0.830	1.296	0.285	0.983	1.100	-0.883	-2.752	3.815	4.345	-4.697	-1.205	-0.071	-0.464	2.714	2.020	4.407	4.107	2.946	3.418	2.320	1.386	1.796	-1.742	316.406
-4.679	-0.817	-2.647	0.140	2.444	0.811	1.260	0.237	0.929	1.065	-0.922	-2.762	3.839	4.376	-4.763	-1.095	0.028	-0.433	2.829	2.139	4.462	4.197	3.061	3.493	2.385	1.439	1.760	-1.755	320.312
-4.789	-0.769	-2.698	0.237	2.479	0.799	1.223	0.205	0.889	1.057	-0.959	-2.801	3.859	4.396	-4.824	-0.976	0.128	-0.405	2.937	2.255	4.516	4.280	3.170	3.553	2.421	1.453	1.731	-1.789	324.219
-4.892	-0.696	-2.730	0.339	2.515	0.793	1.187	0.187	0.859	1.076	-0.997	-2.864	3.876	4.408	-4.878	-0.848	0.230	-0.375	3.036	2.368	4.572	4.361	3.266	3.599	2.432	1.432	1.713	-1.841	328.125
-4.994	-0.601	-2.744	0.437	2.552	0.793	1.155	0.184	0.836	1.118	-1.032	-2.939	3.897	4.416	-4.926	-0.714	0.333	-0.343	3.125	2.479	4.636	4.441	3.342	3.633	2.424	1.385	1.710	-1.903	332.031
-5.102	-0.494	-2.748	0.523	2.589	0.798	1.132	0.194	0.822	1.182	-1.058	-3.009	3.924	4.423	-4.972	-0.580	0.430	-0.312	3.200	2.589	4.706	4.518	3.389	3.660	2.402	1.327	1.724	-1.962	335.938
-5.220	-0.388	-2.750	0.592	2.627	0.807	1.123	0.219	0.819	1.262	-1.066	-3.052	3.964	4.431	-5.022	-0.453	0.512	-0.290	3.256	2.694	4.782	4.588	3.403	3.685	2.372	1.274	1.756	-2.001	339.844
-5.351	-0.296	-2.761	0.638	2.665	0.816	1.130	0.257	0.829	1.355	-1.044	-3.047	4.022	4.446	-5.087	-0.339	0.573	-0.288	3.291	2.792	4.860	4.649	3.382	3.715	2.340	1.247	1.808	-2.001	343.750
-5.498	-0.230	-2.791	0.660	2.699	0.821	1.154	0.301	0.856	1.456	-0.984	-2.977	4.100	4.469	-5.170	-0.244	0.605	-0.314	3.302	2.881	4.936	4.698	3.331	3.757	2.313	1.260	1.879	-1.949	347.656
-5.657	-0.197	-2.847	0.659	2.729	0.817	1.194	0.345	0.897	1.560	-0.883	-2.833	4.199	4.505	-5.275	-0.173	0.607	-0.374	3.293	2.958	5.008	4.732	3.257	3.815	2.295	1.323	1.971	-1.835	351.562
-5.824	-0.200	-2.933	0.642	2.752	0.801	1.245	0.377	0.947	1.660	-0.744	-2.618	4.315	4.553	-5.398	-0.127	0.584	-0.468	3.266	3.022	5.073	4.754	3.172	3.891	2.293	1.437	2.081	-1.659	355.469
-5.988	-0.230	-3.047	0.615	2.768	0.771	1.298	0.387	0.995	1.746	-0.581	-2.350	4.440	4.614	-5.530	-0.102	0.544	-0.587	3.232	3.073	5.131	4.770	3.092	3.981	2.310	1.594	2.202	-1.434	359.375
-6.135	-0.276	-3.181	0.591	2.778	0.728	1.345	0.367	1.030	1.811	-0.414	-2.057	4.563	4.685	-5.658	-0.093	0.501	-0.716	3.200	3.117	5.186	4.784	3.031	4.078	2.346	1.776	2.325	-1.182	363.281
-6.248	-0.322	-3.322	0.580	2.786	0.677	1.379	0.311	1.039	1.845	-0.268	-1.779	4.673	4.765	-5.766	-0.089	0.472	-0.835	3.181	3.159	5.242	4.806	3.000	4.172	2.398	1.959	2.437	-0.935	367.188
-6.315	-0.351	-3.455	0.591	2.796	0.625	1.396	0.223	1.015	1.842	-0.170	-1.554	4.760	4.851	-5.840	-0.078	0.470	-0.925	3.186	3.209	5.307	4.843	3.004	4.252	2.460	2.118	2.525	-0.731	371.094
-6.327	-0.350	-3.562	0.630	2.812	0.581	1.393	0.110	0.959	1.800	-0.136	-1.419	4.815	4.939	-5.871	-0.047	0.507	-0.970	3.220	3.272	5.384	4.897	3.042	4.309	2.519	2.232	2.577	-0.602	375.000
-6.288	-0.312	-3.632	0.696	2.838	0.554	1.374	-0.012	0.878	1.723	-0.173	-1.393	4.835	5.024	-5.856	0.010	0.586	-0.964	3.284	3.351	5.474	4.970	3.107	4.333	2.566	2.288	2.588	-0.570	378.906
-6.209	-0.240	-3.656	0.785	2.876	0.548	1.347	-0.124	0.788	1.621	-0.273	-1.477	4.821	5.101	-5.801	0.095	0.698	-0.910	3.371	3.443	5.572	5.057	3.189	4.324	2.590	2.281	2.555	-0.642	382.812
-6.109	-0.144	-3.634	0.885	2.923	0.565	1.318	-0.210	0.708	1.511	-0.413	-1.650	4.778	5.165	-5.719	0.199	0.832	-0.822	3.470	3.538	5.667	5.149	3.272	4.282	2.586	2.218	2.487	-0.802	386.719
-6.010	-0.039	-3.573	0.985	2.976	0.602	1.297	-0.256	0.658	1.409	-0.563	-1.874	4.714	5.209	-5.625	0.310	0.967	-0.718	3.565	3.623	5.748	5.234	3.345	4.215	2.554	2.109	2.394	-1.019	390.625
-5.930	0.059	-3.485	1.072	3.028	0.649	1.290	-0.258	0.648	1.330	-0.692	-2.099	4.637	5.229	-5.536	0.411	1.085	-0.616	3.642	3.684	5.803	5.302	3.396	4.130	2.499	1.971	2.288	-1.251	394.531
-5.880	0.137	-3.386	1.138	3.072	0.697	1.297	-0.220	0.681	1.284	-0.775	-2.279	4.556	5.223	-5.468	0.491	1.170	-0.531	3.690	3.710	5.823	5.345	3.422	4.036	2.428	1.815	2.182	-1.455	398.438
-5.858	0.188	-3.288	1.178	3.103	0.736	1.315	-0.155	0.748	1.272	-0.800	-2.373	4.475	5.189	-5.426	0.539	1.215	-0.468	3.705	3.699	5.805	5.360	3.420	3.941	2.344	1.652	2.082	-1.594	402.344
-5.853	0.215	-3.199	1.195	3.119	0.760	1.338	-0.083	0.829	1.290	-0.772	-2.365	4.398	5.128	-5.410	0.556	1.222	-0.424	3.688	3.654	5.752	5.348	3.395	3.845	2.249	1.482	1.988	-1.648	406.250
-5.841	0.225	-3.119	1.195	3.119	0.766	1.354	-0.024	0.901	1.323	-0.710	-2.258	4.324	5.044	-5.411	0.547	1.198	-0.386	3.649	3.585	5.675	5.315	3.352	3.748	2.136	1.303	1.895	-1.619	410.156
-5.798	0.234	-3.042	1.190	3.110	0.759	1.354	0.007	0.937	1.355	-0.641	-2.081	4.248	4.942	-5.411	0.525	1.160	-0.336	3.599	3.509	5.587	5.270	3.297	3.642	1.994	1.104	1.790	-1.527	414.062
-5.699	0.258	-2.956	1.192	3.100	0.747	1.328	-0.004	0.915	1.364	-0.602	-1.879	4.169	4.830	-5.388	0.508	1.124	-0.256	3.554	3.446	5.504	5.225	3.237	3.521	1.810	0.875	1.660	-1.412	417.969
-5.527	0.313	-2.845	1.216	3.100	0.742	1.271	-0.060	0.820	1.331	-0.627	-1.709	4.083	4.720	-5.320	0.515	1.110	-0.133	3.533	3.417	5.444	5.193	3.182	3.381	1.573	0.603	1.488	-1.320	421.875
-5.277	0.412	-2.698	1.272	3.121	0.756	1.181	-0.160	0.644	1.241	-0.744	-1.626	3.991	4.624	-5.190	0.566	1.135	0.040	3.549	3.439	5.424	5.186	3.138	3.218	1.279	0.284	1.266	-1.301	425.781
-4.955	0.561	-2.510	1.370	3.171	0.795	1.064	-0.300	0.391	1.084	-0.966	-1.670	3.897	4.556	-4.989	0.675	1.212	0.256	3.616	3.527	5.453	5.214	3.110	3.039	0.935	-0.082	0.993	-1.387	429.688
-4.580	0.757	-2.286	1.508	3.254	0.862	0.928	-0.466	0.077	0.865	-1.289	-1.859	3.809	4.529	-4.725	0.849	1.344	0.500	3.737	3.682	5.538	5.281	3.099	2.854	0.559	-0.484	0.680	-1.594	433.594
-4.183	0.987	-2.040	1.679	3.368	0.955	0.785	-0.647	-0.273	0.600	-1.687	-2.178	3.735	4.551	-4.415	1.081	1.524	0.743	3.905	3.898	5.675	5.382	3.100	2.678	0.177	-0.901	0.354	-1.905	437.500
-3.802	1.231	-1.793	1.870	3.504	1.064	0.652	-0.824	-0.624	0.319	-2.116	-2.583	3.685	4.622	-4.093	1.354	1.732	0.949	4.100	4.154	5.850	5.504	3.104	2.528	-0.181	-1.302	0.052	-2.279	441.406
-3.474	1.463	-1.570	2.059	3.647	1.178	0.544	-0.983	-0.939	0.058	-2.520	-3.010	3.668	4.738	-3.796	1.640	1.942	1.085	4.297	4.425	6.044	5.627	3.096	2.417	-0.487	-1.654	-0.184	-2.654	445.312
-3.233	1.661	-1.395	2.227	3.783	1.284	0.475	-1.109	-1.187	-0.144	-2.840	-3.382	3.687	4.883	-3.559	1.912	2.124	1.125	4.465	4.679	6.235	5.730	3.061	2.354	-0.720	-1.925	-0.317	-2.962	449.219
-3.100	1.804	-1.284	2.359	3.898	1.372	0.455	-1.196	-1.347	-0.258	-3.030	-3.635	3.741	5.041	-3.411	2.141	2.252	1.054	4.576	4.892	6.402	5.794	2.988	2.341	-0.874	-2.092	-0.321	-3.146	453.125
-3.081	1.884	-1.239	2.446	3.982	1.435	0.487	-1.240	-1.410	-0.266	-3.062	-3.724	3.826	5.191	-3.366	2.309	2.307	0.881	4.614	5.043	6.530	5.808	2.870	2.370	-0.954	-2.148	-0.194	-3.167	457.031
-3.166	1.902	-1.256	2.485	4.030	1.469	0.566	-1.250	-1.386	-0.169	-2.933	-3.635	3.929	5.312	-3.423	2.409	2.287	0.630	4.578	5.128	6.610	5.774	2.713	2.427	-0.976	-2.100	0.046	-3.021	460.938
-3.331	1.870	-1.317	2.484	4.041	1.474	0.679	-1.236	-1.293	0.016	-2.669	-3.388	4.036	5.391	-3.564	2.444	2.202	0.340	4.479	5.148	6.641	5.702	2.530	2.496	-0.962	-1.968	0.359	-2.731	464.844
-3.543	1.804	-1.401	2.451	4.018	1.454	0.807	-1.211	-1.160	0.259	-2.312	-3.027	4.132	5.419	-3.762	2.426	2.072	0.057	4.342	5.114	6.628	5.611	2.343	2.561	-0.933	-1.786	0.692	-2.348	468.750
-3.768	1.723	-1.487	2.398	3.966	1.414	0.930	-1.188	-1.015	0.524	-1.917	-2.614	4.203	5.393	-3.980	2.372	1.926	-0.179	4.196	5.042	6.580	5.523	2.179	2.607	-0.905	-1.589	0.990	-1.935	472.656
-3.978	1.644	-1.556	2.333	3.890	1.360	1.030	-1.175	-0.877	0.778	-1.537	-2.212	4.239	5.320	-4.184	2.299	1.789	-0.337	4.067	4.946	6.504	5.455	2.058	2.627	-0.888	-1.408	1.206	-1.555	476.562
-4.152	1.579	-1.599	2.264	3.796	1.297	1.095	-1.170	-0.760	0.994	-1.215	-1.873	4.234	5.205	-4.347	2.219	1.679	-0.408	3.971	4.835	6.408	5.418	1.995	2.620	-0.880	-1.265	1.311	-1.259	480.469
-4.282	1.534	-1.610	2.191	3.689	1.232	1.121	-1.169	-0.662	1.159	-0.973	-1.629	4.188	5.059	-4.453	2.137	1.603	-0.401	3.911	4.713	6.294	5.408	1.992	2.589	-0.876	-1.168	1.300	-1.074	484.375
-4.368	1.507	-1.594	2.112	3.573	1.168	1.111	-1.157	-0.573	1.271	-0.816	-1.488	4.109	4.890	-4.500	2.054	1.555	-0.343	3.878	4.579	6.164	5.411	2.038	2.540	-0.862	-1.114	1.195	-1.002	488.281
-4.417	1.490	-1.558	2.022	3.450	1.111	1.078	-1.123	-0.478	1.338	-0.728	-1.437	4.005	4.704	-4.499	1.964	1.521	-0.265	3.854	4.427	6.015	5.407	2.110	2.480	-0.827	-1.086	1.031	-1.023	492.188
-4.440	1.471	-1.512	1.914	3.322	1.059	1.032	-1.058	-0.360	1.375	-0.681	-1.446	3.888	4.506	-4.470	1.862	1.485	-0.196	3.819	4.253	5.844	5.373	2.184	2.417	-0.763	-1.066	0.858	-1.101	496.094
-4.443	1.440	-1.467	1.786	3.190	1.014	0.987	-0.958	-0.213	1.396	-0.645	-1.479	3.766	4.300	-4.430	1.744	1.434	-0.156	3.758	4.056	5.650	5.294	2.234	2.354	-0.667	-1.038	0.719	-1.192	500.000
-4.432	1.388	-1.433	1.638	3.055	0.969	0.950	-0.832	-0.039	1.413	-0.594	-1.504	3.649	4.090	-4.396	1.614	1.362	-0.147	3.664	3.839	5.435	5.160	2.243	2.292	-0.544	-0.990	0.648	-1.260	503.906
-4.404	1.314	-1.413	1.474	2.917	0.921	0.922	-0.695	0.149	1.429	-0.515	-1.498	3.539	3.879	-4.372	1.479	1.273	-0.160	3.545	3.614	5.206	4.978	2.204	2.233	-0.407	-0.923	0.662	-1.277	507.812
-4.354	1.222	-1.407	1.306	2.779	0.864	0.900	-0.571	0.326	1.442	-0.406	-1.453	3.438	3.676	-4.353	1.353	1.183	-0.179	3.413	3.395	4.974	4.765	2.123	2.173	-0.273	-0.847	0.755	-1.235	511.719
-4.270	1.123	-1.411	1.145	2.644	0.797	0.876	-0.481	0.464	1.443	-0.284	-1.377	3.344	3.486	-4.325	1.252	1.112	-0.185	3.290	3.201	4.753	4.543	2.015	2.112	-0.161	-0.777	0.906	-1.142	515.625
-4.140	1.033	-1.415	1.006	2.515	0.718	0.842	-0.445	0.535	1.419	-0.172	-1.291	3.254	3.317	-4.265	1.191	1.079	-0.162	3.198	3.048	4.558	4.339	1.901	2.047	-0.088	-0.734	1.079	-1.022	519.531
-3.952	0.970	-1.408	0.903	2.398	0.632	0.789	-0.473	0.520	1.359	-0.100	-1.225	3.163	3.175	-4.152	1.184	1.102	-0.100	3.153	2.947	4.401	4.176	1.802	1.976	-0.069	-0.737	1.234	-0.909	523.438
-3.695	0.950	-1.377	0.844	2.295	0.547	0.711	-0.566	0.410	1.255	-0.095	-1.212	3.066	3.060	-3.969	1.235	1.190	0.003	3.165	2.906	4.288	4.068	1.735	1.895	-0.110	-0.802	1.330	-0.839	527.344
-3.366	0.984	-1.314	0.836	2.213	0.473	0.610	-0.712	0.210	1.107	-0.174	-1.279	2.960	2.974	-3.707	1.344	1.342	0.141	3.232	2.925	4.222	4.018	1.707	1.800	-0.215	-0.936	1.337	-0.845	531.250
-2.972	1.077	-1.211	0.875	2.154	0.420	0.488	-0.890	-0.059	0.921	-0.340	-1.443	2.844	2.912	-3.375	1.504	1.546	0.305	3.342	2.995	4.200	4.019	1.717	1.688	-0.376	-1.138	1.237	-0.947	535.156
-2.530	1.223	-1.071	0.958	2.120	0.396	0.356	-1.074	-0.363	0.710	-0.579	-1.706	2.721	2.869	-2.991	1.700	1.781	0.480	3.475	3.104	4.213	4.056	1.755	1.558	-0.579	-1.399	1.028	-1.149	539.062
-2.066	1.410	-0.900	1.071	2.112	0.406	0.226	-1.234	-0.662	0.493	-0.866	-2.054	2.594	2.838	-2.586	1.913	2.023	0.651	3.607	3.234	4.251	4.106	1.805	1.411	-0.808	-1.701	0.728	-1.441	542.969
-1.613	1.618	-0.710	1.204	2.126	0.449	0.113	-1.346	-0.917	0.290	-1.164	-2.456	2.469	2.813	-2.193	2.125	2.245	0.804	3.714	3.368	4.300	4.148	1.849	1.250	-1.042	-2.023	0.362	-1.799	546.875
-1.205	1.826	-0.516	1.340	2.160	0.521	0.028	-1.395	-1.095	0.119	-1.438	-2.871	2.354	2.787	-1.844	2.316	2.426	0.927	3.780	3.490	4.346	4.165	1.871	1.083	-1.262	-2.339	-0.033	-2.187	550.781
-0.870	2.013	-0.332	1.466	2.204	0.612	-0.024	-1.375	-1.177	-0.010	-1.659	-3.256	2.251	2.754	-1.564	2.471	2.551	1.011	3.794	3.585	4.376	4.144	1.862	0.917	-1.452	-2.626	-0.420	-2.568	554.688
-0.627	2.163	-0.169	1.571	2.251	0.713	-0.041	-1.292	-1.162	-0.092	-1.808	-3.569	2.163	2.709	-1.361	2.579	2.614	1.050	3.755	3.644	4.379	4.083	1.820	0.760	-1.598	-2.866	-0.767	-2.907	558.594
-0.479	2.265	-0.033	1.643	2.291	0.813	-0.032	-1.164	-1.065	-0.132	-1.880	-3.780	2.089	2.648	-1.236	2.635	2.618	1.046	3.670	3.659	4.344	3.986	1.753	0.618	-1.696	-3.046	-1.051	-3.174	562.500
-0.413	2.312	0.073	1.677	2.313	0.903	-0.008	-1.015	-0.915	-0.143	-1.882	-3.873	2.024	2.570	-1.174	2.637	2.572	1.001	3.552	3.627	4.267	3.863	1.673	0.497	-1.743	-3.157	-1.258	-3.350	566.406
-0.410	2.305	0.152	1.667	2.309	0.973	0.015	-0.872	-0.750	-0.143	-1.832	-3.848	1.966	2.478	-1.158	2.590	2.489	0.926	3.417	3.548	4.147	3.732	1.599	0.403	-1.740	-3.200	-1.384	-3.426	570.312
-0.442	2.249	0.207	1.614	2.271	1.018	0.022	-0.760	-0.606	-0.147	-1.750	-3.720	1.910	2.376	-1.166	2.503	2.384	0.833	3.281	3.429	3.990	3.607	1.547	0.339	-1.694	-3.176	-1.433	-3.401	574.219
-0.486	2.149	0.240	1.522	2.198	1.032	0.001	-0.699	-0.517	-0.170	-1.659	-3.513	1.854	2.269	-1.180	2.385	2.269	0.737	3.157	3.276	3.803	3.503	1.532	0.307	-1.610	-3.094	-1.416	-3.285	578.125
-0.525	2.016	0.255	1.398	2.088	1.014	-0.054	-0.698	-0.502	-0.219	-1.574	-3.258	1.799	2.165	-1.188	2.251	2.157	0.650	3.055	3.100	3.600	3.429	1.560	0.308	-1.497	-2.960	-1.344	-3.092	582.031
-0.550	1.861	0.252	1.253	1.948	0.965	-0.140	-0.756	-0.568	-0.292	-1.506	-2.986	1.744	2.069	-1.183	2.114	2.057	0.585	2.977	2.914	3.394	3.388	1.629	0.341	-1.362	-2.784	-1.232	-2.841	585.938
-0.561	1.698	0.233	1.098	1.787	0.888	-0.249	-0.864	-0.707	-0.383	-1.460	-2.725	1.692	1.984	-1.165	1.986	1.973	0.546	2.922	2.732	3.199	3.374	1.729	0.400	-1.211	-2.577	-1.094	-2.555	589.844
-0.560	1.541	0.200	0.947	1.618	0.792	-0.369	-1.002	-0.901	-0.479	-1.438	-2.500	1.645	1.911	-1.137	1.878	1.908	0.539	2.886	2.566	3.026	3.378	1.848	0.479	-1.051	-2.350	-0.945	-2.260	593.750
-0.553	1.404	0.158	0.810	1.455	0.686	-0.488	-1.151	-1.128	-0.569	-1.441	-2.328	1.604	1.849	-1.104	1.796	1.865	0.565	2.862	2.426	2.884	3.391	1.968	0.571	-0.886	-2.119	-0.797	-1.984	597.656
-0.541	1.296	0.115	0.697	1.310	0.581	-0.593	-1.292	-1.363	-0.645	-1.471	-2.221	1.569	1.795	-1.067	1.744	1.844	0.621	2.848	2.319	2.778	3.403	2.077	0.666	-0.724	-1.897	-0.665	-1.753	601.562
-0.520	1.225	0.076	0.612	1.194	0.487	-0.678	-1.410	-1.586	-0.703	-1.530	-2.185	1.541	1.749	-1.028	1.721	1.845	0.707	2.839	2.247	2.709	3.411	2.166	0.757	-0.570	-1.701	-0.563	-1.588	605.469
-0.485	1.190	0.047	0.558	1.112	0.411	-0.741	-1.498	-1.783	-0.748	-1.620	-2.217	1.519	1.710	-0.982	1.720	1.867	0.819	2.836	2.208	2.674	3.415	2.232	0.839	-0.431	-1.544	-0.502	-1.505	609.375
-0.425	1.189	0.032	0.534	1.066	0.359	-0.788	-1.554	-1.946	-0.787	-1.744	-2.312	1.500	1.677	-0.925	1.736	1.907	0.956	2.842	2.196	2.669	3.419	2.279	0.904	-0.317	-1.440	-0.495	-1.511	613.281
-0.331	1.214	0.036	0.538	1.052	0.332	-0.824	-1.585	-2.074	-0.828	-1.899	-2.455	1.481	1.650	-0.851	1.763	1.962	1.115	2.859	2.204	2.683	3.427	2.312	0.948	-0.237	-1.397	-0.545	-1.600	617.188
-0.197	1.260	0.063	0.564	1.061	0.329	-0.860	-1.599	-2.170	-0.882	-2.076	-2.632	1.457	1.627	-0.754	1.796	2.029	1.291	2.889	2.223	2.706	3.442	2.337	0.965	-0.198	-1.421	-0.655	-1.762	621.094
-0.022	1.321	0.117	0.609	1.085	0.345	-0.901	-1.607	-2.240	-0.954	-2.266	-2.828	1.422	1.607	-0.629	1.836	2.104	1.478	2.932	2.248	2.726	3.463	2.360	0.949	-0.209	-1.514	-0.820	-1.975	625.000
0.192	1.398	0.204	0.669	1.114	0.375	-0.954	-1.619	-2.293	-1.046	-2.456	-3.027	1.374	1.586	-0.474	1.884	2.188	1.670	2.989	2.276	2.736	3.483	2.384	0.895	-0.274	-1.672	-1.028	-2.220	628.906
0.438	1.491	0.326	0.741	1.140	0.414	-1.018	-1.642	-2.338	-1.156	-2.634	-3.219	1.309	1.562	-0.289	1.946	2.281	1.857	3.058	2.307	2.729	3.495	2.406	0.801	-0.396	-1.889	-1.267	-2.476	632.812
0.712	1.605	0.485	0.823	1.160	0.456	-1.092	-1.680	-2.386	-1.280	-2.792	-3.399	1.229	1.533	-0.079	2.032	2.386	2.029	3.137	2.347	2.707	3.492	2.423	0.667	-0.574	-2.156	-1.521	-2.727	636.719
1.009	1.742	0.676	0.911	1.171	0.497	-1.169	-1.730	-2.444	-1.410	-2.930	-3.564	1.137	1.501	0.153	2.146	2.506	2.178	3.223	2.402	2.677	3.468	2.431	0.495	-0.804	-2.460	-1.779	-2.964	640.625
1.324	1.902	0.891	1.004	1.178	0.534	-1.242	-1.792	-2.519	-1.539	-3.051	-3.715	1.039	1.470	0.399	2.293	2.642	2.296	3.315	2.477	2.649	3.423	2.425	0.295	-1.077	-2.786	-2.030	-3.183	644.531
1.652	2.079	1.115	1.100	1.185	0.567	-1.303	-1.860	-2.618	-1.662	-3.164	-3.857	0.943	1.445	0.651	2.472	2.794	2.380	3.412	2.577	2.636	3.362	2.405	0.080	-1.379	-3.118	-2.272	-3.385	648.438
1.988	2.264	1.335	1.196	1.197	0.593	-1.349	-1.930	-2.741	-1.774	-3.284	-3.996	0.856	1.432	0.901	2.675	2.957	2.431	3.512	2.700	2.649	3.297	2.375	-0.134	-1.696	-3.441	-2.504	-3.575	652.344
2.323	2.446	1.535	1.289	1.218	0.612	-1.379	-2.001	-2.888	-1.875	-3.421	-4.140	0.785	1.436	1.143	2.891	3.125	2.456	3.615	2.842	2.693	3.242	2.342	-0.333	-2.006	-3.741	-2.730	-3.761	656.250
2.648	2.612	1.709	1.378	1.251	0.625	-1.395	-2.073	-3.059	-1.971	-3.588	-4.298	0.732	1.461	1.374	3.108	3.292	2.465	3.721	2.995	2.772	3.209	2.316	-0.500	-2.293	-4.008	-2.954	-3.949	660.156
2.953	2.755	1.856	1.463	1.295	0.633	-1.403	-2.147	-3.250	-2.068	-3.791	-4.478	0.698	1.504	1.593	3.314	3.451	2.472	3.830	3.148	2.879	3.207	2.306	-0.628	-2.540	-4.237	-3.183	-4.147	664.062
3.226	2.874	1.983	1.542	1.347	0.639	-1.412	-2.227	-3.458	-2.174	-4.029	-4.686	0.676	1.562	1.800	3.498	3.595	2.490	3.940	3.291	3.005	3.241	2.319	-0.714	-2.735	-4.428	-3.417	-4.357	667.969
3.460	2.970	2.102	1.619	1.405	0.649	-1.427	-2.315	-3.676	-2.295	-4.293	-4.921	0.661	1.628	1.997	3.654	3.717	2.525	4.045	3.415	3.136	3.305	2.357	-0.760	-2.873	-4.584	-3.655	-4.580	671.875
3.648	3.052	2.225	1.695	1.464	0.670	-1.452	-2.408	-3.896	-2.434	-4.569	-5.177	0.646	1.694	2.180	3.777	3.813	2.580	4.137	3.512	3.258	3.387	2.413	-0.776	-2.953	-4.707	-3.886	-4.808	675.781
3.785	3.124	2.361	1.771	1.520	0.705	-1.489	-2.500	-4.109	-2.587	-4.836	-5.438	0.625	1.750	2.347	3.866	3.876	2.646	4.206	3.576	3.356	3.471	2.479	-0.770	-2.982	-4.802	-4.096	-5.029	679.688
3.869	3.192	2.514	1.844	1.567	0.758	-1.532	-2.584	-4.303	-2.746	-5.071	-5.682	0.595	1.789	2.488	3.921	3.902	2.713	4.244	3.606	3.417	3.543	2.543	-0.751	-2.965	-4.869	-4.265	-5.226	683.594
3.901	3.255	2.676	1.908	1.599	0.827	-1.575	-2.650	-4.468	-2.896	-5.253	-5.884	0.557	1.804	2.596	3.946	3.892	2.768	4.247	3.602	3.435	3.591	2.593	-0.726	-2.909	-4.907	-4.373	-5.379	687.500
3.884	3.308	2.833	1.957	1.610	0.903	-1.611	-2.690	-4.596	-3.025	-5.367	-6.018	0.515	1.793	2.661	3.944	3.848	2.797	4.219	3.567	3.407	3.610	2.625	-0.696	-2.822	-4.915	-4.403	-5.471	691.406
3.820	3.342	2.964	1.981	1.594	0.977	-1.634	-2.702	-4.680	-3.118	-5.407	-6.064	0.476	1.756	2.677	3.921	3.778	2.796	4.167	3.506	3.340	3.604	2.635	-0.657	-2.708	-4.887	-4.342	-5.491	695.312
3.716	3.349	3.047	1.973	1.551	1.035	-1.639	-2.685	-4.718	-3.168	-5.375	-6.012	0.446	1.699	2.641	3.882	3.690	2.764	4.103	3.429	3.241	3.580	2.626	-0.606	-2.570	-4.822	-4.190	-5.435	699.219
3.576	3.325	3.065	1.933	1.484	1.070	-1.624	-2.642	-4.713	-3.169	-5.283	-5.863	0.432	1.627	2.556	3.834	3.593	2.706	4.039	3.344	3.125	3.550	2.604	-0.537	-2.414	-4.718	-3.953	-5.306	703.125
3.410	3.267	3.012	1.862	1.399	1.073	-1.591	-2.582	-4.669	-3.124	-5.149	-5.633	0.435	1.551	2.428	3.780	3.495	2.632	3.985	3.262	3.005	3.523	2.573	-0.449	-2.243	-4.578	-3.651	-5.118	707.031
3.227	3.178	2.887	1.770	1.308	1.046	-1.545	-2.514	-4.596	-3.041	-4.994	-5.345	0.458	1.481	2.270	3.725	3.401	2.557	3.945	3.189	2.895	3.510	2.538	-0.343	-2.063	-4.407	-3.309	-4.890	710.938
3.037	3.066	2.702	1.666	1.225	0.989	-1.492	-2.449	-4.508	-2.933	-4.843	-5.031	0.499	1.426	2.099	3.672	3.317	2.495	3.923	3.130	2.807	3.513	2.504	-0.222	-1.884	-4.214	-2.958	-4.643	714.844
2.854	2.941	2.478	1.565	1.160	0.912	-1.440	-2.398	-4.418	-2.816	-4.716	-4.727	0.553	1.393	1.935	3.623	3.247	2.460	3.916	3.089	2.746	3.535	2.474	-0.095	-1.716	-4.011	-2.632	-4.399	718.750
2.695	2.812	2.238	1.476	1.121	0.823	-1.395	-2.372	-4.344	-2.705	-4.628	-4.464	0.614	1.387	1.799	3.581	3.198	2.461	3.926	3.065	2.715	3.574	2.451	0.027	-1.574	-3.813	-2.360	-4.180	722.656
2.572	2.693	2.009	1.408	1.111	0.732	-1.362	-2.375	-4.300	-2.616	-4.589	-4.267	0.677	1.407	1.709	3.549	3.176	2.504	3.951	3.058	2.713	3.628	2.439	0.135	-1.470	-3.638	-2.168	-4.003	726.562
2.497	2.592	1.813	1.369	1.130	0.649	-1.344	-2.411	-4.297	-2.559	-4.600	-4.152	0.735	1.450	1.680	3.535	3.189	2.588	3.991	3.065	2.736	3.693	2.441	0.215	-1.421	-3.505	-2.074	-3.883	730.469
2.478	2.519	1.669	1.360	1.170	0.582	-1.340	-2.474	-4.337	-2.541	-4.655	-4.122	0.782	1.510	1.720	3.544	3.240	2.705	4.048	3.090	2.779	3.766	2.457	0.260	-1.438	-3.433	-2.085	-3.830	734.375
2.516	2.481	1.586	1.383	1.225	0.539	-1.346	-2.554	-4.414	-2.563	-4.740	-4.170	0.816	1.580	1.826	3.583	3.329	2.842	4.121	3.133	2.840	3.840	2.486	0.261	-1.528	-3.435	-2.199	-3.847	738.281
2.606	2.484	1.567	1.437	1.285	0.525	-1.359	-2.637	-4.515	-2.620	-4.841	-4.277	0.837	1.652	1.989	3.656	3.451	2.982	4.205	3.198	2.914	3.911	2.521	0.217	-1.690	-3.519	-2.402	-3.934	742.188
2.739	2.530	1.607	1.520	1.346	0.541	-1.374	-2.709	-4.620	-2.705	-4.940	-4.420	0.845	1.719	2.191	3.763	3.596	3.109	4.295	3.289	2.999	3.968	2.550	0.126	-1.917	-3.684	-2.670	-4.084	746.094
2.904	2.617	1.698	1.627	1.400	0.587	-1.388	-2.759	-4.712	-2.809	-5.023	-4.574	0.843	1.776	2.411	3.900	3.751	3.206	4.383	3.403	3.092	4.004	2.563	-0.005	-2.195	-3.920	-2.974	-4.285	750.000
3.089	2.742	1.827	1.751	1.446	0.655	-1.400	-2.782	-4.775	-2.923	-5.082	-4.717	0.833	1.819	2.625	4.061	3.903	3.264	4.459	3.539	3.188	4.013	2.547	-0.167	-2.506	-4.207	-3.284	-4.522	753.906
3.281	2.898	1.979	1.884	1.483	0.737	-1.413	-2.779	-4.802	-3.038	-5.113	-4.834	0.818	1.847	2.814	4.232	4.040	3.281	4.517	3.688	3.283	3.990	2.497	-0.350	-2.828	-4.522	-3.572	-4.773	757.812
3.468	3.072	2.141	2.014	1.509	0.820	-1.428	-2.758	-4.796	-3.147	-5.117	-4.916	0.799	1.859	2.964	4.402	4.153	3.259	4.553	3.837	3.372	3.938	2.414	-0.538	-3.138	-4.833	-3.814	-5.018	761.719
3.636	3.247	2.296	2.130	1.524	0.890	-1.449	-2.729	-4.764	-3.246	-5.099	-4.962	0.778	1.859	3.069	4.555	4.237	3.208	4.565	3.974	3.448	3.863	2.305	-0.717	-3.412	-5.111	-3.993	-5.232	765.625
3.773	3.401	2.426	2.218	1.526	0.934	-1.476	-2.702	-4.718	-3.330	-5.064	-4.973	0.757	1.851	3.127	4.676	4.286	3.140	4.555	4.083	3.505	3.777	2.183	-0.871	-3.632	-5.326	-4.101	-5.393	769.531
3.868	3.513	2.515	2.265	1.514	0.941	-1.507	-2.683	-4.667	-3.396	-5.018	-4.953	0.736	1.841	3.144	4.750	4.297	3.066	4.524	4.150	3.540	3.692	2.064	-0.989	-3.780	-5.454	-4.135	-5.480	773.438
3.913	3.563	2.547	2.262	1.486	0.905	-1.537	-2.675	-4.620	-3.440	-4.964	-4.907	0.715	1.836	3.128	4.768	4.267	2.993	4.477	4.168	3.551	3.622	1.962	-1.062	-3.846	-5.482	-4.099	-5.481	777.344
3.906	3.537	2.514	2.205	1.442	0.826	-1.561	-2.676	-4.579	-3.463	-4.902	-4.840	0.694	1.839	3.088	4.722	4.194	2.925	4.414	4.130	3.538	3.577	1.888	-1.089	-3.830	-5.405	-4.002	-5.390	781.250
3.852	3.432	2.417	2.095	1.382	0.706	-1.574	-2.683	-4.544	-3.466	-4.832	-4.756	0.672	1.854	3.033	4.613	4.080	2.862	4.339	4.040	3.505	3.561	1.845	-1.074	-3.737	-5.231	-3.857	-5.215	785.156
3.760	3.257	2.263	1.941	1.311	0.555	-1.576	-2.690	-4.513	-3.453	-4.753	-4.660	0.650	1.882	2.972	4.452	3.931	2.801	4.253	3.907	3.457	3.572	1.831	-1.024	-3.586	-4.977	-3.681	-4.968	789.062
3.642	3.030	2.070	1.757	1.230	0.384	-1.566	-2.697	-4.484	-3.428	-4.667	-4.558	0.625	1.921	2.911	4.252	3.757	2.741	4.160	3.745	3.398	3.605	1.840	-0.953	-3.396	-4.672	-3.490	-4.674	792.969
3.515	2.777	1.858	1.560	1.146	0.204	-1.549	-2.702	-4.456	-3.401	-4.578	-4.455	0.600	1.966	2.856	4.037	3.572	2.682	4.065	3.570	3.337	3.648	1.860	-0.874	-3.194	-4.346	-3.297	-4.360	796.875
