FP1	F3	F7	FC3	C3	C5	P3	P7	PO7	PO3	O1	Oz	Pz	CPz	FP2	Fz	F4	F8	FC4	FCz	Cz	C4	C6	P4	P8	PO8	PO4	O2	time
-0.149	-0.183	-1.375	0.602	0.680	-0.149	0.286	-0.726	-0.928	-0.282	-0.209	0.117	0.650	0.859	-0.273	0.461	0.270	0.138	0.563	0.598	0.819	0.959	0.833	0.662	0.278	0.183	0.384	0.029	-199.219
-0.067	-0.099	-1.001	0.528	0.602	-0.066	0.012	-0.866	-1.159	-0.534	-0.476	-0.100	0.515	0.758	-0.110	0.545	0.361	0.208	0.642	0.681	0.816	1.014	0.850	0.629	0.351	0.063	0.263	-0.048	-195.312
0.009	-0.021	-0.653	0.459	0.520	0.007	-0.246	-0.989	-1.367	-0.768	-0.721	-0.299	0.386	0.652	0.048	0.614	0.442	0.270	0.708	0.743	0.799	1.054	0.862	0.595	0.416	-0.048	0.136	-0.106	-191.406
0.082	0.046	-0.349	0.397	0.432	0.061	-0.474	-1.082	-1.531	-0.968	-0.926	-0.464	0.268	0.537	0.196	0.655	0.504	0.319	0.751	0.769	0.762	1.071	0.863	0.556	0.463	-0.145	-0.001	-0.137	-187.500
0.157	0.103	-0.100	0.348	0.339	0.092	-0.661	-1.139	-1.640	-1.121	-1.080	-0.591	0.165	0.413	0.332	0.667	0.547	0.352	0.768	0.756	0.702	1.060	0.852	0.510	0.483	-0.224	-0.149	-0.137	-183.594
0.237	0.157	0.097	0.316	0.247	0.099	-0.802	-1.157	-1.689	-1.220	-1.181	-0.681	0.076	0.284	0.455	0.656	0.570	0.366	0.761	0.708	0.624	1.023	0.822	0.455	0.465	-0.289	-0.305	-0.116	-179.688
0.326	0.215	0.250	0.306	0.164	0.089	-0.895	-1.141	-1.683	-1.265	-1.233	-0.741	0.001	0.155	0.564	0.633	0.580	0.360	0.735	0.641	0.538	0.964	0.773	0.389	0.404	-0.343	-0.464	-0.089	-175.781
0.423	0.285	0.375	0.322	0.101	0.070	-0.939	-1.093	-1.628	-1.254	-1.242	-0.782	-0.061	0.034	0.658	0.613	0.579	0.334	0.698	0.570	0.456	0.890	0.701	0.312	0.300	-0.392	-0.614	-0.073	-171.875
0.520	0.368	0.482	0.364	0.067	0.053	-0.936	-1.019	-1.528	-1.193	-1.216	-0.814	-0.111	-0.069	0.731	0.603	0.570	0.288	0.654	0.511	0.389	0.807	0.610	0.227	0.156	-0.440	-0.745	-0.081	-167.969
0.605	0.464	0.580	0.426	0.068	0.047	-0.886	-0.919	-1.388	-1.084	-1.159	-0.842	-0.146	-0.148	0.775	0.606	0.550	0.221	0.606	0.473	0.344	0.718	0.502	0.137	-0.015	-0.487	-0.844	-0.121	-164.062
0.665	0.561	0.665	0.502	0.105	0.059	-0.792	-0.795	-1.205	-0.932	-1.072	-0.866	-0.164	-0.199	0.781	0.618	0.513	0.132	0.552	0.457	0.323	0.625	0.383	0.048	-0.199	-0.534	-0.902	-0.191	-160.156
0.685	0.649	0.733	0.579	0.174	0.095	-0.654	-0.643	-0.977	-0.740	-0.953	-0.880	-0.160	-0.219	0.741	0.630	0.456	0.021	0.490	0.458	0.324	0.524	0.258	-0.035	-0.377	-0.578	-0.913	-0.281	-156.250
0.654	0.711	0.771	0.645	0.267	0.152	-0.475	-0.460	-0.703	-0.515	-0.798	-0.871	-0.128	-0.210	0.648	0.627	0.373	-0.113	0.415	0.465	0.340	0.410	0.132	-0.108	-0.533	-0.614	-0.878	-0.376	-152.344
0.565	0.736	0.771	0.687	0.372	0.229	-0.260	-0.245	-0.386	-0.261	-0.603	-0.827	-0.067	-0.176	0.502	0.599	0.265	-0.267	0.322	0.467	0.360	0.280	0.009	-0.167	-0.650	-0.637	-0.798	-0.459	-148.438
0.421	0.714	0.725	0.695	0.474	0.318	-0.017	-0.002	-0.035	0.014	-0.369	-0.738	0.021	-0.126	0.310	0.537	0.133	-0.434	0.212	0.452	0.374	0.129	-0.109	-0.211	-0.720	-0.642	-0.680	-0.513	-144.531
0.229	0.644	0.635	0.664	0.559	0.410	0.238	0.263	0.333	0.299	-0.103	-0.598	0.130	-0.068	0.085	0.438	-0.016	-0.603	0.086	0.408	0.371	-0.040	-0.218	-0.239	-0.738	-0.626	-0.533	-0.526	-140.625
0.005	0.530	0.507	0.592	0.615	0.496	0.487	0.531	0.692	0.579	0.182	-0.410	0.247	-0.015	-0.153	0.304	-0.170	-0.757	-0.051	0.333	0.343	-0.222	-0.314	-0.251	-0.707	-0.584	-0.368	-0.493	-136.719
-0.232	0.384	0.355	0.483	0.632	0.561	0.709	0.781	1.014	0.834	0.465	-0.187	0.358	0.025	-0.377	0.143	-0.318	-0.878	-0.188	0.224	0.285	-0.403	-0.390	-0.247	-0.633	-0.517	-0.192	-0.413	-132.812
-0.459	0.218	0.193	0.345	0.604	0.596	0.880	0.985	1.268	1.045	0.721	0.054	0.445	0.044	-0.561	-0.032	-0.445	-0.945	-0.313	0.088	0.198	-0.567	-0.436	-0.228	-0.528	-0.424	-0.013	-0.295	-128.906
-0.656	0.051	0.038	0.189	0.528	0.588	0.979	1.116	1.429	1.191	0.925	0.289	0.497	0.035	-0.681	-0.205	-0.540	-0.939	-0.413	-0.065	0.089	-0.698	-0.445	-0.193	-0.403	-0.312	0.164	-0.151	-125.000
-0.804	-0.105	-0.096	0.028	0.408	0.531	0.993	1.154	1.479	1.257	1.054	0.494	0.503	0.000	-0.717	-0.359	-0.593	-0.849	-0.476	-0.222	-0.032	-0.777	-0.409	-0.144	-0.269	-0.186	0.335	0.002	-121.094
-0.890	-0.237	-0.198	-0.127	0.252	0.422	0.915	1.088	1.411	1.232	1.093	0.649	0.463	-0.057	-0.664	-0.476	-0.595	-0.673	-0.491	-0.368	-0.152	-0.793	-0.326	-0.083	-0.135	-0.058	0.499	0.146	-117.188
-0.910	-0.337	-0.262	-0.263	0.073	0.265	0.751	0.921	1.231	1.118	1.037	0.740	0.381	-0.129	-0.528	-0.546	-0.545	-0.420	-0.452	-0.488	-0.258	-0.740	-0.198	-0.010	-0.009	0.060	0.652	0.265	-113.281
-0.866	-0.402	-0.289	-0.372	-0.116	0.073	0.516	0.668	0.956	0.924	0.891	0.758	0.268	-0.204	-0.322	-0.560	-0.446	-0.110	-0.360	-0.568	-0.335	-0.619	-0.034	0.069	0.107	0.156	0.792	0.346	-109.375
-0.770	-0.430	-0.283	-0.447	-0.298	-0.138	0.234	0.357	0.611	0.667	0.671	0.702	0.138	-0.271	-0.072	-0.517	-0.303	0.229	-0.218	-0.601	-0.375	-0.441	0.152	0.149	0.207	0.220	0.912	0.382	-105.469
-0.635	-0.423	-0.250	-0.486	-0.456	-0.346	-0.065	0.019	0.227	0.370	0.399	0.580	0.004	-0.317	0.196	-0.421	-0.128	0.564	-0.039	-0.581	-0.373	-0.223	0.344	0.224	0.290	0.247	1.004	0.368	-101.562
-0.479	-0.383	-0.198	-0.486	-0.578	-0.526	-0.352	-0.312	-0.164	0.056	0.100	0.402	-0.122	-0.335	0.456	-0.284	0.068	0.864	0.161	-0.509	-0.329	0.012	0.524	0.286	0.351	0.234	1.058	0.309	-97.656
-0.318	-0.314	-0.133	-0.452	-0.654	-0.661	-0.601	-0.608	-0.531	-0.251	-0.200	0.184	-0.231	-0.322	0.686	-0.119	0.270	1.102	0.363	-0.392	-0.250	0.239	0.676	0.327	0.385	0.187	1.066	0.210	-93.750
-0.164	-0.222	-0.061	-0.388	-0.680	-0.735	-0.792	-0.847	-0.849	-0.533	-0.480	-0.052	-0.320	-0.281	0.871	0.053	0.463	1.265	0.547	-0.243	-0.147	0.437	0.788	0.340	0.389	0.114	1.021	0.084	-89.844
-0.025	-0.116	0.016	-0.305	-0.658	-0.746	-0.914	-1.014	-1.097	-0.774	-0.723	-0.286	-0.387	-0.217	1.000	0.212	0.630	1.346	0.694	-0.080	-0.035	0.586	0.852	0.323	0.361	0.027	0.922	-0.054	-85.938
0.095	-0.006	0.092	-0.215	-0.594	-0.696	-0.965	-1.103	-1.262	-0.963	-0.916	-0.493	-0.436	-0.143	1.068	0.339	0.756	1.352	0.787	0.075	0.067	0.676	0.864	0.276	0.303	-0.063	0.773	-0.191	-82.031
0.193	0.095	0.163	-0.131	-0.500	-0.598	-0.950	-1.112	-1.335	-1.094	-1.048	-0.654	-0.468	-0.070	1.071	0.417	0.826	1.294	0.818	0.201	0.145	0.700	0.825	0.202	0.223	-0.142	0.584	-0.310	-78.125
0.270	0.177	0.226	-0.062	-0.387	-0.468	-0.878	-1.046	-1.314	-1.163	-1.116	-0.757	-0.484	-0.009	1.013	0.439	0.833	1.188	0.782	0.285	0.187	0.661	0.738	0.108	0.130	-0.203	0.368	-0.401	-74.219
0.329	0.235	0.276	-0.013	-0.267	-0.323	-0.762	-0.912	-1.203	-1.169	-1.117	-0.794	-0.486	0.034	0.899	0.403	0.775	1.049	0.684	0.316	0.187	0.564	0.610	0.001	0.037	-0.240	0.140	-0.457	-70.312
0.372	0.267	0.314	0.017	-0.150	-0.179	-0.615	-0.721	-1.015	-1.112	-1.054	-0.770	-0.476	0.057	0.737	0.322	0.657	0.888	0.533	0.296	0.148	0.421	0.449	-0.109	-0.047	-0.253	-0.085	-0.479	-66.406
0.403	0.279	0.339	0.030	-0.043	-0.046	-0.449	-0.487	-0.765	-0.998	-0.933	-0.694	-0.452	0.062	0.540	0.210	0.495	0.712	0.347	0.234	0.077	0.245	0.262	-0.217	-0.117	-0.244	-0.295	-0.471	-62.500
0.423	0.275	0.352	0.035	0.049	0.066	-0.272	-0.227	-0.473	-0.833	-0.761	-0.579	-0.417	0.056	0.325	0.086	0.306	0.521	0.142	0.146	-0.014	0.048	0.060	-0.315	-0.170	-0.215	-0.480	-0.440	-58.594
0.433	0.262	0.353	0.036	0.123	0.155	-0.089	0.043	-0.160	-0.623	-0.547	-0.439	-0.371	0.048	0.107	-0.033	0.111	0.315	-0.064	0.048	-0.112	-0.157	-0.149	-0.400	-0.209	-0.172	-0.631	-0.393	-54.688
0.430	0.241	0.338	0.037	0.174	0.220	0.097	0.309	0.161	-0.376	-0.300	-0.284	-0.315	0.044	-0.101	-0.138	-0.074	0.094	-0.260	-0.047	-0.206	-0.356	-0.356	-0.468	-0.235	-0.115	-0.738	-0.335	-50.781
0.407	0.208	0.303	0.035	0.201	0.261	0.285	0.558	0.475	-0.100	-0.027	-0.119	-0.247	0.048	-0.292	-0.228	-0.239	-0.139	-0.439	-0.133	-0.292	-0.542	-0.554	-0.516	-0.251	-0.044	-0.794	-0.265	-46.875
0.356	0.155	0.242	0.023	0.199	0.279	0.473	0.783	0.777	0.198	0.266	0.057	-0.170	0.060	-0.461	-0.311	-0.381	-0.375	-0.601	-0.211	-0.366	-0.708	-0.735	-0.540	-0.253	0.045	-0.792	-0.179	-42.969
0.270	0.074	0.149	-0.011	0.166	0.274	0.654	0.978	1.061	0.505	0.572	0.249	-0.087	0.074	-0.614	-0.396	-0.502	-0.598	-0.746	-0.288	-0.431	-0.847	-0.894	-0.537	-0.237	0.155	-0.727	-0.071	-39.062
0.148	-0.041	0.024	-0.076	0.099	0.246	0.819	1.137	1.321	0.807	0.882	0.460	-0.002	0.082	-0.756	-0.493	-0.611	-0.791	-0.879	-0.371	-0.494	-0.955	-1.025	-0.506	-0.197	0.291	-0.603	0.064	-35.156
-0.002	-0.190	-0.133	-0.178	0.000	0.196	0.952	1.255	1.550	1.084	1.181	0.691	0.076	0.077	-0.892	-0.609	-0.712	-0.939	-1.000	-0.469	-0.560	-1.029	-1.125	-0.448	-0.128	0.451	-0.427	0.228	-31.250
-0.165	-0.365	-0.312	-0.316	-0.128	0.124	1.039	1.330	1.739	1.318	1.455	0.935	0.139	0.051	-1.023	-0.743	-0.811	-1.030	-1.105	-0.584	-0.631	-1.066	-1.189	-0.367	-0.031	0.631	-0.212	0.420	-27.344
-0.322	-0.553	-0.500	-0.481	-0.277	0.033	1.064	1.355	1.877	1.488	1.685	1.183	0.178	0.003	-1.146	-0.884	-0.907	-1.061	-1.192	-0.710	-0.709	-1.065	-1.219	-0.270	0.086	0.821	0.022	0.632	-23.438
-0.450	-0.736	-0.680	-0.659	-0.436	-0.072	1.020	1.331	1.954	1.582	1.858	1.419	0.186	-0.065	-1.253	-1.021	-0.996	-1.036	-1.254	-0.839	-0.791	-1.029	-1.216	-0.168	0.214	1.007	0.256	0.852	-19.531
-0.529	-0.893	-0.834	-0.833	-0.592	-0.184	0.908	1.256	1.963	1.593	1.963	1.624	0.160	-0.147	-1.334	-1.137	-1.071	-0.967	-1.285	-0.957	-0.872	-0.960	-1.184	-0.073	0.336	1.176	0.469	1.065	-15.625
-0.549	-1.009	-0.945	-0.982	-0.733	-0.293	0.736	1.136	1.900	1.522	1.992	1.779	0.101	-0.236	-1.379	-1.217	-1.123	-0.866	-1.283	-1.048	-0.944	-0.866	-1.125	0.003	0.440	1.311	0.646	1.255	-11.719
-0.503	-1.070	-1.000	-1.091	-0.848	-0.390	0.520	0.977	1.768	1.378	1.944	1.867	0.013	-0.322	-1.378	-1.252	-1.141	-0.743	-1.245	-1.102	-1.002	-0.754	-1.044	0.050	0.512	1.403	0.773	1.406	-7.812
-0.396	-1.070	-0.993	-1.149	-0.930	-0.465	0.281	0.788	1.574	1.178	1.824	1.878	-0.096	-0.399	-1.328	-1.237	-1.119	-0.603	-1.174	-1.111	-1.039	-0.634	-0.944	0.062	0.548	1.443	0.844	1.504	-3.906
-0.240	-1.010	-0.924	-1.153	-0.974	-0.511	0.040	0.581	1.331	0.942	1.639	1.806	-0.215	-0.462	-1.227	-1.173	-1.052	-0.447	-1.073	-1.075	-1.054	-0.514	-0.830	0.037	0.542	1.428	0.856	1.538	0.000
-0.053	-0.899	-0.804	-1.106	-0.980	-0.526	-0.182	0.372	1.059	0.694	1.403	1.656	-0.335	-0.506	-1.080	-1.067	-0.945	-0.272	-0.949	-0.998	-1.043	-0.403	-0.707	-0.025	0.497	1.361	0.809	1.503	3.906
0.148	-0.750	-0.648	-1.017	-0.950	-0.506	-0.367	0.176	0.781	0.458	1.132	1.438	-0.444	-0.529	-0.898	-0.931	-0.804	-0.077	-0.811	-0.892	-1.007	-0.309	-0.585	-0.118	0.415	1.247	0.709	1.399	7.812
0.342	-0.580	-0.477	-0.901	-0.886	-0.457	-0.503	0.010	0.522	0.254	0.846	1.173	-0.534	-0.533	-0.695	-0.779	-0.644	0.132	-0.672	-0.768	-0.951	-0.237	-0.474	-0.233	0.303	1.095	0.566	1.237	11.719
0.510	-0.409	-0.310	-0.770	-0.793	-0.381	-0.583	-0.109	0.306	0.102	0.568	0.884	-0.595	-0.519	-0.492	-0.625	-0.482	0.344	-0.544	-0.641	-0.878	-0.192	-0.384	-0.360	0.167	0.916	0.390	1.029	15.625
0.640	-0.253	-0.166	-0.640	-0.677	-0.287	-0.604	-0.168	0.156	0.013	0.323	0.598	-0.622	-0.489	-0.310	-0.486	-0.335	0.538	-0.439	-0.526	-0.797	-0.173	-0.326	-0.488	0.018	0.725	0.197	0.798	19.531
0.720	-0.125	-0.060	-0.521	-0.547	-0.181	-0.569	-0.161	0.084	-0.007	0.132	0.341	-0.613	-0.447	-0.169	-0.373	-0.217	0.690	-0.367	-0.434	-0.714	-0.179	-0.307	-0.608	-0.136	0.537	0.005	0.565	23.438
0.747	-0.039	-0.001	-0.423	-0.412	-0.074	-0.484	-0.088	0.098	0.041	0.014	0.136	-0.565	-0.397	-0.083	-0.299	-0.141	0.779	-0.334	-0.372	-0.639	-0.208	-0.330	-0.708	-0.283	0.365	-0.168	0.356	27.344
0.718	0.001	0.009	-0.354	-0.282	0.025	-0.356	0.046	0.191	0.150	-0.021	-0.003	-0.482	-0.341	-0.063	-0.269	-0.112	0.789	-0.343	-0.347	-0.580	-0.254	-0.395	-0.780	-0.412	0.225	-0.299	0.190	31.250
0.634	-0.008	-0.026	-0.317	-0.172	0.106	-0.197	0.226	0.353	0.306	0.027	-0.068	-0.369	-0.284	-0.108	-0.286	-0.132	0.717	-0.392	-0.359	-0.543	-0.312	-0.493	-0.816	-0.511	0.132	-0.370	0.084	35.156
0.500	-0.065	-0.099	-0.317	-0.091	0.159	-0.019	0.432	0.561	0.495	0.150	-0.059	-0.233	-0.227	-0.213	-0.350	-0.198	0.571	-0.473	-0.405	-0.533	-0.377	-0.613	-0.809	-0.565	0.098	-0.366	0.045	39.062
0.319	-0.163	-0.201	-0.353	-0.051	0.179	0.164	0.643	0.794	0.698	0.329	0.013	-0.082	-0.174	-0.367	-0.457	-0.305	0.369	-0.579	-0.480	-0.551	-0.444	-0.738	-0.753	-0.560	0.135	-0.275	0.075	42.969
0.101	-0.297	-0.321	-0.425	-0.056	0.161	0.339	0.838	1.027	0.899	0.540	0.133	0.072	-0.128	-0.560	-0.604	-0.443	0.138	-0.699	-0.580	-0.597	-0.506	-0.850	-0.647	-0.483	0.251	-0.095	0.164	46.875
-0.146	-0.457	-0.451	-0.529	-0.109	0.106	0.492	1.001	1.242	1.084	0.756	0.279	0.220	-0.093	-0.779	-0.785	-0.602	-0.095	-0.822	-0.698	-0.668	-0.560	-0.932	-0.491	-0.325	0.451	0.167	0.301	50.781
-0.409	-0.635	-0.587	-0.659	-0.204	0.020	0.613	1.120	1.427	1.241	0.952	0.428	0.351	-0.074	-1.017	-0.993	-0.772	-0.304	-0.940	-0.830	-0.760	-0.602	-0.969	-0.294	-0.084	0.733	0.498	0.465	54.688
-0.672	-0.828	-0.724	-0.811	-0.335	-0.088	0.694	1.197	1.579	1.368	1.110	0.555	0.457	-0.072	-1.265	-1.222	-0.946	-0.472	-1.046	-0.975	-0.871	-0.628	-0.955	-0.067	0.236	1.088	0.874	0.634	58.594
-0.923	-1.029	-0.861	-0.977	-0.488	-0.206	0.737	1.239	1.706	1.464	1.221	0.641	0.532	-0.092	-1.519	-1.466	-1.117	-0.589	-1.138	-1.132	-0.995	-0.639	-0.890	0.175	0.621	1.501	1.269	0.788	62.500
-1.154	-1.237	-1.000	-1.149	-0.650	-0.321	0.746	1.265	1.825	1.538	1.289	0.672	0.572	-0.134	-1.776	-1.717	-1.283	-0.653	-1.217	-1.301	-1.130	-0.639	-0.783	0.413	1.054	1.947	1.653	0.907	66.406
-1.362	-1.446	-1.139	-1.319	-0.804	-0.418	0.734	1.299	1.959	1.600	1.324	0.641	0.576	-0.198	-2.033	-1.967	-1.443	-0.675	-1.287	-1.481	-1.269	-0.634	-0.650	0.629	1.510	2.395	2.000	0.976	70.312
-1.549	-1.647	-1.273	-1.476	-0.938	-0.486	0.714	1.363	2.130	1.660	1.341	0.549	0.549	-0.282	-2.286	-2.207	-1.599	-0.671	-1.354	-1.670	-1.407	-0.631	-0.510	0.807	1.961	2.813	2.283	0.985	74.219
-1.720	-1.829	-1.395	-1.610	-1.039	-0.515	0.700	1.480	2.357	1.727	1.356	0.405	0.495	-0.381	-2.528	-2.429	-1.753	-0.662	-1.422	-1.863	-1.538	-0.639	-0.385	0.933	2.374	3.166	2.482	0.926	78.125
-1.876	-1.975	-1.490	-1.709	-1.099	-0.499	0.703	1.660	2.648	1.804	1.382	0.220	0.418	-0.491	-2.753	-2.622	-1.904	-0.668	-1.496	-2.051	-1.654	-0.667	-0.293	0.996	2.720	3.424	2.583	0.796	82.031
-2.018	-2.070	-1.543	-1.763	-1.115	-0.438	0.727	1.904	2.999	1.888	1.423	0.007	0.326	-0.606	-2.951	-2.777	-2.051	-0.704	-1.576	-2.222	-1.749	-0.719	-0.246	0.991	2.965	3.563	2.576	0.596	85.938
-2.137	-2.101	-1.539	-1.765	-1.087	-0.334	0.772	2.200	3.394	1.968	1.479	-0.220	0.224	-0.721	-3.110	-2.887	-2.189	-0.777	-1.659	-2.364	-1.818	-0.795	-0.251	0.917	3.086	3.569	2.462	0.331	89.844
-2.222	-2.062	-1.470	-1.713	-1.018	-0.197	0.832	2.524	3.803	2.032	1.541	-0.453	0.117	-0.826	-3.221	-2.943	-2.310	-0.882	-1.738	-2.464	-1.856	-0.891	-0.303	0.779	3.066	3.439	2.250	0.011	93.750
-2.258	-1.954	-1.337	-1.608	-0.915	-0.037	0.896	2.843	4.189	2.062	1.592	-0.682	0.012	-0.916	-3.272	-2.940	-2.402	-1.004	-1.802	-2.508	-1.858	-0.996	-0.395	0.588	2.902	3.180	1.959	-0.354	97.656
-2.227	-1.786	-1.151	-1.460	-0.786	0.132	0.953	3.119	4.509	2.043	1.615	-0.907	-0.083	-0.977	-3.252	-2.876	-2.453	-1.116	-1.836	-2.486	-1.818	-1.093	-0.510	0.362	2.603	2.808	1.612	-0.748	101.562
-2.116	-1.571	-0.927	-1.279	-0.638	0.294	0.990	3.312	4.717	1.962	1.586	-1.127	-0.159	-0.999	-3.150	-2.747	-2.447	-1.188	-1.828	-2.388	-1.730	-1.165	-0.630	0.121	2.193	2.343	1.238	-1.156	105.469
-1.913	-1.322	-0.685	-1.078	-0.481	0.437	0.998	3.385	4.774	1.812	1.484	-1.348	-0.208	-0.969	-2.958	-2.552	-2.368	-1.189	-1.762	-2.207	-1.589	-1.193	-0.733	-0.112	1.705	1.809	0.865	-1.566	109.375
-1.618	-1.048	-0.443	-0.869	-0.322	0.551	0.967	3.311	4.647	1.591	1.289	-1.578	-0.222	-0.877	-2.670	-2.289	-2.200	-1.096	-1.624	-1.941	-1.386	-1.159	-0.798	-0.316	1.175	1.228	0.517	-1.969	113.281
-1.236	-0.755	-0.214	-0.657	-0.163	0.630	0.893	3.071	4.315	1.302	0.988	-1.827	-0.195	-0.714	-2.284	-1.955	-1.931	-0.893	-1.403	-1.588	-1.115	-1.049	-0.808	-0.474	0.638	0.622	0.209	-2.357	117.188
-0.784	-0.442	-0.003	-0.443	-0.005	0.671	0.772	2.661	3.770	0.953	0.572	-2.104	-0.125	-0.479	-1.806	-1.546	-1.554	-0.580	-1.091	-1.150	-0.770	-0.854	-0.748	-0.573	0.123	0.010	-0.054	-2.730	121.094
-0.283	-0.107	0.188	-0.223	0.152	0.678	0.607	2.094	3.025	0.554	0.049	-2.414	-0.017	-0.177	-1.247	-1.064	-1.071	-0.169	-0.688	-0.637	-0.351	-0.573	-0.611	-0.612	-0.350	-0.593	-0.274	-3.084	125.000
0.240	0.247	0.364	0.006	0.310	0.655	0.405	1.397	2.114	0.118	-0.562	-2.755	0.120	0.179	-0.629	-0.518	-0.499	0.315	-0.202	-0.064	0.130	-0.215	-0.398	-0.594	-0.768	-1.170	-0.461	-3.418	128.906
0.756	0.613	0.526	0.244	0.465	0.610	0.174	0.615	1.089	-0.336	-1.227	-3.111	0.270	0.567	0.018	0.070	0.134	0.838	0.346	0.539	0.654	0.203	-0.120	-0.526	-1.124	-1.702	-0.623	-3.722	132.812
1.235	0.973	0.677	0.484	0.611	0.548	-0.072	-0.200	0.020	-0.787	-1.901	-3.460	0.417	0.957	0.654	0.667	0.783	1.363	0.921	1.135	1.189	0.653	0.204	-0.420	-1.413	-2.166	-0.768	-3.985	136.719
1.652	1.301	0.812	0.710	0.737	0.473	-0.316	-0.989	-1.016	-1.212	-2.527	-3.769	0.541	1.317	1.239	1.229	1.401	1.854	1.482	1.682	1.694	1.101	0.548	-0.288	-1.631	-2.540	-0.895	-4.188	140.625
1.982	1.568	0.924	0.901	0.828	0.387	-0.542	-1.696	-1.940	-1.584	-3.053	-4.003	0.630	1.618	1.730	1.708	1.933	2.277	1.983	2.134	2.128	1.513	0.883	-0.141	-1.770	-2.799	-0.997	-4.313	144.531
2.202	1.745	1.003	1.034	0.873	0.292	-0.734	-2.273	-2.683	-1.879	-3.429	-4.130	0.674	1.838	2.090	2.060	2.336	2.606	2.384	2.455	2.453	1.856	1.181	0.013	-1.821	-2.920	-1.064	-4.341	148.438
2.296	1.810	1.037	1.086	0.861	0.189	-0.876	-2.684	-3.195	-2.077	-3.621	-4.126	0.672	1.963	2.292	2.253	2.578	2.824	2.651	2.622	2.644	2.107	1.416	0.168	-1.775	-2.890	-1.080	-4.260	152.344
2.253	1.752	1.017	1.045	0.790	0.078	-0.958	-2.912	-3.448	-2.166	-3.613	-3.980	0.631	1.991	2.321	2.271	2.646	2.925	2.767	2.627	2.690	2.251	1.570	0.319	-1.624	-2.706	-1.033	-4.064	156.250
2.069	1.574	0.936	0.906	0.666	-0.038	-0.976	-2.959	-3.443	-2.142	-3.408	-3.699	0.563	1.929	2.181	2.120	2.544	2.912	2.731	2.481	2.597	2.287	1.637	0.467	-1.365	-2.375	-0.915	-3.759	160.156
1.755	1.289	0.793	0.678	0.497	-0.155	-0.933	-2.841	-3.204	-2.015	-3.033	-3.303	0.482	1.794	1.889	1.819	2.295	2.798	2.556	2.209	2.382	2.221	1.618	0.608	-1.007	-1.916	-0.725	-3.358	164.062
1.332	0.921	0.596	0.374	0.298	-0.269	-0.839	-2.588	-2.773	-1.800	-2.526	-2.824	0.401	1.603	1.475	1.405	1.935	2.605	2.270	1.843	2.076	2.069	1.523	0.743	-0.563	-1.359	-0.473	-2.881	167.969
0.834	0.499	0.354	0.020	0.085	-0.377	-0.709	-2.238	-2.207	-1.522	-1.936	-2.301	0.330	1.375	0.979	0.916	1.504	2.358	1.906	1.421	1.711	1.854	1.372	0.866	-0.059	-0.738	-0.174	-2.356	171.875
0.304	0.054	0.084	-0.361	-0.129	-0.474	-0.562	-1.830	-1.563	-1.208	-1.316	-1.774	0.270	1.127	0.445	0.396	1.041	2.086	1.499	0.978	1.317	1.598	1.184	0.975	0.476	-0.092	0.151	-1.811	175.781
-0.214	-0.384	-0.196	-0.743	-0.335	-0.559	-0.418	-1.404	-0.899	-0.886	-0.712	-1.279	0.221	0.871	-0.085	-0.117	0.584	1.813	1.082	0.543	0.923	1.323	0.981	1.064	1.009	0.544	0.476	-1.279	179.688
-0.680	-0.788	-0.467	-1.100	-0.523	-0.629	-0.296	-0.993	-0.261	-0.580	-0.165	-0.843	0.173	0.617	-0.573	-0.593	0.161	1.560	0.682	0.138	0.547	1.047	0.780	1.127	1.508	1.136	0.780	-0.785	183.594
-1.064	-1.136	-0.711	-1.414	-0.691	-0.681	-0.209	-0.623	0.313	-0.310	0.297	-0.488	0.120	0.373	-0.988	-1.008	-0.208	1.338	0.319	-0.221	0.204	0.788	0.595	1.159	1.948	1.659	1.042	-0.355	187.500
-1.350	-1.412	-0.915	-1.667	-0.834	-0.713	-0.164	-0.313	0.799	-0.090	0.654	-0.223	0.054	0.144	-1.312	-1.350	-0.509	1.155	0.006	-0.526	-0.096	0.558	0.433	1.157	2.309	2.093	1.249	-0.006	191.406
-1.533	-1.609	-1.068	-1.851	-0.949	-0.725	-0.161	-0.073	1.183	0.073	0.901	-0.052	-0.028	-0.063	-1.533	-1.613	-0.738	1.008	-0.250	-0.773	-0.348	0.363	0.296	1.123	2.579	2.428	1.394	0.251	195.312
-1.625	-1.723	-1.165	-1.960	-1.034	-0.714	-0.194	0.098	1.462	0.178	1.039	0.030	-0.125	-0.241	-1.653	-1.799	-0.897	0.895	-0.448	-0.962	-0.546	0.208	0.183	1.060	2.753	2.664	1.477	0.411	199.219
-1.642	-1.759	-1.205	-1.998	-1.087	-0.681	-0.251	0.204	1.643	0.230	1.080	0.029	-0.231	-0.383	-1.679	-1.916	-0.993	0.806	-0.591	-1.095	-0.689	0.094	0.088	0.979	2.837	2.807	1.503	0.479	203.125
-1.608	-1.728	-1.193	-1.972	-1.109	-0.626	-0.318	0.257	1.737	0.237	1.040	-0.044	-0.334	-0.482	-1.629	-1.976	-1.038	0.736	-0.684	-1.176	-0.777	0.019	0.008	0.890	2.841	2.869	1.485	0.465	207.031
-1.543	-1.644	-1.136	-1.897	-1.101	-0.553	-0.380	0.271	1.759	0.210	0.940	-0.176	-0.423	-0.534	-1.527	-1.992	-1.044	0.678	-0.735	-1.213	-0.813	-0.020	-0.062	0.807	2.783	2.867	1.434	0.388	210.938
-1.466	-1.526	-1.047	-1.790	-1.068	-0.467	-0.425	0.261	1.726	0.160	0.799	-0.355	-0.485	-0.536	-1.399	-1.979	-1.027	0.628	-0.752	-1.212	-0.799	-0.026	-0.121	0.744	2.686	2.820	1.367	0.265	214.844
-1.387	-1.393	-0.937	-1.670	-1.016	-0.377	-0.446	0.236	1.653	0.099	0.635	-0.567	-0.509	-0.488	-1.270	-1.951	-1.000	0.585	-0.741	-1.181	-0.743	-0.001	-0.168	0.713	2.572	2.745	1.296	0.118	218.750
-1.316	-1.266	-0.821	-1.555	-0.955	-0.293	-0.438	0.206	1.553	0.036	0.462	-0.797	-0.490	-0.392	-1.166	-1.920	-0.975	0.550	-0.712	-1.128	-0.652	0.052	-0.197	0.724	2.465	2.658	1.232	-0.033	222.656
-1.256	-1.163	-0.710	-1.460	-0.890	-0.223	-0.404	0.173	1.438	-0.018	0.291	-1.031	-0.424	-0.251	-1.102	-1.898	-0.960	0.524	-0.669	-1.060	-0.533	0.132	-0.202	0.780	2.386	2.572	1.185	-0.173	226.562
-1.213	-1.097	-0.617	-1.394	-0.827	-0.174	-0.345	0.140	1.317	-0.054	0.129	-1.255	-0.311	-0.073	-1.089	-1.893	-0.960	0.504	-0.617	-0.986	-0.394	0.240	-0.177	0.883	2.346	2.498	1.157	-0.290	230.469
-1.195	-1.076	-0.551	-1.361	-0.770	-0.148	-0.266	0.110	1.200	-0.065	-0.018	-1.455	-0.158	0.137	-1.128	-1.912	-0.977	0.485	-0.562	-0.912	-0.241	0.372	-0.117	1.029	2.350	2.443	1.150	-0.380	234.375
-1.208	-1.099	-0.519	-1.359	-0.717	-0.141	-0.172	0.086	1.099	-0.047	-0.147	-1.618	0.031	0.373	-1.216	-1.958	-1.010	0.462	-0.506	-0.844	-0.080	0.524	-0.023	1.209	2.395	2.408	1.160	-0.443	238.281
-1.260	-1.162	-0.527	-1.378	-0.666	-0.145	-0.064	0.074	1.022	0.002	-0.253	-1.739	0.245	0.626	-1.345	-2.030	-1.057	0.427	-0.454	-0.785	0.085	0.691	0.103	1.413	2.472	2.394	1.180	-0.485	242.188
-1.352	-1.251	-0.575	-1.409	-0.612	-0.151	0.054	0.081	0.979	0.081	-0.334	-1.813	0.477	0.890	-1.504	-2.126	-1.117	0.373	-0.406	-0.737	0.251	0.865	0.252	1.626	2.568	2.396	1.203	-0.516	246.094
-1.486	-1.355	-0.659	-1.438	-0.549	-0.146	0.183	0.114	0.975	0.186	-0.387	-1.843	0.716	1.158	-1.685	-2.240	-1.185	0.300	-0.365	-0.698	0.416	1.037	0.416	1.838	2.667	2.406	1.221	-0.544	250.000
-1.654	-1.457	-0.775	-1.457	-0.472	-0.123	0.320	0.176	1.011	0.308	-0.413	-1.838	0.953	1.422	-1.882	-2.366	-1.256	0.213	-0.331	-0.663	0.576	1.200	0.584	2.038	2.758	2.418	1.228	-0.578	253.906
-1.850	-1.546	-0.914	-1.457	-0.377	-0.077	0.464	0.269	1.084	0.440	-0.415	-1.808	1.180	1.675	-2.087	-2.496	-1.325	0.122	-0.302	-0.629	0.731	1.351	0.746	2.216	2.829	2.424	1.224	-0.625	257.812
-2.066	-1.615	-1.069	-1.437	-0.264	-0.008	0.612	0.389	1.187	0.573	-0.395	-1.767	1.390	1.910	-2.296	-2.622	-1.386	0.044	-0.276	-0.590	0.877	1.486	0.894	2.369	2.875	2.417	1.213	-0.686	261.719
-2.293	-1.660	-1.232	-1.398	-0.133	0.079	0.760	0.531	1.311	0.701	-0.360	-1.729	1.578	2.123	-2.505	-2.737	-1.434	-0.007	-0.248	-0.542	1.014	1.606	1.022	2.492	2.897	2.394	1.202	-0.758	265.625
-2.529	-1.682	-1.397	-1.344	0.012	0.180	0.905	0.685	1.447	0.820	-0.314	-1.703	1.741	2.311	-2.706	-2.835	-1.465	-0.021	-0.215	-0.481	1.143	1.714	1.127	2.587	2.896	2.352	1.200	-0.838	269.531
-2.771	-1.686	-1.555	-1.280	0.168	0.286	1.044	0.844	1.586	0.927	-0.261	-1.697	1.880	2.474	-2.897	-2.912	-1.478	0.008	-0.175	-0.407	1.265	1.813	1.209	2.653	2.879	2.291	1.215	-0.920	273.438
-3.019	-1.679	-1.701	-1.212	0.328	0.390	1.176	0.998	1.723	1.024	-0.208	-1.714	1.998	2.617	-3.073	-2.966	-1.475	0.073	-0.126	-0.321	1.384	1.910	1.274	2.696	2.852	2.214	1.248	-0.999	277.344
-3.268	-1.667	-1.827	-1.143	0.488	0.488	1.296	1.138	1.850	1.109	-0.155	-1.751	2.098	2.745	-3.233	-2.996	-1.459	0.164	-0.066	-0.224	1.506	2.007	1.328	2.720	2.820	2.125	1.298	-1.072	281.250
-3.516	-1.657	-1.925	-1.079	0.641	0.576	1.404	1.257	1.963	1.181	-0.107	-1.806	2.185	2.866	-3.382	-3.002	-1.435	0.263	0.004	-0.119	1.635	2.108	1.377	2.730	2.786	2.033	1.361	-1.135	285.156
-3.754	-1.650	-1.994	-1.021	0.782	0.654	1.495	1.351	2.059	1.239	-0.065	-1.871	2.262	2.986	-3.522	-2.986	-1.409	0.352	0.083	-0.011	1.773	2.216	1.430	2.735	2.753	1.946	1.427	-1.187	289.062
-3.976	-1.649	-2.034	-0.969	0.909	0.720	1.568	1.416	2.136	1.279	-0.031	-1.940	2.329	3.110	-3.662	-2.950	-1.384	0.413	0.169	0.097	1.921	2.330	1.492	2.740	2.722	1.874	1.491	-1.229	292.969
-4.173	-1.654	-2.051	-0.923	1.018	0.775	1.622	1.455	2.192	1.298	-0.004	-2.007	2.388	3.241	-3.805	-2.898	-1.362	0.437	0.257	0.204	2.079	2.449	1.564	2.753	2.693	1.827	1.545	-1.260	296.875
-4.344	-1.661	-2.058	-0.880	1.110	0.819	1.658	1.470	2.228	1.294	0.013	-2.069	2.438	3.378	-3.954	-2.833	-1.342	0.419	0.346	0.310	2.243	2.572	1.646	2.778	2.670	1.810	1.590	-1.282	300.781
-4.489	-1.668	-2.069	-0.838	1.188	0.853	1.677	1.466	2.244	1.269	0.019	-2.124	2.480	3.518	-4.108	-2.759	-1.321	0.364	0.436	0.416	2.410	2.695	1.734	2.820	2.653	1.827	1.627	-1.298	304.688
-4.613	-1.670	-2.094	-0.794	1.257	0.877	1.685	1.448	2.241	1.224	0.011	-2.171	2.516	3.657	-4.257	-2.677	-1.292	0.281	0.527	0.526	2.576	2.818	1.825	2.879	2.643	1.873	1.658	-1.311	308.594
-4.719	-1.662	-2.142	-0.745	1.323	0.891	1.687	1.418	2.215	1.167	-0.016	-2.214	2.549	3.791	-4.389	-2.589	-1.246	0.187	0.623	0.647	2.740	2.939	1.912	2.956	2.638	1.939	1.687	-1.327	312.500
-4.808	-1.637	-2.212	-0.686	1.390	0.896	1.689	1.377	2.163	1.101	-0.070	-2.260	2.582	3.917	-4.487	-2.491	-1.174	0.099	0.728	0.783	2.901	3.059	1.995	3.044	2.636	2.012	1.713	-1.355	316.406
-4.877	-1.589	-2.296	-0.616	1.462	0.894	1.695	1.321	2.077	1.033	-0.157	-2.316	2.616	4.031	-4.533	-2.381	-1.068	0.033	0.845	0.941	3.060	3.176	2.071	3.137	2.630	2.074	1.730	-1.404	320.312
-4.915	-1.513	-2.379	-0.531	1.542	0.887	1.706	1.245	1.951	0.965	-0.283	-2.391	2.650	4.132	-4.515	-2.253	-0.925	0.003	0.979	1.122	3.219	3.290	2.140	3.225	2.613	2.107	1.730	-1.483	324.219
-4.908	-1.406	-2.446	-0.429	1.627	0.876	1.718	1.143	1.780	0.899	-0.452	-2.492	2.680	4.217	-4.423	-2.103	-0.744	0.019	1.132	1.326	3.377	3.400	2.204	3.297	2.580	2.098	1.703	-1.599	328.125
-4.845	-1.270	-2.480	-0.311	1.713	0.861	1.727	1.012	1.564	0.834	-0.659	-2.622	2.701	4.285	-4.262	-1.927	-0.528	0.086	1.304	1.550	3.533	3.504	2.264	3.347	2.524	2.036	1.642	-1.752	332.031
-4.723	-1.109	-2.475	-0.182	1.792	0.841	1.725	0.849	1.308	0.768	-0.892	-2.777	2.706	4.334	-4.042	-1.726	-0.285	0.202	1.492	1.787	3.684	3.600	2.324	3.368	2.445	1.923	1.543	-1.935	335.938
-4.546	-0.933	-2.429	-0.048	1.858	0.815	1.704	0.660	1.025	0.699	-1.133	-2.945	2.693	4.364	-3.785	-1.504	-0.027	0.362	1.692	2.027	3.827	3.687	2.382	3.362	2.346	1.767	1.412	-2.133	339.844
-4.336	-0.756	-2.349	0.082	1.904	0.779	1.662	0.453	0.733	0.625	-1.359	-3.108	2.661	4.378	-3.520	-1.271	0.231	0.550	1.897	2.256	3.955	3.763	2.440	3.335	2.234	1.585	1.260	-2.323	343.750
-4.123	-0.590	-2.251	0.198	1.926	0.733	1.598	0.243	0.453	0.549	-1.544	-3.242	2.613	4.378	-3.277	-1.038	0.475	0.746	2.095	2.464	4.066	3.828	2.498	3.297	2.121	1.402	1.107	-2.481	347.656
-3.944	-0.448	-2.150	0.292	1.927	0.677	1.517	0.043	0.208	0.473	-1.670	-3.327	2.558	4.369	-3.082	-0.819	0.689	0.927	2.276	2.638	4.157	3.882	2.556	3.263	2.023	1.241	0.976	-2.582	351.562
-3.833	-0.337	-2.066	0.360	1.911	0.613	1.429	-0.131	0.014	0.400	-1.722	-3.346	2.505	4.357	-2.958	-0.626	0.861	1.071	2.429	2.773	4.227	3.928	2.612	3.246	1.954	1.125	0.887	-2.610	355.469
-3.815	-0.260	-2.011	0.402	1.889	0.545	1.344	-0.270	-0.118	0.336	-1.700	-3.293	2.464	4.349	-2.913	-0.469	0.981	1.160	2.545	2.864	4.279	3.971	2.665	3.255	1.925	1.068	0.855	-2.556	359.375
-3.895	-0.217	-1.993	0.422	1.870	0.478	1.274	-0.368	-0.183	0.286	-1.611	-3.174	2.442	4.349	-2.951	-0.355	1.048	1.182	2.619	2.916	4.319	4.013	2.712	3.294	1.942	1.077	0.884	-2.424	363.281
-4.065	-0.203	-2.012	0.427	1.864	0.420	1.227	-0.422	-0.184	0.255	-1.472	-3.006	2.445	4.362	-3.062	-0.282	1.062	1.136	2.650	2.933	4.352	4.060	2.749	3.361	2.004	1.146	0.969	-2.230	367.188
-4.300	-0.212	-2.060	0.424	1.880	0.376	1.211	-0.434	-0.129	0.246	-1.302	-2.814	2.473	4.389	-3.233	-0.250	1.031	1.026	2.641	2.925	4.385	4.113	2.771	3.448	2.104	1.264	1.097	-1.996	371.094
-4.568	-0.235	-2.126	0.420	1.919	0.353	1.227	-0.409	-0.027	0.261	-1.122	-2.622	2.524	4.432	-3.450	-0.252	0.962	0.863	2.600	2.903	4.423	4.174	2.774	3.541	2.230	1.413	1.248	-1.751	375.000
-4.839	-0.267	-2.199	0.421	1.982	0.353	1.276	-0.351	0.112	0.301	-0.948	-2.451	2.594	4.485	-3.696	-0.280	0.865	0.663	2.534	2.876	4.468	4.237	2.754	3.629	2.369	1.572	1.406	-1.520	378.906
-5.087	-0.302	-2.267	0.428	2.062	0.376	1.354	-0.267	0.278	0.365	-0.788	-2.312	2.676	4.545	-3.954	-0.326	0.749	0.442	2.451	2.850	4.519	4.297	2.708	3.700	2.503	1.725	1.554	-1.323	382.812
-5.298	-0.334	-2.324	0.442	2.150	0.420	1.455	-0.164	0.464	0.448	-0.643	-2.207	2.762	4.605	-4.210	-0.385	0.620	0.220	2.357	2.828	4.572	4.345	2.638	3.747	2.620	1.855	1.684	-1.171	386.719
-5.467	-0.363	-2.371	0.459	2.236	0.478	1.571	-0.049	0.660	0.548	-0.509	-2.126	2.846	4.656	-4.450	-0.451	0.487	0.013	2.256	2.810	4.621	4.371	2.547	3.766	2.706	1.955	1.793	-1.062	390.625
-5.601	-0.389	-2.410	0.476	2.309	0.540	1.695	0.070	0.859	0.659	-0.376	-2.052	2.923	4.694	-4.660	-0.521	0.352	-0.165	2.152	2.791	4.658	4.369	2.441	3.761	2.753	2.020	1.886	-0.984	394.531
-5.708	-0.416	-2.447	0.487	2.361	0.594	1.819	0.185	1.054	0.778	-0.238	-1.967	2.989	4.715	-4.831	-0.596	0.218	-0.306	2.046	2.763	4.678	4.336	2.328	3.739	2.759	2.052	1.968	-0.919	398.438
-5.797	-0.452	-2.492	0.486	2.387	0.632	1.935	0.289	1.238	0.902	-0.088	-1.855	3.043	4.718	-4.957	-0.676	0.086	-0.407	1.938	2.719	4.675	4.274	2.220	3.710	2.725	2.057	2.046	-0.846	402.344
-5.875	-0.505	-2.547	0.467	2.384	0.645	2.039	0.377	1.402	1.026	0.073	-1.708	3.088	4.706	-5.037	-0.762	-0.043	-0.470	1.831	2.654	4.650	4.189	2.125	3.684	2.656	2.041	2.124	-0.749	406.250
-5.940	-0.577	-2.616	0.429	2.357	0.631	2.127	0.445	1.539	1.146	0.234	-1.529	3.127	4.685	-5.077	-0.851	-0.168	-0.504	1.728	2.568	4.607	4.092	2.054	3.670	2.562	2.013	2.202	-0.623	410.156
-5.984	-0.667	-2.694	0.374	2.312	0.594	2.196	0.491	1.642	1.253	0.379	-1.334	3.163	4.662	-5.083	-0.940	-0.282	-0.514	1.635	2.466	4.553	3.993	2.012	3.672	2.451	1.974	2.276	-0.477	414.062
-5.995	-0.765	-2.773	0.310	2.260	0.543	2.247	0.515	1.701	1.337	0.483	-1.149	3.197	4.646	-5.060	-1.019	-0.377	-0.504	1.562	2.360	4.501	3.905	2.003	3.689	2.330	1.920	2.332	-0.336	417.969
-5.959	-0.852	-2.839	0.251	2.215	0.491	2.277	0.518	1.706	1.383	0.521	-1.009	3.228	4.644	-5.011	-1.074	-0.437	-0.471	1.519	2.270	4.466	3.837	2.029	3.712	2.202	1.843	2.355	-0.232	421.875
-5.865	-0.906	-2.880	0.214	2.191	0.453	2.287	0.499	1.648	1.374	0.467	-0.949	3.252	4.662	-4.933	-1.087	-0.447	-0.407	1.519	2.216	4.461	3.798	2.088	3.729	2.062	1.727	2.325	-0.204	425.781
-5.710	-0.906	-2.882	0.216	2.199	0.442	2.275	0.459	1.522	1.300	0.307	-0.994	3.261	4.703	-4.818	-1.043	-0.393	-0.299	1.572	2.218	4.499	3.791	2.174	3.726	1.902	1.557	2.225	-0.280	429.688
-5.496	-0.835	-2.840	0.269	2.247	0.464	2.242	0.397	1.327	1.154	0.041	-1.157	3.251	4.767	-4.658	-0.930	-0.266	-0.139	1.683	2.288	4.584	3.817	2.279	3.689	1.713	1.326	2.047	-0.474	433.594
-5.237	-0.691	-2.755	0.377	2.333	0.522	2.189	0.316	1.072	0.944	-0.313	-1.427	3.219	4.849	-4.446	-0.746	-0.070	0.072	1.847	2.428	4.714	3.869	2.389	3.614	1.489	1.033	1.796	-0.775	437.500
-4.951	-0.482	-2.637	0.534	2.452	0.608	2.121	0.216	0.774	0.689	-0.720	-1.772	3.166	4.943	-4.185	-0.503	0.183	0.322	2.051	2.628	4.881	3.940	2.489	3.501	1.230	0.693	1.490	-1.151	441.406
-4.664	-0.229	-2.502	0.726	2.589	0.712	2.046	0.103	0.458	0.417	-1.134	-2.140	3.100	5.043	-3.890	-0.220	0.469	0.587	2.273	2.870	5.068	4.019	2.564	3.361	0.946	0.330	1.162	-1.550	445.312
-4.398	0.038	-2.369	0.933	2.730	0.818	1.972	-0.020	0.151	0.164	-1.503	-2.474	3.034	5.140	-3.581	0.075	0.759	0.833	2.490	3.129	5.258	4.095	2.601	3.212	0.655	-0.025	0.857	-1.913	449.219
-4.175	0.288	-2.259	1.131	2.859	0.910	1.906	-0.146	-0.121	-0.036	-1.781	-2.717	2.982	5.229	-3.286	0.352	1.022	1.024	2.678	3.381	5.433	4.159	2.590	3.078	0.375	-0.340	0.619	-2.185	453.125
-4.009	0.494	-2.184	1.301	2.961	0.972	1.853	-0.272	-0.336	-0.157	-1.936	-2.830	2.958	5.305	-3.032	0.588	1.235	1.133	2.820	3.603	5.581	4.208	2.529	2.977	0.128	-0.589	0.485	-2.329	457.031
-3.906	0.638	-2.153	1.427	3.026	0.996	1.814	-0.393	-0.484	-0.188	-1.954	-2.795	2.969	5.365	-2.836	0.763	1.382	1.145	2.908	3.781	5.693	4.239	2.425	2.924	-0.072	-0.756	0.479	-2.330	460.938
-3.862	0.712	-2.162	1.501	3.051	0.977	1.786	-0.506	-0.564	-0.129	-1.842	-2.621	3.017	5.407	-2.706	0.872	1.459	1.064	2.941	3.907	5.765	4.253	2.289	2.925	-0.217	-0.840	0.603	-2.198	464.844
-3.863	0.719	-2.204	1.522	3.034	0.916	1.765	-0.610	-0.584	0.004	-1.626	-2.344	3.093	5.429	-2.640	0.916	1.473	0.911	2.929	3.980	5.798	4.255	2.139	2.974	-0.307	-0.847	0.840	-1.969	468.750
-3.894	0.672	-2.264	1.497	2.980	0.822	1.743	-0.701	-0.557	0.186	-1.344	-2.016	3.184	5.428	-2.625	0.908	1.438	0.722	2.886	4.005	5.795	4.246	1.993	3.059	-0.346	-0.796	1.152	-1.691	472.656
-3.937	0.587	-2.326	1.436	2.897	0.706	1.714	-0.776	-0.499	0.389	-1.036	-1.692	3.270	5.402	-2.643	0.863	1.372	0.535	2.827	3.992	5.762	4.228	1.867	3.162	-0.341	-0.707	1.492	-1.414	476.562
-3.978	0.487	-2.375	1.352	2.793	0.584	1.674	-0.831	-0.422	0.587	-0.740	-1.420	3.335	5.349	-2.680	0.798	1.293	0.384	2.762	3.949	5.701	4.200	1.771	3.264	-0.301	-0.599	1.810	-1.182	480.469
-4.007	0.388	-2.401	1.257	2.679	0.472	1.625	-0.860	-0.333	0.762	-0.483	-1.233	3.365	5.268	-2.726	0.728	1.211	0.285	2.698	3.883	5.618	4.158	1.707	3.348	-0.235	-0.486	2.064	-1.020	484.375
-4.024	0.307	-2.398	1.162	2.565	0.384	1.571	-0.858	-0.238	0.904	-0.277	-1.141	3.355	5.162	-2.780	0.660	1.133	0.241	2.636	3.802	5.515	4.098	1.670	3.402	-0.150	-0.377	2.223	-0.936	488.281
-4.033	0.252	-2.367	1.077	2.458	0.329	1.518	-0.822	-0.133	1.015	-0.122	-1.133	3.305	5.032	-2.845	0.597	1.059	0.239	2.571	3.707	5.396	4.014	1.651	3.422	-0.053	-0.271	2.276	-0.916	492.188
-4.039	0.225	-2.314	1.006	2.363	0.313	1.475	-0.751	-0.019	1.097	-0.008	-1.183	3.221	4.885	-2.928	0.538	0.985	0.258	2.496	3.603	5.265	3.905	1.640	3.409	0.051	-0.164	2.232	-0.935	496.094
-4.052	0.222	-2.244	0.949	2.282	0.333	1.445	-0.651	0.104	1.158	0.078	-1.258	3.113	4.729	-3.031	0.478	0.906	0.277	2.408	3.491	5.125	3.772	1.624	3.365	0.156	-0.052	2.112	-0.962	500.000
-4.074	0.238	-2.165	0.906	2.215	0.379	1.430	-0.534	0.231	1.204	0.148	-1.328	2.993	4.571	-3.152	0.417	0.822	0.285	2.308	3.377	4.984	3.622	1.598	3.298	0.258	0.069	1.950	-0.971	503.906
-4.105	0.263	-2.084	0.873	2.160	0.441	1.428	-0.415	0.350	1.237	0.209	-1.369	2.870	4.420	-3.284	0.354	0.733	0.280	2.201	3.267	4.849	3.468	1.560	3.218	0.353	0.197	1.777	-0.944	507.812
-4.140	0.289	-2.005	0.845	2.116	0.504	1.432	-0.314	0.446	1.255	0.259	-1.372	2.752	4.285	-3.412	0.294	0.648	0.271	2.099	3.171	4.730	3.326	1.514	3.131	0.436	0.323	1.625	-0.875	511.719
-4.165	0.311	-1.930	0.821	2.079	0.556	1.434	-0.249	0.502	1.255	0.293	-1.342	2.645	4.172	-3.519	0.245	0.579	0.277	2.018	3.096	4.635	3.215	1.466	3.048	0.507	0.435	1.511	-0.775	515.625
-4.167	0.328	-1.858	0.798	2.050	0.588	1.427	-0.235	0.503	1.234	0.299	-1.297	2.556	4.087	-3.592	0.217	0.537	0.314	1.973	3.052	4.572	3.148	1.426	2.973	0.564	0.516	1.440	-0.663	519.531
-4.132	0.345	-1.787	0.778	2.028	0.597	1.405	-0.278	0.441	1.189	0.267	-1.260	2.486	4.031	-3.617	0.217	0.535	0.397	1.973	3.042	4.546	3.135	1.403	2.913	0.605	0.553	1.406	-0.568	523.438
-4.049	0.369	-1.712	0.764	2.014	0.586	1.368	-0.375	0.316	1.120	0.188	-1.258	2.439	4.003	-3.587	0.250	0.578	0.529	2.022	3.068	4.556	3.177	1.404	2.867	0.628	0.532	1.394	-0.517	527.344
-3.914	0.406	-1.632	0.758	2.008	0.564	1.318	-0.512	0.141	1.029	0.061	-1.314	2.415	3.998	-3.499	0.318	0.665	0.704	2.113	3.123	4.597	3.266	1.431	2.836	0.631	0.449	1.383	-0.534	531.250
-3.729	0.462	-1.544	0.761	2.009	0.538	1.261	-0.672	-0.065	0.921	-0.109	-1.442	2.413	4.008	-3.355	0.412	0.787	0.906	2.234	3.199	4.660	3.385	1.483	2.815	0.611	0.308	1.355	-0.631	535.156
-3.504	0.534	-1.448	0.774	2.016	0.519	1.204	-0.830	-0.280	0.805	-0.313	-1.646	2.429	4.024	-3.163	0.523	0.930	1.118	2.366	3.283	4.732	3.513	1.555	2.797	0.566	0.118	1.299	-0.809	539.062
-3.250	0.619	-1.346	0.792	2.023	0.511	1.152	-0.967	-0.478	0.685	-0.536	-1.917	2.455	4.035	-2.931	0.635	1.079	1.321	2.491	3.360	4.795	3.630	1.638	2.775	0.497	-0.103	1.210	-1.057	542.969
-2.980	0.706	-1.241	0.811	2.024	0.517	1.106	-1.069	-0.642	0.567	-0.762	-2.234	2.481	4.029	-2.672	0.735	1.219	1.500	2.592	3.417	4.835	3.715	1.723	2.743	0.405	-0.335	1.092	-1.353	546.875
-2.706	0.786	-1.137	0.824	2.013	0.532	1.064	-1.129	-0.761	0.455	-0.979	-2.569	2.496	3.998	-2.400	0.811	1.339	1.650	2.658	3.444	4.836	3.754	1.799	2.697	0.299	-0.557	0.953	-1.669	550.781
-2.439	0.848	-1.038	0.827	1.982	0.548	1.020	-1.151	-0.836	0.351	-1.173	-2.889	2.489	3.937	-2.127	0.855	1.434	1.770	2.682	3.436	4.790	3.738	1.857	2.634	0.190	-0.751	0.806	-1.974	554.688
-2.190	0.887	-0.949	0.813	1.928	0.558	0.966	-1.144	-0.872	0.259	-1.337	-3.158	2.452	3.843	-1.866	0.865	1.504	1.864	2.665	3.391	4.692	3.668	1.890	2.557	0.091	-0.902	0.663	-2.235	558.594
-1.970	0.900	-0.876	0.781	1.848	0.554	0.894	-1.121	-0.886	0.180	-1.463	-3.348	2.382	3.720	-1.627	0.842	1.551	1.940	2.610	3.313	4.545	3.548	1.895	2.472	0.016	-1.001	0.536	-2.428	562.500
-1.787	0.886	-0.822	0.732	1.746	0.530	0.798	-1.097	-0.891	0.118	-1.549	-3.440	2.283	3.577	-1.418	0.789	1.580	2.004	2.526	3.208	4.358	3.392	1.869	2.386	-0.024	-1.047	0.433	-2.532	566.406
-1.650	0.852	-0.788	0.667	1.628	0.490	0.680	-1.083	-0.904	0.074	-1.593	-3.425	2.163	3.423	-1.244	0.712	1.594	2.060	2.424	3.086	4.147	3.212	1.815	2.307	-0.025	-1.042	0.359	-2.540	570.312
-1.562	0.802	-0.769	0.594	1.503	0.440	0.542	-1.084	-0.935	0.047	-1.602	-3.315	2.033	3.272	-1.103	0.620	1.600	2.112	2.315	2.955	3.928	3.027	1.736	2.241	0.010	-0.997	0.313	-2.457	574.219
-1.516	0.747	-0.761	0.518	1.382	0.391	0.394	-1.104	-0.992	0.032	-1.584	-3.132	1.902	3.133	-0.989	0.522	1.602	2.161	2.213	2.827	3.717	2.853	1.639	2.187	0.067	-0.929	0.289	-2.300	578.125
-1.499	0.698	-0.752	0.449	1.271	0.356	0.244	-1.139	-1.077	0.017	-1.554	-2.913	1.775	3.011	-0.892	0.428	1.608	2.210	2.130	2.711	3.526	2.704	1.532	2.142	0.130	-0.856	0.275	-2.099	582.031
-1.490	0.666	-0.732	0.392	1.177	0.344	0.099	-1.186	-1.189	-0.012	-1.531	-2.699	1.654	2.909	-0.796	0.351	1.626	2.262	2.079	2.615	3.363	2.590	1.426	2.096	0.180	-0.800	0.256	-1.891	585.938
-1.464	0.659	-0.691	0.352	1.100	0.360	-0.034	-1.240	-1.325	-0.071	-1.536	-2.530	1.534	2.820	-0.683	0.300	1.660	2.322	2.066	2.543	3.228	2.518	1.335	2.041	0.202	-0.777	0.215	-1.714	589.844
-1.396	0.686	-0.622	0.330	1.040	0.403	-0.155	-1.299	-1.479	-0.174	-1.584	-2.438	1.407	2.735	-0.541	0.281	1.715	2.393	2.095	2.496	3.116	2.488	1.273	1.966	0.190	-0.797	0.138	-1.603	593.750
-1.270	0.748	-0.518	0.327	0.989	0.468	-0.265	-1.360	-1.645	-0.328	-1.687	-2.440	1.265	2.646	-0.360	0.296	1.792	2.477	2.160	2.471	3.018	2.495	1.250	1.870	0.148	-0.861	0.016	-1.581	597.656
-1.077	0.844	-0.381	0.339	0.942	0.544	-0.369	-1.424	-1.820	-0.533	-1.846	-2.541	1.104	2.543	-0.140	0.339	1.887	2.575	2.254	2.462	2.925	2.530	1.274	1.754	0.088	-0.961	-0.154	-1.656	601.562
-0.823	0.970	-0.214	0.361	0.895	0.621	-0.473	-1.492	-1.996	-0.779	-2.053	-2.726	0.923	2.425	0.110	0.404	1.994	2.682	2.362	2.463	2.830	2.583	1.345	1.627	0.026	-1.082	-0.366	-1.821	605.469
-0.524	1.117	-0.025	0.392	0.846	0.690	-0.578	-1.565	-2.171	-1.048	-2.293	-2.972	0.727	2.294	0.377	0.480	2.104	2.797	2.473	2.469	2.733	2.644	1.456	1.499	-0.022	-1.207	-0.610	-2.054	609.375
-0.205	1.276	0.174	0.430	0.799	0.744	-0.687	-1.647	-2.341	-1.319	-2.548	-3.247	0.527	2.160	0.645	0.559	2.210	2.914	2.574	2.479	2.637	2.701	1.594	1.384	-0.044	-1.321	-0.870	-2.328	613.281
0.107	1.436	0.371	0.476	0.760	0.783	-0.798	-1.736	-2.502	-1.568	-2.794	-3.521	0.337	2.036	0.899	0.634	2.304	3.031	2.657	2.493	2.553	2.748	1.740	1.290	-0.040	-1.416	-1.131	-2.614	617.188
0.388	1.586	0.556	0.532	0.740	0.811	-0.904	-1.831	-2.652	-1.774	-3.016	-3.766	0.170	1.936	1.128	0.701	2.382	3.145	2.720	2.514	2.495	2.780	1.874	1.223	-0.017	-1.489	-1.382	-2.885	621.094
0.620	1.718	0.717	0.597	0.746	0.833	-0.998	-1.928	-2.787	-1.925	-3.199	-3.963	0.039	1.876	1.325	0.761	2.443	3.252	2.764	2.547	2.476	2.796	1.977	1.183	0.012	-1.546	-1.612	-3.123	625.000
0.800	1.825	0.845	0.673	0.783	0.855	-1.072	-2.022	-2.906	-2.013	-3.339	-4.100	-0.047	1.864	1.487	0.815	2.489	3.348	2.794	2.595	2.503	2.797	2.037	1.164	0.030	-1.595	-1.815	-3.318	628.906
0.930	1.900	0.932	0.754	0.853	0.882	-1.119	-2.108	-3.007	-2.042	-3.436	-4.176	-0.083	1.904	1.615	0.869	2.525	3.428	2.820	2.660	2.581	2.789	2.053	1.161	0.023	-1.647	-1.985	-3.470	632.812
1.023	1.944	0.975	0.835	0.948	0.914	-1.135	-2.181	-3.093	-2.023	-3.498	-4.197	-0.072	1.994	1.714	0.927	2.560	3.485	2.849	2.742	2.705	2.779	2.031	1.169	-0.015	-1.708	-2.119	-3.585	636.719
1.094	1.960	0.970	0.908	1.058	0.948	-1.121	-2.242	-3.168	-1.975	-3.539	-4.176	-0.016	2.127	1.790	0.993	2.604	3.519	2.892	2.837	2.865	2.778	1.986	1.184	-0.082	-1.782	-2.213	-3.670	640.625
1.154	1.954	0.920	0.962	1.167	0.974	-1.085	-2.295	-3.242	-1.919	-3.577	-4.129	0.077	2.291	1.852	1.068	2.665	3.532	2.955	2.941	3.047	2.795	1.941	1.210	-0.170	-1.869	-2.266	-3.734	644.531
1.213	1.934	0.831	0.991	1.262	0.984	-1.038	-2.349	-3.322	-1.875	-3.626	-4.077	0.198	2.475	1.910	1.154	2.748	3.532	3.043	3.048	3.234	2.840	1.915	1.249	-0.263	-1.962	-2.279	-3.784	648.438
1.271	1.909	0.713	0.991	1.328	0.968	-0.993	-2.413	-3.420	-1.863	-3.701	-4.040	0.333	2.665	1.977	1.248	2.856	3.533	3.158	3.153	3.413	2.918	1.927	1.306	-0.348	-2.053	-2.256	-3.823	652.344
1.330	1.888	0.580	0.960	1.356	0.918	-0.966	-2.496	-3.540	-1.894	-3.808	-4.031	0.471	2.845	2.062	1.348	2.987	3.549	3.297	3.252	3.567	3.026	1.985	1.382	-0.413	-2.133	-2.204	-3.854	656.250
1.387	1.876	0.447	0.903	1.344	0.836	-0.971	-2.603	-3.684	-1.970	-3.950	-4.063	0.598	3.005	2.174	1.450	3.135	3.595	3.454	3.339	3.688	3.158	2.089	1.473	-0.453	-2.199	-2.137	-3.879	660.156
1.446	1.879	0.330	0.829	1.294	0.725	-1.017	-2.734	-3.847	-2.087	-4.119	-4.136	0.700	3.132	2.315	1.552	3.292	3.680	3.618	3.413	3.767	3.298	2.228	1.573	-0.468	-2.247	-2.068	-3.900	664.062
1.508	1.900	0.244	0.752	1.212	0.596	-1.105	-2.882	-4.021	-2.235	-4.306	-4.249	0.768	3.218	2.480	1.651	3.448	3.804	3.779	3.471	3.804	3.430	2.384	1.669	-0.467	-2.283	-2.015	-3.925	667.969
1.581	1.941	0.202	0.685	1.111	0.465	-1.233	-3.038	-4.195	-2.404	-4.500	-4.392	0.792	3.256	2.663	1.747	3.597	3.963	3.926	3.517	3.800	3.539	2.538	1.746	-0.460	-2.315	-1.995	-3.962	671.875
1.673	2.004	0.212	0.647	1.002	0.349	-1.391	-3.187	-4.357	-2.581	-4.691	-4.558	0.767	3.245	2.855	1.839	3.732	4.144	4.051	3.551	3.762	3.610	2.671	1.789	-0.461	-2.359	-2.024	-4.022	675.781
1.791	2.089	0.281	0.648	0.898	0.265	-1.565	-3.316	-4.500	-2.762	-4.871	-4.735	0.694	3.185	3.047	1.929	3.854	4.330	4.152	3.580	3.699	3.638	2.770	1.785	-0.478	-2.428	-2.113	-4.118	679.688
1.943	2.196	0.406	0.697	0.811	0.225	-1.740	-3.413	-4.620	-2.943	-5.039	-4.918	0.575	3.083	3.233	2.019	3.963	4.506	4.228	3.606	3.622	3.623	2.830	1.726	-0.520	-2.537	-2.271	-4.258	683.594
2.131	2.322	0.583	0.792	0.747	0.237	-1.897	-3.469	-4.715	-3.122	-5.193	-5.101	0.420	2.948	3.408	2.107	4.061	4.655	4.280	3.633	3.542	3.572	2.852	1.610	-0.586	-2.694	-2.495	-4.445	687.500
2.353	2.458	0.798	0.926	0.712	0.302	-2.020	-3.480	-4.786	-3.300	-5.335	-5.278	0.240	2.791	3.567	2.193	4.149	4.764	4.312	3.661	3.466	3.495	2.843	1.443	-0.674	-2.897	-2.776	-4.674	691.406
2.600	2.597	1.033	1.083	0.706	0.416	-2.096	-3.447	-4.835	-3.471	-5.460	-5.444	0.052	2.628	3.703	2.271	4.224	4.826	4.325	3.687	3.400	3.404	2.815	1.238	-0.777	-3.137	-3.096	-4.932	695.312
2.860	2.725	1.268	1.243	0.728	0.565	-2.117	-3.371	-4.860	-3.627	-5.565	-5.591	-0.126	2.474	3.812	2.332	4.280	4.834	4.318	3.708	3.347	3.309	2.777	1.014	-0.887	-3.396	-3.429	-5.197	699.219
3.115	2.830	1.483	1.386	0.775	0.734	-2.080	-3.258	-4.861	-3.755	-5.641	-5.707	-0.278	2.341	3.886	2.368	4.309	4.788	4.288	3.718	3.308	3.218	2.736	0.792	-0.999	-3.651	-3.747	-5.444	703.125
3.343	2.904	1.660	1.497	0.839	0.905	-1.992	-3.119	-4.834	-3.841	-5.677	-5.784	-0.390	2.240	3.921	2.373	4.303	4.693	4.233	3.712	3.279	3.134	2.694	0.594	-1.109	-3.878	-4.018	-5.646	707.031
3.529	2.941	1.784	1.566	0.915	1.061	-1.865	-2.963	-4.778	-3.872	-5.665	-5.810	-0.454	2.177	3.916	2.346	4.259	4.556	4.150	3.685	3.259	3.056	2.652	0.438	-1.214	-4.058	-4.216	-5.783	710.938
3.658	2.941	1.851	1.588	0.993	1.187	-1.716	-2.804	-4.696	-3.842	-5.602	-5.780	-0.468	2.153	3.873	2.290	4.178	4.392	4.041	3.637	3.242	2.985	2.607	0.336	-1.310	-4.179	-4.319	-5.841	714.844
3.723	2.906	1.860	1.567	1.065	1.274	-1.564	-2.654	-4.593	-3.751	-5.490	-5.693	-0.439	2.164	3.799	2.215	4.067	4.214	3.914	3.569	3.224	2.920	2.559	0.295	-1.393	-4.240	-4.318	-5.815	718.750
3.720	2.841	1.816	1.511	1.122	1.316	-1.427	-2.526	-4.477	-3.606	-5.337	-5.557	-0.373	2.202	3.706	2.131	3.937	4.034	3.780	3.485	3.203	2.861	2.507	0.312	-1.456	-4.244	-4.213	-5.714	722.656
3.655	2.753	1.730	1.430	1.159	1.313	-1.316	-2.429	-4.358	-3.422	-5.158	-5.382	-0.281	2.261	3.605	2.053	3.803	3.865	3.651	3.392	3.179	2.812	2.456	0.382	-1.493	-4.199	-4.016	-5.553	726.562
3.535	2.648	1.611	1.336	1.172	1.271	-1.235	-2.368	-4.247	-3.215	-4.966	-5.184	-0.171	2.335	3.506	1.989	3.675	3.711	3.540	3.297	3.152	2.778	2.408	0.495	-1.494	-4.115	-3.750	-5.351	730.469
3.370	2.530	1.468	1.237	1.161	1.198	-1.179	-2.343	-4.149	-3.001	-4.777	-4.980	-0.049	2.419	3.413	1.945	3.564	3.574	3.455	3.207	3.126	2.762	2.366	0.638	-1.455	-4.000	-3.443	-5.131	734.375
3.171	2.404	1.309	1.142	1.132	1.105	-1.138	-2.346	-4.063	-2.791	-4.599	-4.784	0.084	2.511	3.328	1.921	3.472	3.455	3.399	3.130	3.107	2.765	2.333	0.801	-1.373	-3.860	-3.129	-4.911	738.281
2.952	2.275	1.140	1.055	1.087	1.004	-1.097	-2.367	-3.983	-2.593	-4.438	-4.607	0.223	2.609	3.244	1.911	3.400	3.351	3.370	3.070	3.096	2.788	2.305	0.972	-1.254	-3.697	-2.838	-4.706	742.188
2.728	2.148	0.963	0.977	1.034	0.901	-1.044	-2.394	-3.902	-2.410	-4.294	-4.454	0.366	2.710	3.154	1.907	3.342	3.262	3.359	3.029	3.096	2.822	2.278	1.143	-1.105	-3.511	-2.594	-4.524	746.094
2.514	2.029	0.779	0.908	0.974	0.803	-0.974	-2.414	-3.809	-2.244	-4.164	-4.326	0.507	2.809	3.054	1.902	3.293	3.187	3.356	3.005	3.104	2.858	2.247	1.304	-0.940	-3.303	-2.415	-4.369	750.000
2.327	1.924	0.590	0.845	0.910	0.712	-0.886	-2.420	-3.698	-2.096	-4.042	-4.217	0.635	2.896	2.940	1.887	3.247	3.126	3.352	2.993	3.116	2.885	2.207	1.448	-0.776	-3.075	-2.307	-4.239	753.906
2.183	1.838	0.400	0.786	0.841	0.628	-0.789	-2.407	-3.569	-1.967	-3.926	-4.124	0.741	2.961	2.818	1.862	3.204	3.081	3.341	2.988	3.122	2.893	2.155	1.568	-0.630	-2.836	-2.268	-4.128	757.812
2.095	1.777	0.219	0.729	0.767	0.551	-0.695	-2.378	-3.430	-1.861	-3.815	-4.039	0.812	2.997	2.697	1.827	3.162	3.052	3.319	2.982	3.118	2.875	2.092	1.657	-0.515	-2.597	-2.288	-4.032	761.719
2.069	1.743	0.058	0.675	0.689	0.482	-0.616	-2.336	-3.292	-1.783	-3.709	-3.961	0.839	2.998	2.590	1.790	3.125	3.039	3.287	2.971	3.097	2.831	2.024	1.709	-0.442	-2.378	-2.355	-3.948	765.625
2.100	1.735	-0.068	0.624	0.612	0.423	-0.563	-2.292	-3.173	-1.736	-3.616	-3.889	0.821	2.965	2.510	1.759	3.097	3.041	3.252	2.953	3.058	2.766	1.959	1.725	-0.411	-2.199	-2.452	-3.872	769.531
2.176	1.746	-0.144	0.579	0.542	0.378	-0.541	-2.251	-3.086	-1.723	-3.540	-3.823	0.759	2.905	2.469	1.742	3.080	3.056	3.220	2.927	3.002	2.692	1.911	1.705	-0.417	-2.078	-2.566	-3.804	773.438
2.275	1.766	-0.158	0.540	0.485	0.351	-0.550	-2.220	-3.042	-1.740	-3.487	-3.766	0.665	2.828	2.472	1.745	3.074	3.081	3.196	2.894	2.933	2.624	1.891	1.657	-0.448	-2.031	-2.682	-3.744	777.344
2.375	1.784	-0.101	0.507	0.449	0.345	-0.583	-2.199	-3.044	-1.784	-3.457	-3.720	0.550	2.748	2.516	1.766	3.075	3.110	3.186	2.856	2.856	2.574	1.912	1.589	-0.485	-2.063	-2.792	-3.692	781.250
2.452	1.788	0.025	0.478	0.438	0.362	-0.631	-2.189	-3.088	-1.848	-3.450	-3.687	0.429	2.675	2.597	1.804	3.080	3.139	3.191	2.813	2.776	2.553	1.977	1.513	-0.514	-2.171	-2.890	-3.648	785.156
2.496	1.774	0.212	0.452	0.450	0.398	-0.686	-2.187	-3.165	-1.925	-3.463	-3.664	0.312	2.617	2.705	1.852	3.085	3.166	3.211	2.767	2.696	2.563	2.086	1.436	-0.523	-2.341	-2.977	-3.611	789.062
2.505	1.740	0.442	0.426	0.481	0.449	-0.740	-2.189	-3.263	-2.007	-3.488	-3.649	0.204	2.573	2.827	1.906	3.086	3.188	3.242	2.719	2.617	2.599	2.229	1.364	-0.509	-2.553	-3.054	-3.578	792.969
2.488	1.693	0.694	0.401	0.522	0.508	-0.790	-2.193	-3.369	-2.089	-3.518	-3.637	0.106	2.542	2.954	1.962	3.084	3.206	3.279	2.670	2.541	2.653	2.391	1.297	-0.478	-2.784	-3.125	-3.547	796.875
