FP1	F3	F7	FC3	C3	C5	P3	P7	PO7	PO3	O1	Oz	Pz	CPz	FP2	Fz	F4	F8	FC4	FCz	Cz	C4	C6	P4	P8	PO8	PO4	O2	time
0.202	-0.014	0.564	0.561	0.660	1.859	-0.338	-0.715	-0.479	-0.849	-0.977	-1.357	-0.015	1.315	0.395	0.401	-0.012	-0.927	0.374	1.050	1.213	0.782	0.660	0.627	-0.704	-0.248	0.144	-0.191	-199.219
0.237	-0.047	0.494	0.322	0.341	1.182	-0.428	-0.778	-0.450	-0.759	-0.711	-1.082	-0.158	1.062	0.333	0.326	0.059	-0.886	0.466	0.929	1.035	0.727	0.751	0.553	-0.361	-0.110	0.189	-0.052	-195.312
0.254	-0.087	0.423	0.100	0.051	0.564	-0.494	-0.827	-0.410	-0.644	-0.441	-0.812	-0.264	0.836	0.268	0.251	0.127	-0.862	0.540	0.811	0.871	0.664	0.807	0.488	-0.070	0.021	0.241	0.078	-191.406
0.239	-0.139	0.351	-0.090	-0.183	0.058	-0.517	-0.852	-0.355	-0.488	-0.171	-0.557	-0.308	0.661	0.202	0.178	0.188	-0.864	0.580	0.698	0.733	0.593	0.806	0.438	0.132	0.136	0.301	0.188	-187.500
0.187	-0.202	0.273	-0.236	-0.345	-0.306	-0.486	-0.844	-0.283	-0.286	0.095	-0.326	-0.274	0.548	0.132	0.108	0.235	-0.896	0.579	0.593	0.628	0.516	0.732	0.409	0.226	0.234	0.372	0.274	-183.594
0.102	-0.274	0.184	-0.333	-0.427	-0.527	-0.401	-0.805	-0.197	-0.046	0.346	-0.126	-0.165	0.503	0.055	0.045	0.269	-0.960	0.541	0.499	0.560	0.438	0.587	0.404	0.224	0.315	0.451	0.332	-179.688
-0.002	-0.351	0.078	-0.381	-0.437	-0.626	-0.271	-0.741	-0.108	0.208	0.568	0.035	0.003	0.516	-0.027	-0.007	0.288	-1.046	0.475	0.418	0.528	0.366	0.385	0.424	0.153	0.383	0.534	0.362	-175.781
-0.109	-0.422	-0.043	-0.384	-0.386	-0.636	-0.119	-0.666	-0.035	0.443	0.744	0.151	0.204	0.573	-0.111	-0.043	0.298	-1.134	0.399	0.355	0.528	0.311	0.152	0.466	0.053	0.440	0.612	0.369	-171.875
-0.202	-0.478	-0.173	-0.349	-0.293	-0.593	0.028	-0.600	0.003	0.617	0.855	0.215	0.404	0.654	-0.188	-0.058	0.306	-1.198	0.330	0.317	0.554	0.284	-0.077	0.522	-0.036	0.481	0.672	0.352	-167.969
-0.268	-0.505	-0.295	-0.281	-0.176	-0.526	0.141	-0.561	-0.014	0.691	0.886	0.222	0.571	0.739	-0.243	-0.047	0.321	-1.207	0.285	0.309	0.598	0.293	-0.266	0.583	-0.090	0.497	0.700	0.312	-164.062
-0.298	-0.495	-0.393	-0.186	-0.050	-0.451	0.195	-0.565	-0.100	0.636	0.831	0.172	0.677	0.814	-0.263	-0.007	0.353	-1.134	0.276	0.337	0.654	0.342	-0.383	0.636	-0.101	0.477	0.679	0.248	-160.156
-0.289	-0.441	-0.445	-0.069	0.075	-0.374	0.174	-0.620	-0.256	0.438	0.692	0.067	0.707	0.867	-0.237	0.063	0.406	-0.961	0.307	0.400	0.716	0.427	-0.406	0.666	-0.078	0.408	0.597	0.156	-156.250
-0.240	-0.344	-0.439	0.063	0.191	-0.294	0.076	-0.722	-0.471	0.108	0.485	-0.082	0.659	0.894	-0.160	0.160	0.482	-0.691	0.379	0.498	0.778	0.540	-0.328	0.658	-0.043	0.280	0.448	0.031	-152.344
-0.158	-0.210	-0.367	0.201	0.293	-0.208	-0.089	-0.856	-0.722	-0.324	0.233	-0.262	0.541	0.895	-0.038	0.277	0.579	-0.341	0.482	0.622	0.837	0.664	-0.157	0.601	-0.019	0.095	0.235	-0.126	-148.438
-0.053	-0.051	-0.236	0.335	0.377	-0.119	-0.296	-0.998	-0.973	-0.809	-0.035	-0.453	0.372	0.875	0.116	0.404	0.686	0.054	0.605	0.760	0.890	0.780	0.079	0.492	-0.025	-0.138	-0.029	-0.313	-144.531
0.059	0.114	-0.059	0.455	0.438	-0.036	-0.510	-1.116	-1.183	-1.288	-0.288	-0.632	0.177	0.836	0.284	0.530	0.792	0.452	0.732	0.896	0.934	0.866	0.338	0.336	-0.066	-0.398	-0.321	-0.519	-140.625
0.159	0.267	0.142	0.549	0.472	0.028	-0.696	-1.179	-1.316	-1.698	-0.499	-0.779	-0.020	0.784	0.445	0.639	0.881	0.809	0.844	1.013	0.962	0.905	0.572	0.147	-0.142	-0.658	-0.611	-0.729	-136.719
0.228	0.392	0.345	0.609	0.479	0.063	-0.819	-1.162	-1.341	-1.987	-0.647	-0.877	-0.196	0.720	0.580	0.719	0.938	1.089	0.923	1.094	0.972	0.888	0.736	-0.055	-0.240	-0.888	-0.869	-0.923	-132.812
0.248	0.475	0.529	0.629	0.459	0.061	-0.854	-1.054	-1.246	-2.117	-0.726	-0.915	-0.335	0.644	0.675	0.758	0.949	1.266	0.958	1.122	0.957	0.812	0.801	-0.243	-0.344	-1.064	-1.065	-1.076	-128.906
0.210	0.509	0.676	0.608	0.416	0.025	-0.793	-0.862	-1.038	-2.077	-0.735	-0.891	-0.427	0.557	0.721	0.743	0.906	1.332	0.938	1.086	0.914	0.688	0.756	-0.393	-0.433	-1.167	-1.175	-1.167	-125.000
0.114	0.492	0.776	0.549	0.359	-0.038	-0.641	-0.607	-0.742	-1.873	-0.687	-0.810	-0.468	0.460	0.712	0.670	0.804	1.288	0.862	0.982	0.842	0.531	0.613	-0.482	-0.487	-1.188	-1.183	-1.178	-121.094
-0.029	0.425	0.825	0.456	0.294	-0.114	-0.417	-0.320	-0.394	-1.535	-0.596	-0.680	-0.459	0.355	0.652	0.536	0.649	1.150	0.734	0.809	0.740	0.360	0.396	-0.498	-0.489	-1.124	-1.083	-1.098	-117.188
-0.201	0.315	0.822	0.336	0.228	-0.193	-0.150	-0.034	-0.037	-1.100	-0.478	-0.514	-0.403	0.248	0.543	0.345	0.448	0.936	0.563	0.577	0.614	0.191	0.139	-0.438	-0.426	-0.980	-0.883	-0.928	-113.281
-0.377	0.173	0.770	0.197	0.163	-0.262	0.130	0.222	0.291	-0.615	-0.345	-0.325	-0.309	0.147	0.396	0.110	0.216	0.672	0.365	0.301	0.469	0.040	-0.121	-0.312	-0.297	-0.772	-0.599	-0.679	-109.375
-0.531	0.012	0.675	0.045	0.101	-0.316	0.393	0.426	0.559	-0.123	-0.206	-0.124	-0.183	0.059	0.219	-0.153	-0.027	0.381	0.158	0.001	0.312	-0.086	-0.347	-0.141	-0.115	-0.520	-0.262	-0.375	-105.469
-0.640	-0.154	0.543	-0.108	0.040	-0.348	0.617	0.568	0.749	0.339	-0.066	0.077	-0.038	-0.009	0.026	-0.419	-0.261	0.090	-0.038	-0.297	0.154	-0.182	-0.508	0.045	0.093	-0.251	0.092	-0.050	-101.562
-0.686	-0.308	0.381	-0.255	-0.020	-0.356	0.784	0.645	0.853	0.742	0.070	0.265	0.116	-0.053	-0.169	-0.662	-0.465	-0.177	-0.207	-0.567	0.002	-0.247	-0.580	0.217	0.293	0.007	0.424	0.257	-97.656
-0.664	-0.435	0.199	-0.383	-0.079	-0.337	0.886	0.662	0.873	1.065	0.195	0.429	0.268	-0.072	-0.349	-0.859	-0.619	-0.399	-0.336	-0.783	-0.135	-0.282	-0.553	0.345	0.452	0.226	0.698	0.512	-93.750
-0.578	-0.524	0.006	-0.483	-0.135	-0.294	0.918	0.624	0.817	1.298	0.299	0.560	0.410	-0.069	-0.501	-0.989	-0.710	-0.557	-0.420	-0.927	-0.251	-0.291	-0.432	0.415	0.541	0.385	0.888	0.688	-89.844
-0.441	-0.566	-0.186	-0.546	-0.183	-0.231	0.882	0.542	0.699	1.439	0.371	0.653	0.533	-0.051	-0.611	-1.038	-0.734	-0.635	-0.461	-0.988	-0.340	-0.282	-0.243	0.420	0.547	0.474	0.982	0.775	-85.938
-0.270	-0.555	-0.362	-0.566	-0.220	-0.154	0.784	0.425	0.531	1.488	0.400	0.707	0.635	-0.026	-0.672	-1.006	-0.697	-0.628	-0.469	-0.965	-0.401	-0.264	-0.026	0.371	0.474	0.493	0.985	0.780	-82.031
-0.086	-0.493	-0.509	-0.541	-0.242	-0.074	0.629	0.285	0.330	1.450	0.380	0.725	0.709	-0.003	-0.682	-0.898	-0.611	-0.537	-0.456	-0.869	-0.435	-0.247	0.173	0.285	0.340	0.455	0.911	0.719	-78.125
0.094	-0.385	-0.612	-0.474	-0.247	-0.002	0.429	0.133	0.114	1.330	0.314	0.715	0.751	0.007	-0.641	-0.731	-0.496	-0.374	-0.437	-0.720	-0.446	-0.239	0.311	0.183	0.173	0.379	0.782	0.618	-74.219
0.255	-0.241	-0.659	-0.371	-0.236	0.055	0.194	-0.015	-0.101	1.135	0.211	0.682	0.755	-0.004	-0.556	-0.526	-0.371	-0.159	-0.420	-0.540	-0.441	-0.246	0.359	0.082	0.001	0.287	0.622	0.500	-70.312
0.386	-0.074	-0.643	-0.245	-0.211	0.094	-0.060	-0.143	-0.297	0.875	0.088	0.633	0.717	-0.043	-0.435	-0.308	-0.252	0.082	-0.413	-0.358	-0.429	-0.266	0.313	-0.006	-0.152	0.199	0.450	0.383	-66.406
0.479	0.099	-0.565	-0.108	-0.176	0.116	-0.315	-0.233	-0.454	0.570	-0.034	0.574	0.633	-0.113	-0.288	-0.099	-0.154	0.320	-0.415	-0.198	-0.419	-0.296	0.186	-0.080	-0.270	0.126	0.279	0.279	-62.500
0.529	0.263	-0.437	0.027	-0.134	0.129	-0.548	-0.271	-0.557	0.245	-0.132	0.507	0.503	-0.213	-0.126	0.083	-0.083	0.529	-0.426	-0.079	-0.422	-0.334	0.005	-0.146	-0.349	0.074	0.116	0.188	-58.594
0.536	0.406	-0.277	0.148	-0.089	0.144	-0.734	-0.244	-0.591	-0.066	-0.189	0.435	0.335	-0.341	0.039	0.226	-0.044	0.689	-0.444	-0.013	-0.444	-0.376	-0.200	-0.214	-0.388	0.040	-0.037	0.108	-54.688
0.501	0.516	-0.109	0.246	-0.045	0.171	-0.852	-0.147	-0.550	-0.328	-0.196	0.363	0.138	-0.490	0.191	0.324	-0.034	0.789	-0.469	-0.006	-0.491	-0.423	-0.398	-0.295	-0.393	0.017	-0.183	0.034	-50.781
0.432	0.590	0.039	0.314	-0.004	0.218	-0.884	0.018	-0.432	-0.508	-0.155	0.295	-0.071	-0.650	0.318	0.376	-0.051	0.827	-0.502	-0.055	-0.565	-0.477	-0.567	-0.394	-0.369	-0.001	-0.320	-0.039	-46.875
0.340	0.625	0.146	0.350	0.031	0.286	-0.822	0.240	-0.246	-0.584	-0.078	0.237	-0.276	-0.814	0.406	0.385	-0.089	0.807	-0.541	-0.151	-0.664	-0.538	-0.690	-0.508	-0.320	-0.019	-0.446	-0.110	-42.969
0.238	0.622	0.195	0.353	0.055	0.369	-0.668	0.501	-0.009	-0.549	0.016	0.193	-0.460	-0.973	0.443	0.356	-0.145	0.741	-0.585	-0.283	-0.785	-0.605	-0.753	-0.628	-0.253	-0.038	-0.557	-0.173	-39.062
0.139	0.585	0.185	0.323	0.066	0.455	-0.435	0.779	0.257	-0.408	0.105	0.168	-0.610	-1.119	0.424	0.294	-0.214	0.643	-0.630	-0.436	-0.918	-0.672	-0.752	-0.739	-0.172	-0.052	-0.642	-0.218	-35.156
0.055	0.517	0.121	0.263	0.059	0.526	-0.143	1.051	0.532	-0.181	0.173	0.164	-0.717	-1.245	0.346	0.206	-0.293	0.526	-0.672	-0.597	-1.056	-0.733	-0.686	-0.825	-0.085	-0.057	-0.695	-0.233	-31.250
-0.008	0.421	0.019	0.174	0.032	0.564	0.179	1.298	0.795	0.105	0.210	0.181	-0.775	-1.349	0.213	0.096	-0.379	0.408	-0.710	-0.754	-1.190	-0.783	-0.568	-0.870	0.002	-0.046	-0.708	-0.207	-27.344
-0.047	0.302	-0.098	0.061	-0.016	0.556	0.505	1.506	1.033	0.421	0.216	0.221	-0.786	-1.427	0.035	-0.027	-0.467	0.300	-0.745	-0.899	-1.314	-0.820	-0.421	-0.866	0.084	-0.016	-0.674	-0.134	-23.438
-0.068	0.166	-0.212	-0.070	-0.082	0.501	0.806	1.667	1.236	0.738	0.202	0.279	-0.754	-1.480	-0.174	-0.157	-0.555	0.215	-0.781	-1.029	-1.427	-0.847	-0.275	-0.815	0.157	0.036	-0.592	-0.012	-19.531
-0.080	0.019	-0.307	-0.208	-0.160	0.407	1.059	1.777	1.401	1.029	0.182	0.351	-0.690	-1.513	-0.392	-0.286	-0.639	0.162	-0.827	-1.143	-1.528	-0.871	-0.164	-0.722	0.219	0.108	-0.464	0.151	-15.625
-0.097	-0.130	-0.375	-0.342	-0.245	0.292	1.250	1.837	1.527	1.273	0.172	0.433	-0.602	-1.528	-0.597	-0.406	-0.718	0.146	-0.889	-1.244	-1.620	-0.901	-0.117	-0.603	0.272	0.197	-0.296	0.342	-11.719
-0.129	-0.274	-0.418	-0.464	-0.327	0.176	1.369	1.849	1.616	1.452	0.182	0.516	-0.501	-1.529	-0.768	-0.513	-0.793	0.168	-0.971	-1.335	-1.707	-0.945	-0.154	-0.472	0.322	0.299	-0.097	0.541	-7.812
-0.184	-0.404	-0.446	-0.564	-0.401	0.077	1.417	1.819	1.670	1.555	0.215	0.597	-0.394	-1.518	-0.886	-0.601	-0.864	0.226	-1.075	-1.417	-1.788	-1.004	-0.278	-0.342	0.376	0.413	0.123	0.734	-3.906
-0.263	-0.513	-0.468	-0.639	-0.463	0.007	1.397	1.752	1.691	1.572	0.266	0.670	-0.284	-1.495	-0.941	-0.668	-0.933	0.312	-1.192	-1.493	-1.862	-1.073	-0.477	-0.222	0.442	0.534	0.349	0.904	0.000
-0.356	-0.595	-0.496	-0.690	-0.515	-0.032	1.320	1.654	1.681	1.502	0.326	0.734	-0.174	-1.461	-0.932	-0.713	-0.996	0.416	-1.311	-1.559	-1.927	-1.143	-0.721	-0.115	0.525	0.657	0.569	1.042	3.906
-0.448	-0.644	-0.534	-0.720	-0.559	-0.046	1.197	1.533	1.644	1.346	0.386	0.785	-0.067	-1.415	-0.868	-0.737	-1.050	0.527	-1.417	-1.612	-1.978	-1.198	-0.968	-0.025	0.625	0.771	0.766	1.146	7.812
-0.520	-0.659	-0.581	-0.734	-0.600	-0.043	1.040	1.398	1.586	1.115	0.439	0.825	0.029	-1.364	-0.766	-0.741	-1.083	0.634	-1.492	-1.648	-2.012	-1.225	-1.170	0.048	0.739	0.863	0.923	1.215	11.719
-0.555	-0.639	-0.629	-0.739	-0.643	-0.034	0.860	1.259	1.513	0.822	0.486	0.855	0.108	-1.317	-0.644	-0.728	-1.086	0.730	-1.523	-1.667	-2.031	-1.213	-1.286	0.102	0.854	0.916	1.021	1.253	15.625
-0.540	-0.585	-0.667	-0.737	-0.692	-0.026	0.667	1.127	1.434	0.491	0.532	0.879	0.156	-1.286	-0.521	-0.702	-1.046	0.812	-1.505	-1.669	-2.043	-1.159	-1.286	0.132	0.958	0.914	1.046	1.264	19.531
-0.474	-0.504	-0.681	-0.733	-0.749	-0.020	0.471	1.014	1.359	0.150	0.584	0.901	0.159	-1.287	-0.408	-0.669	-0.961	0.879	-1.440	-1.661	-2.057	-1.070	-1.163	0.131	1.037	0.848	0.989	1.254	23.438
-0.364	-0.401	-0.661	-0.726	-0.813	-0.017	0.279	0.933	1.295	-0.173	0.651	0.926	0.105	-1.334	-0.311	-0.634	-0.831	0.939	-1.337	-1.650	-2.088	-0.960	-0.930	0.093	1.083	0.719	0.848	1.227	27.344
-0.226	-0.287	-0.602	-0.719	-0.883	-0.012	0.102	0.891	1.250	-0.445	0.735	0.959	-0.017	-1.440	-0.229	-0.602	-0.671	1.000	-1.214	-1.648	-2.150	-0.848	-0.620	0.011	1.092	0.537	0.632	1.186	31.250
-0.081	-0.172	-0.507	-0.712	-0.955	-0.004	-0.052	0.895	1.228	-0.640	0.837	1.003	-0.210	-1.608	-0.160	-0.579	-0.500	1.070	-1.091	-1.666	-2.253	-0.755	-0.281	-0.115	1.068	0.324	0.360	1.138	35.156
0.053	-0.066	-0.385	-0.707	-1.028	0.009	-0.168	0.947	1.231	-0.736	0.948	1.056	-0.467	-1.834	-0.101	-0.571	-0.342	1.154	-0.988	-1.713	-2.402	-0.698	0.037	-0.277	1.022	0.111	0.064	1.086	39.062
0.154	0.018	-0.255	-0.708	-1.099	0.023	-0.234	1.043	1.261	-0.717	1.060	1.115	-0.773	-2.103	-0.056	-0.582	-0.221	1.251	-0.923	-1.795	-2.597	-0.686	0.288	-0.457	0.970	-0.069	-0.215	1.038	42.969
0.208	0.068	-0.145	-0.722	-1.164	0.034	-0.236	1.178	1.322	-0.574	1.163	1.173	-1.101	-2.395	-0.034	-0.620	-0.158	1.355	-0.910	-1.917	-2.827	-0.723	0.434	-0.627	0.934	-0.182	-0.422	1.008	46.875
0.200	0.070	-0.084	-0.755	-1.223	0.035	-0.158	1.341	1.419	-0.305	1.252	1.223	-1.417	-2.685	-0.049	-0.694	-0.172	1.449	-0.956	-2.081	-3.080	-0.805	0.454	-0.749	0.933	-0.197	-0.502	1.010	50.781
0.118	0.013	-0.099	-0.814	-1.272	0.020	0.009	1.521	1.560	0.084	1.328	1.257	-1.683	-2.943	-0.117	-0.815	-0.272	1.510	-1.063	-2.284	-3.339	-0.920	0.345	-0.786	0.982	-0.087	-0.399	1.065	54.688
-0.045	-0.115	-0.215	-0.907	-1.313	-0.021	0.272	1.708	1.752	0.579	1.399	1.273	-1.862	-3.146	-0.256	-0.992	-0.463	1.516	-1.226	-2.522	-3.586	-1.055	0.125	-0.707	1.092	0.166	-0.070	1.195	58.594
-0.293	-0.320	-0.440	-1.037	-1.347	-0.095	0.628	1.888	1.998	1.156	1.477	1.270	-1.922	-3.275	-0.478	-1.233	-0.741	1.443	-1.437	-2.790	-3.806	-1.195	-0.174	-0.494	1.265	0.571	0.505	1.417	62.500
-0.618	-0.598	-0.769	-1.204	-1.375	-0.206	1.064	2.050	2.294	1.781	1.569	1.252	-1.847	-3.319	-0.784	-1.534	-1.091	1.279	-1.683	-3.078	-3.985	-1.326	-0.509	-0.148	1.494	1.123	1.316	1.737	66.406
-1.004	-0.937	-1.178	-1.402	-1.400	-0.352	1.555	2.185	2.626	2.410	1.676	1.220	-1.635	-3.277	-1.162	-1.888	-1.493	1.021	-1.947	-3.371	-4.115	-1.437	-0.834	0.310	1.770	1.801	2.315	2.146	70.312
-1.420	-1.313	-1.626	-1.619	-1.423	-0.526	2.064	2.280	2.965	2.990	1.786	1.173	-1.305	-3.158	-1.586	-2.271	-1.915	0.686	-2.205	-3.654	-4.190	-1.518	-1.107	0.837	2.081	2.565	3.417	2.615	74.219
-1.826	-1.693	-2.063	-1.837	-1.444	-0.713	2.544	2.329	3.274	3.461	1.873	1.107	-0.894	-2.977	-2.016	-2.653	-2.319	0.310	-2.432	-3.906	-4.210	-1.561	-1.293	1.379	2.412	3.360	4.506	3.098	78.125
-2.176	-2.038	-2.438	-2.035	-1.462	-0.895	2.942	2.323	3.511	3.767	1.904	1.009	-0.450	-2.752	-2.402	-2.997	-2.665	-0.060	-2.598	-4.105	-4.175	-1.559	-1.368	1.875	2.743	4.115	5.451	3.534	82.031
-2.424	-2.309	-2.703	-2.189	-1.475	-1.052	3.208	2.257	3.635	3.856	1.842	0.865	-0.025	-2.504	-2.693	-3.265	-2.909	-0.367	-2.672	-4.230	-4.089	-1.503	-1.316	2.267	3.053	4.752	6.122	3.857	85.938
-2.530	-2.469	-2.825	-2.279	-1.476	-1.164	3.304	2.133	3.617	3.692	1.658	0.661	0.330	-2.250	-2.841	-3.423	-3.016	-0.554	-2.630	-4.265	-3.954	-1.385	-1.130	2.506	3.314	5.191	6.410	4.007	89.844
-2.467	-2.491	-2.788	-2.286	-1.456	-1.214	3.206	1.958	3.441	3.257	1.335	0.387	0.577	-2.003	-2.815	-3.448	-2.961	-0.576	-2.458	-4.197	-3.776	-1.203	-0.814	2.559	3.493	5.364	6.242	3.938	93.750
-2.224	-2.356	-2.589	-2.193	-1.404	-1.189	2.910	1.745	3.110	2.556	0.871	0.038	0.690	-1.774	-2.601	-3.328	-2.734	-0.403	-2.155	-4.025	-3.559	-0.957	-0.386	2.411	3.561	5.218	5.594	3.623	97.656
-1.809	-2.056	-2.241	-1.988	-1.307	-1.074	2.430	1.515	2.643	1.614	0.284	-0.380	0.658	-1.569	-2.204	-3.063	-2.341	-0.027	-1.735	-3.752	-3.308	-0.659	0.123	2.065	3.488	4.728	4.487	3.063	101.562
-1.243	-1.594	-1.764	-1.665	-1.153	-0.863	1.795	1.284	2.072	0.476	-0.396	-0.853	0.482	-1.395	-1.647	-2.664	-1.804	0.539	-1.223	-3.390	-3.029	-0.324	0.674	1.543	3.255	3.893	2.990	2.280	105.469
-0.563	-0.984	-1.180	-1.223	-0.933	-0.551	1.046	1.065	1.430	-0.799	-1.129	-1.364	0.176	-1.256	-0.966	-2.147	-1.156	1.264	-0.650	-2.954	-2.727	0.027	1.223	0.880	2.854	2.742	1.202	1.318	109.375
0.190	-0.247	-0.516	-0.669	-0.644	-0.145	0.226	0.859	0.750	-2.141	-1.873	-1.893	-0.238	-1.156	-0.205	-1.535	-0.434	2.102	-0.047	-2.461	-2.410	0.377	1.732	0.117	2.289	1.327	-0.761	0.228	113.281
0.968	0.585	0.202	-0.020	-0.289	0.343	-0.617	0.653	0.054	-3.477	-2.592	-2.418	-0.731	-1.093	0.591	-0.852	0.323	2.999	0.560	-1.927	-2.080	0.713	2.176	-0.697	1.582	-0.281	-2.776	-0.932	117.188
1.727	1.475	0.948	0.701	0.121	0.891	-1.439	0.422	-0.647	-4.729	-3.257	-2.923	-1.265	-1.064	1.378	-0.123	1.080	3.899	1.154	-1.366	-1.739	1.030	2.546	-1.516	0.759	-2.003	-4.728	-2.106	121.094
2.421	2.381	1.692	1.459	0.572	1.468	-2.199	0.135	-1.349	-5.828	-3.851	-3.391	-1.803	-1.058	2.118	0.624	1.804	4.746	1.727	-0.789	-1.390	1.332	2.849	-2.291	-0.141	-3.753	-6.516	-3.241	125.000
3.013	3.260	2.399	2.217	1.042	2.042	-2.857	-0.237	-2.049	-6.707	-4.362	-3.803	-2.303	-1.063	2.781	1.359	2.465	5.490	2.273	-0.210	-1.033	1.625	3.105	-2.980	-1.079	-5.451	-8.057	-4.289	128.906
3.471	4.066	3.036	2.934	1.509	2.579	-3.382	-0.711	-2.742	-7.314	-4.782	-4.139	-2.727	-1.064	3.340	2.047	3.036	6.091	2.785	0.354	-0.674	1.917	3.338	-3.544	-2.014	-7.022	-9.282	-5.205	132.812
3.774	4.761	3.567	3.569	1.947	3.045	-3.748	-1.287	-3.410	-7.613	-5.100	-4.376	-3.041	-1.049	3.775	2.653	3.492	6.516	3.256	0.878	-0.324	2.210	3.568	-3.953	-2.908	-8.402	-10.146	-5.948	136.719
3.911	5.311	3.961	4.088	2.333	3.413	-3.934	-1.942	-4.028	-7.587	-5.300	-4.490	-3.223	-1.011	4.069	3.136	3.810	6.747	3.668	1.334	0.001	2.500	3.802	-4.185	-3.723	-9.542	-10.619	-6.481	140.625
3.887	5.689	4.196	4.463	2.647	3.663	-3.932	-2.630	-4.558	-7.241	-5.364	-4.460	-3.260	-0.950	4.208	3.461	3.974	6.772	4.001	1.687	0.277	2.771	4.035	-4.234	-4.424	-10.403	-10.695	-6.777	144.531
3.714	5.882	4.258	4.676	2.871	3.783	-3.744	-3.294	-4.958	-6.598	-5.269	-4.273	-3.155	-0.874	4.185	3.598	3.976	6.590	4.231	1.905	0.481	3.002	4.245	-4.107	-4.983	-10.958	-10.384	-6.817	148.438
3.413	5.884	4.149	4.719	2.995	3.769	-3.377	-3.870	-5.186	-5.696	-4.996	-3.924	-2.920	-0.796	3.998	3.529	3.819	6.207	4.336	1.963	0.589	3.168	4.398	-3.821	-5.379	-11.196	-9.717	-6.598	152.344
3.009	5.702	3.878	4.597	3.013	3.627	-2.850	-4.295	-5.202	-4.582	-4.534	-3.418	-2.576	-0.731	3.653	3.250	3.510	5.633	4.299	1.844	0.585	3.243	4.457	-3.406	-5.598	-11.116	-8.737	-6.129	156.250
2.526	5.346	3.465	4.319	2.927	3.369	-2.184	-4.523	-4.984	-3.305	-3.884	-2.768	-2.146	-0.693	3.163	2.768	3.064	4.887	4.111	1.545	0.459	3.207	4.388	-2.894	-5.637	-10.731	-7.493	-5.436	160.156
1.988	4.837	2.936	3.901	2.743	3.014	-1.404	-4.524	-4.521	-1.906	-3.063	-1.994	-1.651	-0.694	2.549	2.104	2.497	3.994	3.771	1.072	0.209	3.050	4.167	-2.314	-5.499	-10.068	-6.040	-4.551	164.062
1.411	4.196	2.314	3.365	2.472	2.584	-0.532	-4.294	-3.827	-0.424	-2.100	-1.120	-1.109	-0.738	1.832	1.282	1.827	2.986	3.289	0.441	-0.158	2.770	3.788	-1.690	-5.198	-9.163	-4.429	-3.516	167.969
0.811	3.444	1.621	2.733	2.131	2.109	0.407	-3.852	-2.930	1.114	-1.037	-0.174	-0.535	-0.826	1.037	0.335	1.067	1.902	2.683	-0.330	-0.630	2.377	3.261	-1.039	-4.751	-8.059	-2.707	-2.376	171.875
0.194	2.607	0.875	2.030	1.734	1.616	1.395	-3.232	-1.877	2.683	0.076	0.817	0.063	-0.956	0.188	-0.706	0.232	0.787	1.977	-1.214	-1.192	1.892	2.618	-0.370	-4.184	-6.801	-0.918	-1.172	175.781
-0.435	1.708	0.089	1.280	1.299	1.137	2.412	-2.484	-0.724	4.263	1.190	1.823	0.674	-1.120	-0.692	-1.807	-0.661	-0.315	1.203	-2.187	-1.826	1.340	1.900	0.308	-3.526	-5.436	0.899	0.055	179.688
-1.071	0.772	-0.726	0.508	0.845	0.694	3.443	-1.659	0.473	5.835	2.260	2.812	1.288	-1.313	-1.581	-2.934	-1.590	-1.362	0.392	-3.220	-2.512	0.752	1.160	0.989	-2.810	-4.008	2.704	1.269	183.594
-1.711	-0.175	-1.554	-0.263	0.386	0.309	4.475	-0.807	1.661	7.374	3.252	3.756	1.891	-1.527	-2.459	-4.056	-2.532	-2.322	-0.422	-4.282	-3.232	0.157	0.448	1.665	-2.071	-2.558	4.460	2.438	187.500
-2.350	-1.104	-2.375	-1.013	-0.063	-0.008	5.493	0.029	2.798	8.858	4.146	4.625	2.467	-1.757	-3.306	-5.138	-3.456	-3.172	-1.211	-5.343	-3.964	-0.419	-0.194	2.320	-1.341	-1.123	6.124	3.533	191.406
-2.977	-1.989	-3.164	-1.724	-0.489	-0.254	6.485	0.817	3.854	10.259	4.933	5.399	2.997	-1.995	-4.103	-6.150	-4.332	-3.899	-1.951	-6.372	-4.688	-0.958	-0.740	2.939	-0.648	0.259	7.656	4.531	195.312
-3.581	-2.801	-3.891	-2.381	-0.881	-0.435	7.437	1.532	4.813	11.552	5.616	6.061	3.463	-2.236	-4.833	-7.067	-5.130	-4.501	-2.625	-7.340	-5.381	-1.447	-1.180	3.503	-0.014	1.554	9.018	5.413	199.219
-4.149	-3.520	-4.531	-2.971	-1.229	-0.568	8.336	2.160	5.662	12.712	6.204	6.602	3.852	-2.472	-5.478	-7.867	-5.829	-4.983	-3.221	-8.221	-6.022	-1.878	-1.517	3.993	0.545	2.727	10.178	6.165	203.125
-4.672	-4.125	-5.059	-3.483	-1.522	-0.669	9.167	2.692	6.397	13.719	6.708	7.020	4.155	-2.692	-6.021	-8.534	-6.411	-5.355	-3.734	-8.989	-6.586	-2.248	-1.764	4.398	1.022	3.745	11.112	6.780	207.031
-5.136	-4.605	-5.460	-3.906	-1.753	-0.756	9.917	3.123	7.013	14.555	7.133	7.315	4.370	-2.884	-6.448	-9.059	-6.869	-5.633	-4.158	-9.622	-7.049	-2.556	-1.939	4.708	1.411	4.576	11.806	7.253	210.938
-5.532	-4.955	-5.730	-4.233	-1.912	-0.837	10.569	3.453	7.504	15.203	7.479	7.492	4.503	-3.031	-6.749	-9.438	-7.199	-5.830	-4.494	-10.100	-7.390	-2.798	-2.056	4.924	1.712	5.193	12.254	7.578	214.844
-5.849	-5.177	-5.870	-4.455	-1.992	-0.912	11.109	3.684	7.866	15.653	7.738	7.553	4.566	-3.118	-6.922	-9.670	-7.402	-5.962	-4.737	-10.408	-7.591	-2.971	-2.127	5.050	1.925	5.579	12.459	7.755	218.750
-6.074	-5.278	-5.893	-4.569	-1.993	-0.969	11.525	3.823	8.097	15.895	7.902	7.507	4.573	-3.132	-6.972	-9.761	-7.483	-6.040	-4.886	-10.535	-7.640	-3.074	-2.159	5.092	2.054	5.728	12.429	7.781	222.656
-6.199	-5.272	-5.819	-4.577	-1.915	-0.993	11.806	3.882	8.200	15.929	7.960	7.362	4.540	-3.067	-6.911	-9.721	-7.444	-6.071	-4.939	-10.479	-7.537	-3.103	-2.155	5.059	2.099	5.649	12.181	7.658	226.562
-6.222	-5.176	-5.673	-4.490	-1.770	-0.970	11.948	3.873	8.183	15.762	7.907	7.131	4.485	-2.920	-6.753	-9.562	-7.287	-6.054	-4.892	-10.250	-7.290	-3.058	-2.111	4.962	2.064	5.365	11.737	7.396	230.469
-6.147	-5.009	-5.483	-4.324	-1.573	-0.896	11.953	3.813	8.057	15.414	7.745	6.828	4.422	-2.695	-6.518	-9.301	-7.016	-5.986	-4.745	-9.865	-6.915	-2.940	-2.024	4.811	1.951	4.912	11.126	7.009	234.375
-5.985	-4.791	-5.276	-4.102	-1.346	-0.774	11.828	3.716	7.838	14.913	7.484	6.468	4.363	-2.403	-6.221	-8.957	-6.640	-5.855	-4.501	-9.350	-6.436	-2.753	-1.891	4.616	1.768	4.333	10.382	6.519	238.281
-5.755	-4.538	-5.075	-3.848	-1.110	-0.618	11.587	3.594	7.543	14.297	7.136	6.065	4.318	-2.056	-5.876	-8.546	-6.168	-5.651	-4.167	-8.735	-5.876	-2.504	-1.713	4.390	1.520	3.672	9.543	5.949	242.188
-5.478	-4.263	-4.892	-3.584	-0.885	-0.442	11.246	3.456	7.184	13.607	6.716	5.628	4.291	-1.668	-5.496	-8.087	-5.619	-5.362	-3.756	-8.051	-5.259	-2.204	-1.498	4.146	1.219	2.972	8.649	5.324	246.094
-5.173	-3.972	-4.728	-3.323	-0.684	-0.261	10.825	3.302	6.771	12.878	6.239	5.159	4.283	-1.252	-5.092	-7.594	-5.013	-4.985	-3.286	-7.327	-4.608	-1.866	-1.261	3.893	0.876	2.266	7.736	4.666	250.000
-4.854	-3.668	-4.578	-3.069	-0.511	-0.082	10.342	3.130	6.309	12.139	5.716	4.660	4.289	-0.823	-4.675	-7.080	-4.372	-4.525	-2.781	-6.587	-3.938	-1.505	-1.022	3.642	0.507	1.581	6.838	3.992	253.906
-4.528	-3.349	-4.426	-2.819	-0.362	0.098	9.813	2.932	5.800	11.403	5.155	4.129	4.301	-0.394	-4.254	-6.553	-3.719	-4.000	-2.262	-5.847	-3.266	-1.138	-0.803	3.399	0.125	0.932	5.978	3.318	257.812
-4.198	-3.012	-4.256	-2.565	-0.230	0.280	9.251	2.697	5.246	10.675	4.565	3.567	4.311	0.024	-3.841	-6.021	-3.071	-3.435	-1.750	-5.118	-2.604	-0.780	-0.622	3.171	-0.256	0.327	5.175	2.656	261.719
-3.862	-2.656	-4.054	-2.297	-0.105	0.465	8.666	2.420	4.653	9.949	3.954	2.982	4.306	0.418	-3.446	-5.489	-2.440	-2.864	-1.258	-4.406	-1.963	-0.442	-0.489	2.960	-0.624	-0.229	4.436	2.016	265.625
-3.519	-2.283	-3.813	-2.010	0.021	0.651	8.065	2.100	4.031	9.214	3.330	2.386	4.277	0.777	-3.080	-4.958	-1.834	-2.321	-0.798	-3.717	-1.357	-0.135	-0.401	2.768	-0.968	-0.737	3.767	1.412	269.531
-3.171	-1.898	-3.534	-1.703	0.151	0.826	7.455	1.746	3.395	8.463	2.706	1.798	4.215	1.091	-2.746	-4.431	-1.255	-1.836	-0.370	-3.051	-0.796	0.140	-0.344	2.593	-1.278	-1.200	3.167	0.856	273.438
-2.824	-1.510	-3.226	-1.382	0.281	0.976	6.844	1.371	2.766	7.690	2.095	1.236	4.112	1.353	-2.445	-3.907	-0.703	-1.431	0.028	-2.410	-0.291	0.386	-0.291	2.435	-1.550	-1.621	2.630	0.360	277.344
-2.488	-1.128	-2.904	-1.059	0.407	1.088	6.238	0.996	2.165	6.900	1.511	0.718	3.967	1.555	-2.173	-3.385	-0.175	-1.118	0.401	-1.797	0.153	0.611	-0.213	2.292	-1.781	-2.009	2.150	-0.070	281.250
-2.175	-0.758	-2.586	-0.748	0.521	1.154	5.644	0.638	1.609	6.105	0.965	0.255	3.780	1.699	-1.918	-2.865	0.328	-0.897	0.757	-1.211	0.533	0.828	-0.079	2.164	-1.973	-2.370	1.721	-0.431	285.156
-1.895	-0.405	-2.291	-0.460	0.615	1.172	5.071	0.312	1.109	5.320	0.468	-0.149	3.559	1.789	-1.671	-2.347	0.803	-0.761	1.105	-0.654	0.856	1.052	0.133	2.051	-2.131	-2.707	1.337	-0.729	289.062
-1.653	-0.071	-2.033	-0.204	0.686	1.147	4.524	0.025	0.666	4.567	0.026	-0.496	3.313	1.835	-1.422	-1.830	1.248	-0.696	1.450	-0.125	1.131	1.297	0.430	1.953	-2.257	-3.022	0.993	-0.976	292.969
-1.449	0.245	-1.826	0.014	0.736	1.089	4.013	-0.221	0.274	3.870	-0.360	-0.793	3.055	1.854	-1.169	-1.319	1.654	-0.689	1.794	0.378	1.374	1.571	0.801	1.872	-2.357	-3.306	0.689	-1.183	296.875
-1.277	0.542	-1.675	0.196	0.770	1.010	3.544	-0.431	-0.074	3.249	-0.690	-1.049	2.801	1.861	-0.915	-0.821	2.013	-0.727	2.133	0.853	1.599	1.873	1.213	1.810	-2.428	-3.548	0.428	-1.363	300.781
-1.130	0.818	-1.585	0.347	0.800	0.924	3.128	-0.608	-0.386	2.726	-0.968	-1.272	2.566	1.873	-0.672	-0.346	2.314	-0.803	2.458	1.299	1.820	2.192	1.618	1.771	-2.465	-3.733	0.217	-1.520	304.688
-0.999	1.069	-1.557	0.473	0.837	0.842	2.777	-0.755	-0.667	2.317	-1.197	-1.466	2.363	1.905	-0.458	0.090	2.550	-0.911	2.753	1.711	2.045	2.510	1.959	1.755	-2.463	-3.848	0.064	-1.657	308.594
-0.883	1.287	-1.591	0.582	0.895	0.774	2.504	-0.872	-0.912	2.033	-1.383	-1.633	2.206	1.966	-0.292	0.474	2.715	-1.048	3.000	2.079	2.278	2.804	2.189	1.765	-2.413	-3.883	-0.025	-1.767	312.500
-0.783	1.460	-1.685	0.678	0.983	0.725	2.325	-0.954	-1.110	1.878	-1.529	-1.770	2.104	2.062	-0.190	0.788	2.809	-1.211	3.184	2.394	2.514	3.055	2.276	1.800	-2.313	-3.842	-0.048	-1.844	316.406
-0.708	1.576	-1.839	0.762	1.108	0.699	2.251	-0.996	-1.244	1.848	-1.638	-1.873	2.067	2.193	-0.161	1.020	2.836	-1.390	3.292	2.644	2.746	3.248	2.213	1.860	-2.169	-3.733	-0.009	-1.885	320.312
-0.668	1.627	-2.046	0.831	1.267	0.697	2.286	-0.993	-1.300	1.930	-1.714	-1.940	2.100	2.356	-0.206	1.163	2.807	-1.575	3.321	2.818	2.962	3.380	2.023	1.941	-1.996	-3.579	0.085	-1.891	324.219
-0.672	1.605	-2.297	0.883	1.452	0.715	2.429	-0.944	-1.266	2.104	-1.756	-1.970	2.206	2.544	-0.318	1.216	2.737	-1.749	3.279	2.914	3.152	3.458	1.748	2.041	-1.817	-3.405	0.216	-1.871	328.125
-0.721	1.515	-2.580	0.912	1.650	0.752	2.663	-0.852	-1.145	2.341	-1.768	-1.969	2.382	2.753	-0.481	1.187	2.642	-1.896	3.179	2.931	3.308	3.494	1.443	2.158	-1.659	-3.238	0.368	-1.839	332.031
-0.810	1.365	-2.876	0.919	1.845	0.801	2.966	-0.723	-0.953	2.609	-1.755	-1.946	2.622	2.977	-0.677	1.088	2.535	-2.002	3.041	2.881	3.429	3.509	1.164	2.288	-1.548	-3.103	0.521	-1.809	335.938
-0.925	1.174	-3.166	0.906	2.026	0.859	3.307	-0.568	-0.715	2.878	-1.722	-1.913	2.915	3.211	-0.884	0.940	2.423	-2.063	2.890	2.780	3.519	3.520	0.951	2.429	-1.501	-3.017	0.656	-1.796	339.844
-1.045	0.962	-3.433	0.881	2.183	0.917	3.655	-0.398	-0.466	3.122	-1.675	-1.878	3.245	3.453	-1.086	0.761	2.307	-2.083	2.745	2.648	3.587	3.541	0.831	2.577	-1.529	-2.987	0.760	-1.806	343.750
-1.152	0.748	-3.665	0.851	2.314	0.971	3.983	-0.223	-0.236	3.326	-1.613	-1.847	3.597	3.701	-1.268	0.570	2.180	-2.080	2.621	2.506	3.644	3.582	0.808	2.730	-1.626	-3.013	0.827	-1.838	347.656
-1.232	0.542	-3.858	0.824	2.422	1.010	4.276	-0.052	-0.045	3.490	-1.533	-1.816	3.957	3.955	-1.426	0.376	2.030	-2.081	2.522	2.370	3.704	3.642	0.871	2.883	-1.776	-3.084	0.858	-1.883	351.562
-1.284	0.345	-4.020	0.800	2.512	1.027	4.531	0.113	0.101	3.630	-1.425	-1.773	4.313	4.212	-1.561	0.181	1.844	-2.116	2.443	2.249	3.771	3.716	0.999	3.034	-1.953	-3.180	0.864	-1.923	355.469
-1.315	0.147	-4.166	0.772	2.589	1.015	4.761	0.269	0.212	3.775	-1.274	-1.697	4.660	4.466	-1.684	-0.022	1.612	-2.211	2.374	2.140	3.846	3.793	1.167	3.184	-2.126	-3.279	0.863	-1.936	359.375
-1.342	-0.072	-4.317	0.729	2.654	0.972	4.987	0.421	0.308	3.963	-1.061	-1.567	4.997	4.710	-1.810	-0.247	1.327	-2.383	2.294	2.031	3.921	3.857	1.348	3.334	-2.268	-3.353	0.885	-1.900	363.281
-1.385	-0.331	-4.490	0.655	2.708	0.899	5.237	0.575	0.418	4.234	-0.775	-1.364	5.323	4.932	-1.959	-0.509	0.989	-2.634	2.187	1.904	3.979	3.894	1.518	3.484	-2.357	-3.378	0.957	-1.793	367.188
-1.463	-0.643	-4.694	0.537	2.747	0.811	5.531	0.737	0.567	4.613	-0.408	-1.080	5.636	5.120	-2.146	-0.819	0.602	-2.952	2.036	1.738	4.001	3.890	1.652	3.635	-2.382	-3.337	1.109	-1.604	371.094
-1.585	-1.012	-4.930	0.370	2.766	0.723	5.880	0.915	0.774	5.109	0.030	-0.719	5.929	5.258	-2.379	-1.185	0.179	-3.308	1.834	1.517	3.968	3.833	1.732	3.784	-2.342	-3.220	1.354	-1.335	375.000
-1.747	-1.422	-5.182	0.160	2.763	0.656	6.274	1.112	1.045	5.701	0.519	-0.303	6.189	5.335	-2.651	-1.600	-0.267	-3.666	1.580	1.234	3.868	3.718	1.742	3.921	-2.245	-3.034	1.690	-1.001	378.906
-1.930	-1.845	-5.429	-0.077	2.736	0.629	6.689	1.329	1.370	6.343	1.023	0.136	6.394	5.341	-2.945	-2.049	-0.717	-3.985	1.285	0.893	3.698	3.549	1.676	4.036	-2.108	-2.800	2.092	-0.630	382.812
-2.105	-2.241	-5.642	-0.317	2.689	0.650	7.082	1.561	1.727	6.969	1.499	0.556	6.525	5.275	-3.233	-2.507	-1.150	-4.231	0.968	0.511	3.465	3.336	1.539	4.115	-1.948	-2.550	2.517	-0.258	386.719
-2.238	-2.572	-5.797	-0.533	2.629	0.719	7.408	1.799	2.088	7.504	1.903	0.922	6.566	5.141	-3.485	-2.943	-1.546	-4.378	0.653	0.114	3.190	3.097	1.348	4.146	-1.784	-2.322	2.908	0.078	390.625
-2.296	-2.803	-5.876	-0.701	2.562	0.825	7.623	2.028	2.420	7.881	2.202	1.208	6.508	4.954	-3.673	-3.329	-1.889	-4.417	0.363	-0.265	2.899	2.855	1.126	4.121	-1.634	-2.150	3.207	0.350	394.531
-2.255	-2.917	-5.872	-0.803	2.498	0.948	7.698	2.231	2.700	8.056	2.379	1.402	6.359	4.733	-3.778	-3.640	-2.168	-4.354	0.121	-0.596	2.625	2.633	0.905	4.040	-1.512	-2.058	3.368	0.540	398.438
-2.107	-2.914	-5.792	-0.836	2.439	1.061	7.622	2.393	2.912	8.013	2.440	1.516	6.137	4.499	-3.795	-3.863	-2.379	-4.207	-0.057	-0.855	2.395	2.450	0.713	3.905	-1.428	-2.053	3.362	0.645	402.344
-1.859	-2.814	-5.653	-0.808	2.388	1.142	7.403	2.499	3.054	7.774	2.411	1.576	5.871	4.276	-3.732	-3.996	-2.526	-4.003	-0.164	-1.026	2.230	2.316	0.575	3.727	-1.386	-2.125	3.188	0.678	406.250
-1.539	-2.652	-5.484	-0.736	2.340	1.170	7.071	2.544	3.135	7.386	2.333	1.616	5.595	4.080	-3.607	-4.054	-2.618	-3.771	-0.204	-1.110	2.140	2.234	0.502	3.520	-1.387	-2.250	2.871	0.660	410.156
-1.185	-2.469	-5.316	-0.644	2.291	1.135	6.667	2.527	3.171	6.921	2.252	1.674	5.341	3.924	-3.443	-4.059	-2.664	-3.538	-0.190	-1.120	2.121	2.196	0.492	3.300	-1.421	-2.390	2.464	0.618	414.062
-0.845	-2.307	-5.181	-0.555	2.237	1.038	6.240	2.459	3.179	6.453	2.206	1.776	5.136	3.814	-3.267	-4.041	-2.676	-3.324	-0.141	-1.079	2.162	2.188	0.531	3.086	-1.476	-2.510	2.029	0.581	417.969
-0.562	-2.197	-5.104	-0.486	2.177	0.891	5.836	2.354	3.175	6.052	2.214	1.937	4.995	3.750	-3.101	-4.031	-2.667	-3.143	-0.081	-1.014	2.242	2.193	0.591	2.895	-1.532	-2.574	1.636	0.574	421.875
-0.368	-2.159	-5.101	-0.446	2.111	0.717	5.493	2.232	3.169	5.766	2.275	2.152	4.923	3.726	-2.963	-4.055	-2.646	-3.000	-0.034	-0.953	2.338	2.194	0.645	2.742	-1.571	-2.559	1.340	0.613	425.781
-0.279	-2.195	-5.175	-0.436	2.046	0.543	5.233	2.109	3.165	5.620	2.367	2.404	4.912	3.733	-2.864	-4.131	-2.623	-2.896	-0.016	-0.920	2.428	2.179	0.667	2.637	-1.576	-2.457	1.176	0.708	429.688
-0.292	-2.293	-5.315	-0.449	1.987	0.395	5.064	2.004	3.161	5.613	2.462	2.667	4.947	3.758	-2.807	-4.265	-2.606	-2.827	-0.039	-0.932	2.495	2.143	0.644	2.581	-1.540	-2.271	1.155	0.857	433.594
-0.385	-2.430	-5.502	-0.475	1.942	0.292	4.979	1.926	3.152	5.720	2.526	2.910	5.009	3.792	-2.788	-4.453	-2.605	-2.787	-0.101	-0.992	2.529	2.087	0.577	2.571	-1.466	-2.020	1.260	1.046	437.500
-0.527	-2.580	-5.708	-0.501	1.916	0.245	4.960	1.880	3.132	5.902	2.537	3.106	5.080	3.827	-2.798	-4.680	-2.624	-2.770	-0.195	-1.097	2.531	2.021	0.476	2.596	-1.365	-1.729	1.455	1.255	441.406
-0.680	-2.717	-5.905	-0.515	1.915	0.254	4.983	1.864	3.097	6.112	2.482	3.232	5.145	3.858	-2.829	-4.923	-2.664	-2.771	-0.306	-1.231	2.508	1.958	0.363	2.641	-1.255	-1.428	1.694	1.456	445.312
-0.811	-2.822	-6.067	-0.507	1.941	0.314	5.024	1.866	3.044	6.304	2.363	3.275	5.198	3.888	-2.870	-5.155	-2.721	-2.787	-0.416	-1.371	2.476	1.911	0.259	2.692	-1.154	-1.147	1.931	1.621	449.219
-0.892	-2.881	-6.176	-0.468	2.000	0.418	5.065	1.872	2.973	6.436	2.190	3.229	5.238	3.920	-2.916	-5.350	-2.787	-2.811	-0.506	-1.492	2.456	1.890	0.184	2.732	-1.076	-0.911	2.125	1.724	453.125
-0.911	-2.890	-6.220	-0.392	2.091	0.558	5.092	1.863	2.888	6.484	1.980	3.094	5.268	3.961	-2.963	-5.481	-2.848	-2.839	-0.561	-1.571	2.466	1.903	0.151	2.750	-1.028	-0.742	2.247	1.747	457.031
-0.870	-2.847	-6.197	-0.277	2.216	0.725	5.100	1.827	2.794	6.434	1.751	2.874	5.288	4.014	-3.007	-5.533	-2.888	-2.865	-0.570	-1.587	2.519	1.954	0.165	2.736	-1.012	-0.653	2.285	1.680	460.938
-0.780	-2.757	-6.111	-0.123	2.368	0.908	5.092	1.755	2.696	6.292	1.523	2.581	5.296	4.078	-3.043	-5.494	-2.893	-2.886	-0.525	-1.530	2.622	2.040	0.228	2.688	-1.025	-0.655	2.232	1.522	464.844
-0.663	-2.626	-5.969	0.063	2.541	1.095	5.072	1.649	2.599	6.080	1.308	2.229	5.280	4.145	-3.065	-5.367	-2.852	-2.896	-0.427	-1.398	2.770	2.156	0.336	2.603	-1.067	-0.751	2.097	1.283	468.750
-0.540	-2.458	-5.785	0.272	2.722	1.269	5.046	1.517	2.510	5.829	1.120	1.837	5.228	4.204	-3.061	-5.163	-2.761	-2.895	-0.280	-1.202	2.950	2.295	0.486	2.485	-1.136	-0.939	1.892	0.979	472.656
-0.433	-2.262	-5.571	0.493	2.900	1.416	5.019	1.373	2.429	5.578	0.967	1.432	5.126	4.238	-3.024	-4.904	-2.624	-2.887	-0.099	-0.959	3.143	2.445	0.666	2.340	-1.237	-1.211	1.636	0.637	476.562
-0.355	-2.042	-5.340	0.711	3.062	1.523	4.995	1.237	2.361	5.363	0.853	1.043	4.965	4.235	-2.948	-4.616	-2.455	-2.877	0.098	-0.695	3.326	2.592	0.858	2.177	-1.371	-1.546	1.355	0.287	480.469
-0.315	-1.807	-5.103	0.916	3.200	1.586	4.975	1.127	2.303	5.215	0.782	0.701	4.746	4.185	-2.833	-4.330	-2.273	-2.874	0.287	-0.439	3.481	2.717	1.037	2.008	-1.539	-1.920	1.075	-0.039	484.375
-0.314	-1.568	-4.869	1.096	3.310	1.609	4.960	1.057	2.254	5.150	0.750	0.431	4.480	4.089	-2.687	-4.074	-2.101	-2.886	0.445	-0.214	3.592	2.805	1.175	1.845	-1.736	-2.300	0.825	-0.314	488.281
-0.345	-1.334	-4.646	1.247	3.392	1.602	4.951	1.031	2.207	5.168	0.752	0.251	4.189	3.954	-2.522	-3.866	-1.959	-2.916	0.553	-0.038	3.653	2.844	1.250	1.699	-1.953	-2.653	0.626	-0.520	492.188
-0.399	-1.115	-4.439	1.369	3.453	1.582	4.950	1.045	2.152	5.255	0.772	0.161	3.899	3.792	-2.358	-3.714	-1.861	-2.959	0.604	0.079	3.665	2.831	1.252	1.579	-2.173	-2.952	0.490	-0.652	496.094
-0.461	-0.920	-4.252	1.463	3.500	1.570	4.959	1.085	2.077	5.384	0.792	0.147	3.633	3.620	-2.212	-3.615	-1.809	-3.007	0.602	0.144	3.637	2.771	1.184	1.486	-2.375	-3.178	0.414	-0.720	500.000
-0.517	-0.753	-4.087	1.538	3.543	1.580	4.981	1.130	1.973	5.522	0.792	0.183	3.406	3.452	-2.101	-3.555	-1.797	-3.044	0.560	0.166	3.580	2.678	1.068	1.419	-2.538	-3.326	0.385	-0.742	503.906
-0.553	-0.616	-3.946	1.601	3.588	1.622	5.021	1.162	1.836	5.641	0.753	0.232	3.225	3.299	-2.035	-3.514	-1.812	-3.056	0.500	0.165	3.509	2.572	0.936	1.369	-2.645	-3.402	0.376	-0.744	507.812
-0.563	-0.507	-3.827	1.657	3.638	1.697	5.081	1.169	1.674	5.718	0.662	0.260	3.082	3.163	-2.015	-3.473	-1.838	-3.030	0.443	0.158	3.432	2.474	0.825	1.325	-2.684	-3.422	0.362	-0.750	511.719
-0.545	-0.426	-3.730	1.709	3.691	1.798	5.165	1.152	1.501	5.745	0.516	0.238	2.965	3.045	-2.035	-3.416	-1.861	-2.960	0.406	0.156	3.355	2.399	0.770	1.273	-2.658	-3.408	0.318	-0.781	515.625
-0.506	-0.368	-3.650	1.756	3.741	1.913	5.274	1.119	1.343	5.723	0.322	0.148	2.856	2.937	-2.086	-3.338	-1.872	-2.848	0.396	0.165	3.277	2.355	0.790	1.204	-2.576	-3.380	0.231	-0.845	519.531
-0.456	-0.333	-3.580	1.796	3.781	2.030	5.403	1.092	1.227	5.665	0.096	-0.009	2.743	2.829	-2.152	-3.244	-1.871	-2.705	0.410	0.181	3.190	2.338	0.891	1.112	-2.453	-3.353	0.104	-0.944	523.438
-0.407	-0.320	-3.513	1.821	3.802	2.138	5.540	1.090	1.175	5.584	-0.140	-0.217	2.615	2.712	-2.220	-3.147	-1.865	-2.543	0.436	0.190	3.087	2.335	1.051	0.999	-2.308	-3.333	-0.045	-1.067	527.344
-0.369	-0.330	-3.443	1.826	3.797	2.235	5.665	1.131	1.203	5.495	-0.360	-0.447	2.472	2.578	-2.279	-3.069	-1.866	-2.381	0.454	0.179	2.957	2.327	1.238	0.871	-2.150	-3.317	-0.186	-1.195	531.250
-0.347	-0.363	-3.362	1.806	3.760	2.322	5.756	1.223	1.311	5.402	-0.543	-0.663	2.319	2.420	-2.322	-3.031	-1.887	-2.230	0.447	0.130	2.792	2.292	1.405	0.742	-1.988	-3.297	-0.283	-1.306	535.156
-0.339	-0.419	-3.268	1.761	3.691	2.405	5.787	1.362	1.485	5.306	-0.673	-0.831	2.164	2.237	-2.347	-3.051	-1.937	-2.097	0.400	0.035	2.591	2.214	1.515	0.624	-1.820	-3.261	-0.312	-1.378	539.062
-0.339	-0.496	-3.158	1.693	3.595	2.489	5.740	1.535	1.702	5.199	-0.744	-0.925	2.014	2.031	-2.350	-3.136	-2.016	-1.981	0.309	-0.109	2.357	2.090	1.545	0.526	-1.645	-3.202	-0.262	-1.396	542.969
-0.340	-0.587	-3.031	1.611	3.479	2.574	5.605	1.721	1.929	5.070	-0.759	-0.938	1.871	1.809	-2.331	-3.279	-2.118	-1.874	0.185	-0.292	2.101	1.928	1.495	0.451	-1.464	-3.123	-0.149	-1.357	546.875
-0.332	-0.682	-2.888	1.526	3.355	2.658	5.388	1.901	2.135	4.912	-0.734	-0.881	1.732	1.581	-2.286	-3.463	-2.225	-1.765	0.046	-0.493	1.840	1.749	1.388	0.393	-1.283	-3.034	-0.011	-1.273	550.781
-0.307	-0.766	-2.729	1.452	3.240	2.736	5.107	2.057	2.293	4.722	-0.690	-0.780	1.590	1.360	-2.214	-3.658	-2.320	-1.642	-0.080	-0.685	1.598	1.580	1.260	0.341	-1.111	-2.952	0.099	-1.172	554.688
-0.261	-0.823	-2.556	1.404	3.149	2.804	4.794	2.177	2.386	4.504	-0.656	-0.677	1.436	1.161	-2.110	-3.832	-2.381	-1.500	-0.165	-0.837	1.402	1.450	1.152	0.281	-0.963	-2.898	0.125	-1.085	558.594
-0.192	-0.838	-2.374	1.391	3.096	2.863	4.483	2.256	2.409	4.266	-0.661	-0.614	1.263	0.998	-1.976	-3.953	-2.394	-1.338	-0.184	-0.923	1.275	1.378	1.094	0.200	-0.855	-2.892	0.024	-1.046	562.500
-0.103	-0.801	-2.187	1.422	3.091	2.916	4.207	2.295	2.365	4.019	-0.728	-0.629	1.070	0.881	-1.814	-3.997	-2.349	-1.163	-0.126	-0.921	1.234	1.377	1.104	0.095	-0.798	-2.946	-0.224	-1.079	566.406
0.003	-0.705	-2.004	1.497	3.135	2.971	3.985	2.294	2.268	3.771	-0.874	-0.747	0.861	0.819	-1.635	-3.952	-2.244	-0.985	0.011	-0.825	1.285	1.444	1.179	-0.029	-0.796	-3.057	-0.605	-1.197	570.312
0.122	-0.554	-1.833	1.609	3.223	3.031	3.823	2.256	2.132	3.525	-1.108	-0.975	0.648	0.811	-1.451	-3.815	-2.086	-0.818	0.213	-0.638	1.425	1.569	1.303	-0.160	-0.839	-3.212	-1.078	-1.395	574.219
0.250	-0.355	-1.679	1.749	3.341	3.097	3.709	2.180	1.969	3.275	-1.426	-1.305	0.445	0.856	-1.276	-3.597	-1.885	-0.674	0.459	-0.378	1.636	1.734	1.452	-0.276	-0.911	-3.385	-1.581	-1.653	578.125
0.384	-0.123	-1.545	1.900	3.469	3.166	3.619	2.063	1.784	3.009	-1.818	-1.709	0.266	0.944	-1.120	-3.311	-1.654	-0.562	0.725	-0.067	1.893	1.921	1.607	-0.361	-0.989	-3.544	-2.046	-1.943	582.031
0.520	0.126	-1.430	2.049	3.587	3.229	3.519	1.904	1.576	2.707	-2.267	-2.154	0.118	1.060	-0.988	-2.977	-1.406	-0.482	0.988	0.270	2.169	2.114	1.755	-0.402	-1.052	-3.662	-2.416	-2.234	585.938
0.656	0.377	-1.328	2.184	3.679	3.276	3.377	1.703	1.339	2.355	-2.750	-2.602	0.001	1.186	-0.879	-2.611	-1.148	-0.431	1.232	0.607	2.436	2.299	1.892	-0.398	-1.088	-3.721	-2.659	-2.499	589.844
0.785	0.617	-1.231	2.301	3.731	3.300	3.168	1.465	1.071	1.943	-3.241	-3.018	-0.092	1.303	-0.784	-2.227	-0.887	-0.396	1.450	0.929	2.672	2.470	2.022	-0.362	-1.097	-3.719	-2.769	-2.720	593.750
0.902	0.837	-1.130	2.396	3.742	3.292	2.884	1.205	0.773	1.474	-3.710	-3.374	-0.173	1.394	-0.689	-1.836	-0.625	-0.365	1.643	1.223	2.863	2.621	2.150	-0.312	-1.086	-3.670	-2.769	-2.889	597.656
0.996	1.031	-1.016	2.473	3.714	3.251	2.533	0.940	0.455	0.970	-4.129	-3.651	-0.257	1.448	-0.577	-1.449	-0.365	-0.322	1.814	1.488	3.007	2.753	2.276	-0.273	-1.074	-3.601	-2.702	-3.005	601.562
1.057	1.197	-0.885	2.537	3.656	3.175	2.140	0.692	0.138	0.464	-4.471	-3.840	-0.350	1.459	-0.438	-1.074	-0.111	-0.259	1.971	1.725	3.108	2.865	2.396	-0.264	-1.077	-3.541	-2.616	-3.079	605.469
1.076	1.333	-0.738	2.588	3.579	3.071	1.743	0.481	-0.154	0.001	-4.716	-3.940	-0.455	1.432	-0.264	-0.725	0.127	-0.171	2.115	1.936	3.175	2.954	2.500	-0.294	-1.110	-3.516	-2.553	-3.120	609.375
1.043	1.434	-0.583	2.625	3.491	2.944	1.384	0.322	-0.391	-0.375	-4.851	-3.957	-0.563	1.376	-0.057	-0.413	0.333	-0.062	2.247	2.123	3.220	3.021	2.579	-0.362	-1.182	-3.539	-2.538	-3.135	613.281
0.956	1.498	-0.431	2.644	3.397	2.801	1.100	0.221	-0.552	-0.625	-4.873	-3.901	-0.659	1.309	0.172	-0.156	0.489	0.059	2.361	2.285	3.254	3.064	2.625	-0.452	-1.290	-3.607	-2.571	-3.129	617.188
0.817	1.520	-0.300	2.635	3.296	2.648	0.915	0.173	-0.624	-0.732	-4.791	-3.784	-0.726	1.246	0.405	0.034	0.580	0.180	2.447	2.419	3.281	3.082	2.634	-0.541	-1.424	-3.706	-2.636	-3.099	621.094
0.637	1.496	-0.204	2.591	3.186	2.488	0.838	0.169	-0.606	-0.698	-4.623	-3.619	-0.747	1.202	0.621	0.149	0.597	0.284	2.494	2.520	3.305	3.071	2.606	-0.604	-1.561	-3.809	-2.699	-3.039	625.000
0.434	1.430	-0.153	2.507	3.062	2.323	0.860	0.192	-0.509	-0.548	-4.394	-3.419	-0.713	1.187	0.800	0.188	0.543	0.359	2.492	2.583	3.325	3.030	2.539	-0.621	-1.675	-3.888	-2.731	-2.942	628.906
0.234	1.327	-0.148	2.383	2.921	2.157	0.956	0.228	-0.355	-0.324	-4.132	-3.198	-0.627	1.203	0.925	0.158	0.430	0.393	2.435	2.608	3.335	2.958	2.437	-0.585	-1.742	-3.923	-2.709	-2.806	632.812
0.064	1.199	-0.180	2.228	2.763	1.999	1.090	0.266	-0.172	-0.077	-3.868	-2.973	-0.502	1.242	0.990	0.078	0.283	0.387	2.328	2.598	3.333	2.857	2.304	-0.504	-1.744	-3.904	-2.632	-2.637	636.719
-0.053	1.064	-0.234	2.055	2.595	1.857	1.221	0.297	0.010	0.142	-3.629	-2.759	-0.364	1.291	1.001	-0.031	0.133	0.346	2.184	2.560	3.312	2.735	2.152	-0.401	-1.674	-3.839	-2.517	-2.449	640.625
-0.104	0.939	-0.289	1.883	2.427	1.744	1.314	0.318	0.163	0.294	-3.436	-2.576	-0.241	1.336	0.975	-0.143	0.011	0.289	2.023	2.508	3.273	2.603	1.997	-0.308	-1.547	-3.746	-2.400	-2.262	644.531
-0.089	0.843	-0.325	1.735	2.275	1.671	1.343	0.325	0.262	0.353	-3.307	-2.438	-0.164	1.361	0.938	-0.232	-0.053	0.241	1.871	2.455	3.217	2.476	1.860	-0.260	-1.388	-3.652	-2.321	-2.102	648.438
-0.020	0.790	-0.327	1.632	2.155	1.649	1.295	0.318	0.294	0.313	-3.250	-2.360	-0.157	1.354	0.919	-0.279	-0.039	0.231	1.755	2.414	3.150	2.367	1.758	-0.285	-1.234	-3.589	-2.319	-1.997	652.344
0.082	0.792	-0.282	1.591	2.083	1.684	1.178	0.298	0.254	0.185	-3.263	-2.348	-0.233	1.313	0.941	-0.270	0.061	0.280	1.692	2.398	3.079	2.285	1.703	-0.401	-1.126	-3.586	-2.420	-1.969	656.250
0.193	0.854	-0.189	1.622	2.071	1.781	1.012	0.266	0.150	-0.004	-3.338	-2.405	-0.391	1.238	1.018	-0.200	0.239	0.398	1.691	2.413	3.016	2.233	1.696	-0.607	-1.099	-3.664	-2.630	-2.033	660.156
0.294	0.973	-0.053	1.724	2.122	1.934	0.831	0.226	-0.000	-0.223	-3.457	-2.521	-0.613	1.142	1.146	-0.074	0.475	0.579	1.748	2.461	2.967	2.209	1.730	-0.885	-1.173	-3.833	-2.935	-2.191	664.062
0.370	1.135	0.110	1.884	2.232	2.130	0.670	0.181	-0.172	-0.436	-3.598	-2.682	-0.870	1.038	1.307	0.093	0.743	0.798	1.848	2.538	2.942	2.206	1.791	-1.200	-1.351	-4.084	-3.299	-2.429	667.969
0.417	1.317	0.280	2.077	2.385	2.345	0.561	0.137	-0.338	-0.612	-3.733	-2.861	-1.124	0.946	1.471	0.278	1.012	1.021	1.972	2.630	2.943	2.216	1.862	-1.510	-1.614	-4.391	-3.671	-2.715	671.875
0.436	1.488	0.429	2.271	2.557	2.549	0.524	0.101	-0.472	-0.730	-3.839	-3.028	-1.333	0.884	1.602	0.456	1.250	1.205	2.096	2.721	2.969	2.229	1.929	-1.768	-1.925	-4.712	-3.992	-3.008	675.781
0.429	1.615	0.531	2.427	2.717	2.709	0.565	0.081	-0.550	-0.776	-3.896	-3.154	-1.460	0.866	1.670	0.597	1.431	1.311	2.199	2.790	3.016	2.240	1.978	-1.935	-2.235	-4.996	-4.205	-3.256	679.688
0.401	1.666	0.562	2.515	2.835	2.798	0.677	0.085	-0.560	-0.748	-3.894	-3.210	-1.477	0.901	1.655	0.678	1.536	1.312	2.266	2.821	3.074	2.243	1.999	-1.984	-2.494	-5.191	-4.266	-3.411	683.594
0.351	1.622	0.505	2.512	2.890	2.794	0.842	0.118	-0.495	-0.651	-3.831	-3.180	-1.373	0.988	1.552	0.681	1.551	1.196	2.286	2.800	3.134	2.233	1.984	-1.905	-2.656	-5.258	-4.151	-3.441	687.500
0.278	1.476	0.356	2.412	2.867	2.692	1.036	0.181	-0.362	-0.497	-3.718	-3.058	-1.150	1.121	1.376	0.602	1.476	0.972	2.258	2.723	3.189	2.209	1.928	-1.707	-2.697	-5.176	-3.864	-3.330	691.406
0.180	1.243	0.125	2.225	2.768	2.503	1.237	0.270	-0.178	-0.301	-3.567	-2.851	-0.831	1.284	1.154	0.450	1.318	0.670	2.183	2.598	3.232	2.169	1.828	-1.418	-2.612	-4.948	-3.434	-3.087	695.312
0.059	0.952	-0.165	1.980	2.607	2.249	1.422	0.371	0.034	-0.082	-3.397	-2.581	-0.449	1.460	0.920	0.248	1.094	0.334	2.068	2.440	3.260	2.112	1.688	-1.073	-2.421	-4.603	-2.911	-2.742	699.219
-0.081	0.645	-0.482	1.711	2.408	1.963	1.573	0.464	0.242	0.140	-3.226	-2.278	-0.046	1.629	0.710	0.028	0.831	0.013	1.927	2.273	3.273	2.041	1.516	-0.716	-2.162	-4.184	-2.359	-2.340	703.125
-0.228	0.367	-0.790	1.457	2.199	1.681	1.676	0.521	0.413	0.344	-3.067	-1.976	0.335	1.774	0.551	-0.175	0.562	-0.248	1.772	2.123	3.275	1.960	1.325	-0.387	-1.883	-3.741	-1.840	-1.932	707.031
-0.368	0.157	-1.055	1.250	2.008	1.436	1.722	0.516	0.519	0.510	-2.931	-1.706	0.657	1.883	0.461	-0.329	0.321	-0.411	1.620	2.014	3.272	1.877	1.137	-0.119	-1.629	-3.320	-1.407	-1.564	710.938
-0.488	0.038	-1.256	1.111	1.854	1.250	1.701	0.425	0.538	0.616	-2.824	-1.491	0.896	1.950	0.446	-0.411	0.140	-0.459	1.486	1.960	3.268	1.803	0.974	0.069	-1.434	-2.958	-1.096	-1.267	714.844
-0.577	0.018	-1.382	1.046	1.748	1.134	1.612	0.233	0.461	0.646	-2.753	-1.341	1.042	1.978	0.501	-0.412	0.041	-0.391	1.383	1.966	3.268	1.748	0.859	0.175	-1.314	-2.675	-0.917	-1.057	718.750
-0.634	0.083	-1.437	1.045	1.689	1.087	1.455	-0.056	0.293	0.587	-2.720	-1.256	1.101	1.972	0.613	-0.340	0.036	-0.224	1.321	2.026	3.275	1.723	0.811	0.208	-1.264	-2.476	-0.860	-0.935	722.656
-0.657	0.208	-1.432	1.088	1.665	1.098	1.239	-0.420	0.052	0.438	-2.726	-1.223	1.089	1.943	0.764	-0.214	0.121	0.009	1.302	2.122	3.290	1.734	0.838	0.190	-1.265	-2.354	-0.904	-0.887	726.562
-0.653	0.359	-1.385	1.152	1.662	1.147	0.978	-0.821	-0.231	0.208	-2.770	-1.227	1.029	1.903	0.935	-0.058	0.281	0.272	1.328	2.233	3.309	1.783	0.938	0.141	-1.287	-2.297	-1.016	-0.896	730.469
-0.624	0.506	-1.314	1.212	1.661	1.213	0.693	-1.210	-0.519	-0.083	-2.847	-1.252	0.945	1.862	1.107	0.100	0.492	0.528	1.392	2.337	3.328	1.865	1.096	0.081	-1.304	-2.289	-1.171	-0.949	734.375
-0.575	0.624	-1.233	1.251	1.650	1.275	0.410	-1.537	-0.774	-0.404	-2.949	-1.288	0.855	1.829	1.264	0.241	0.725	0.747	1.486	2.420	3.345	1.972	1.292	0.020	-1.296	-2.318	-1.349	-1.035	738.281
-0.510	0.702	-1.152	1.260	1.622	1.322	0.155	-1.759	-0.966	-0.723	-3.064	-1.332	0.771	1.811	1.398	0.355	0.954	0.911	1.600	2.475	3.357	2.091	1.497	-0.039	-1.260	-2.379	-1.542	-1.154	742.188
-0.433	0.741	-1.076	1.241	1.581	1.350	-0.046	-1.849	-1.073	-1.005	-3.178	-1.385	0.697	1.810	1.507	0.443	1.158	1.013	1.725	2.508	3.368	2.205	1.681	-0.099	-1.206	-2.471	-1.751	-1.309	746.094
-0.351	0.751	-1.012	1.205	1.539	1.364	-0.172	-1.800	-1.087	-1.223	-3.273	-1.453	0.634	1.829	1.592	0.516	1.323	1.054	1.850	2.531	3.385	2.302	1.815	-0.169	-1.152	-2.594	-1.982	-1.502	750.000
-0.270	0.748	-0.963	1.166	1.509	1.376	-0.213	-1.628	-1.015	-1.359	-3.334	-1.540	0.576	1.868	1.661	0.589	1.446	1.046	1.965	2.564	3.416	2.368	1.874	-0.252	-1.119	-2.748	-2.235	-1.732	753.906
-0.202	0.746	-0.935	1.139	1.507	1.393	-0.169	-1.369	-0.878	-1.407	-3.351	-1.645	0.522	1.926	1.718	0.677	1.530	1.001	2.063	2.625	3.471	2.397	1.847	-0.348	-1.121	-2.926	-2.504	-1.987	757.812
-0.152	0.756	-0.936	1.133	1.540	1.422	-0.051	-1.071	-0.706	-1.372	-3.321	-1.762	0.473	2.001	1.766	0.786	1.579	0.931	2.140	2.723	3.556	2.392	1.738	-0.445	-1.167	-3.117	-2.767	-2.248	761.719
-0.125	0.782	-0.970	1.151	1.606	1.462	0.119	-0.793	-0.535	-1.271	-3.252	-1.881	0.433	2.090	1.801	0.916	1.602	0.847	2.193	2.859	3.670	2.366	1.575	-0.525	-1.254	-3.304	-2.993	-2.488	765.625
-0.120	0.818	-1.039	1.190	1.696	1.504	0.313	-0.586	-0.400	-1.126	-3.159	-1.988	0.412	2.188	1.812	1.055	1.602	0.756	2.225	3.020	3.805	2.339	1.403	-0.561	-1.369	-3.465	-3.140	-2.678	769.531
-0.131	0.857	-1.144	1.236	1.790	1.537	0.503	-0.495	-0.329	-0.965	-3.065	-2.069	0.421	2.288	1.787	1.183	1.585	0.665	2.241	3.184	3.946	2.336	1.285	-0.528	-1.494	-3.580	-3.170	-2.795	773.438
-0.154	0.884	-1.281	1.276	1.864	1.545	0.663	-0.546	-0.341	-0.810	-2.992	-2.113	0.470	2.384	1.713	1.279	1.554	0.576	2.246	3.323	4.071	2.384	1.281	-0.401	-1.607	-3.631	-3.050	-2.824	777.344
-0.181	0.888	-1.445	1.293	1.898	1.514	0.777	-0.746	-0.440	-0.679	-2.956	-2.114	0.567	2.467	1.581	1.324	1.514	0.494	2.245	3.413	4.163	2.503	1.445	-0.166	-1.691	-3.608	-2.765	-2.764	781.250
-0.209	0.862	-1.633	1.279	1.876	1.437	0.838	-1.086	-0.618	-0.582	-2.968	-2.070	0.712	2.534	1.388	1.307	1.469	0.420	2.245	3.437	4.207	2.701	1.802	0.179	-1.732	-3.511	-2.318	-2.621	785.156
-0.234	0.803	-1.837	1.229	1.797	1.314	0.848	-1.538	-0.858	-0.520	-3.026	-1.989	0.900	2.582	1.143	1.230	1.424	0.354	2.248	3.395	4.201	2.976	2.348	0.622	-1.727	-3.350	-1.734	-2.415	789.062
-0.256	0.715	-2.053	1.148	1.669	1.151	0.821	-2.062	-1.137	-0.486	-3.122	-1.881	1.120	2.616	0.857	1.104	1.381	0.296	2.255	3.296	4.152	3.311	3.043	1.138	-1.685	-3.144	-1.051	-2.169	792.969
-0.275	0.611	-2.273	1.047	1.511	0.966	0.775	-2.616	-1.431	-0.468	-3.239	-1.760	1.357	2.641	0.549	0.951	1.340	0.239	2.267	3.165	4.078	3.680	3.822	1.690	-1.619	-2.917	-0.322	-1.906	796.875
