FP1	F3	F7	FC3	C3	C5	P3	P7	PO7	PO3	O1	Oz	Pz	CPz	FP2	Fz	F4	F8	FC4	FCz	Cz	C4	C6	P4	P8	PO8	PO4	O2	time
-0.296	-0.717	0.306	0.050	0.821	-0.673	0.286	0.431	-0.905	0.124	0.276	-0.170	0.880	1.618	0.300	0.117	0.122	-0.585	0.122	1.432	1.709	0.122	-1.166	-0.238	0.244	-0.517	-0.035	-0.839	-199.219
-0.332	-0.599	0.107	0.138	0.858	-0.365	0.119	0.133	-0.896	-0.221	0.142	-0.030	0.828	1.519	0.361	0.188	0.324	-0.709	0.363	1.398	1.701	0.341	-0.555	-0.291	-0.037	-0.460	-0.082	-0.692	-195.312
-0.344	-0.481	-0.073	0.213	0.875	-0.092	-0.046	-0.143	-0.900	-0.546	-0.004	0.088	0.762	1.410	0.416	0.253	0.506	-0.809	0.585	1.352	1.677	0.539	0.005	-0.322	-0.279	-0.391	-0.133	-0.560	-191.406
-0.321	-0.370	-0.218	0.266	0.858	0.116	-0.201	-0.374	-0.923	-0.828	-0.166	0.165	0.676	1.286	0.459	0.302	0.650	-0.870	0.775	1.285	1.622	0.702	0.475	-0.317	-0.452	-0.303	-0.187	-0.453	-187.500
-0.260	-0.270	-0.317	0.287	0.796	0.240	-0.339	-0.547	-0.968	-1.053	-0.342	0.191	0.568	1.146	0.485	0.328	0.744	-0.886	0.919	1.192	1.528	0.818	0.830	-0.263	-0.537	-0.189	-0.238	-0.374	-183.594
-0.169	-0.188	-0.362	0.274	0.690	0.275	-0.454	-0.659	-1.029	-1.211	-0.523	0.167	0.445	0.991	0.493	0.328	0.781	-0.861	1.010	1.074	1.396	0.884	1.057	-0.158	-0.530	-0.045	-0.274	-0.320	-179.688
-0.068	-0.131	-0.353	0.230	0.546	0.227	-0.538	-0.715	-1.095	-1.299	-0.692	0.101	0.319	0.830	0.482	0.300	0.760	-0.802	1.043	0.938	1.232	0.902	1.157	-0.010	-0.441	0.123	-0.281	-0.281	-175.781
0.022	-0.103	-0.297	0.162	0.380	0.115	-0.584	-0.723	-1.148	-1.315	-0.829	0.005	0.204	0.671	0.454	0.245	0.688	-0.720	1.018	0.793	1.052	0.877	1.145	0.166	-0.291	0.305	-0.247	-0.248	-171.875
0.077	-0.108	-0.207	0.079	0.212	-0.035	-0.583	-0.690	-1.171	-1.258	-0.918	-0.104	0.115	0.526	0.412	0.167	0.575	-0.629	0.942	0.648	0.871	0.817	1.040	0.349	-0.109	0.483	-0.166	-0.213	-167.969
0.079	-0.145	-0.099	-0.008	0.060	-0.196	-0.530	-0.620	-1.147	-1.129	-0.943	-0.209	0.061	0.405	0.359	0.069	0.438	-0.540	0.824	0.511	0.703	0.731	0.865	0.515	0.076	0.634	-0.043	-0.173	-164.062
0.019	-0.210	0.009	-0.089	-0.057	-0.341	-0.422	-0.513	-1.065	-0.934	-0.899	-0.297	0.045	0.312	0.299	-0.040	0.293	-0.462	0.676	0.387	0.560	0.629	0.645	0.643	0.236	0.737	0.112	-0.128	-160.156
-0.100	-0.296	0.098	-0.153	-0.127	-0.448	-0.264	-0.373	-0.924	-0.680	-0.793	-0.359	0.062	0.247	0.236	-0.155	0.154	-0.401	0.514	0.279	0.447	0.518	0.407	0.715	0.353	0.777	0.279	-0.081	-156.250
-0.262	-0.391	0.154	-0.196	-0.148	-0.502	-0.067	-0.207	-0.732	-0.385	-0.640	-0.391	0.100	0.205	0.174	-0.265	0.035	-0.356	0.353	0.185	0.361	0.406	0.175	0.723	0.416	0.749	0.436	-0.038	-152.344
-0.444	-0.481	0.171	-0.215	-0.123	-0.496	0.147	-0.027	-0.505	-0.070	-0.464	-0.394	0.142	0.179	0.117	-0.361	-0.059	-0.325	0.208	0.106	0.299	0.301	-0.027	0.669	0.422	0.654	0.563	-0.003	-148.438
-0.613	-0.551	0.147	-0.208	-0.064	-0.431	0.354	0.147	-0.267	0.236	-0.292	-0.373	0.172	0.161	0.067	-0.432	-0.123	-0.299	0.089	0.042	0.252	0.206	-0.179	0.562	0.376	0.507	0.643	0.022	-144.531
-0.739	-0.588	0.090	-0.180	0.014	-0.320	0.526	0.290	-0.045	0.505	-0.146	-0.333	0.179	0.145	0.027	-0.470	-0.159	-0.269	0.005	-0.006	0.217	0.128	-0.270	0.421	0.287	0.326	0.669	0.033	-140.625
-0.797	-0.584	0.011	-0.136	0.094	-0.179	0.639	0.379	0.138	0.710	-0.044	-0.279	0.157	0.129	-0.001	-0.473	-0.172	-0.229	-0.043	-0.038	0.192	0.070	-0.293	0.266	0.166	0.132	0.643	0.031	-136.719
-0.771	-0.537	-0.074	-0.086	0.157	-0.030	0.676	0.397	0.263	0.832	0.005	-0.216	0.110	0.117	-0.016	-0.443	-0.167	-0.174	-0.055	-0.051	0.176	0.036	-0.251	0.123	0.028	-0.051	0.575	0.019	-132.812
-0.663	-0.453	-0.154	-0.038	0.192	0.105	0.631	0.337	0.322	0.864	0.003	-0.147	0.048	0.112	-0.019	-0.385	-0.152	-0.107	-0.037	-0.046	0.174	0.029	-0.154	0.013	-0.115	-0.203	0.486	0.001	-128.906
-0.486	-0.346	-0.217	-0.004	0.190	0.207	0.509	0.206	0.315	0.810	-0.041	-0.071	-0.015	0.119	-0.012	-0.313	-0.134	-0.038	0.003	-0.027	0.186	0.048	-0.020	-0.047	-0.247	-0.307	0.398	-0.015	-125.000
-0.263	-0.232	-0.258	0.012	0.149	0.265	0.327	0.024	0.258	0.688	-0.110	0.011	-0.065	0.140	0.000	-0.238	-0.121	0.023	0.053	0.002	0.213	0.087	0.123	-0.047	-0.357	-0.355	0.331	-0.022	-121.094
-0.022	-0.127	-0.272	0.007	0.075	0.275	0.112	-0.178	0.170	0.525	-0.185	0.100	-0.093	0.171	0.010	-0.173	-0.116	0.061	0.098	0.036	0.253	0.137	0.245	0.012	-0.434	-0.346	0.297	-0.014	-117.188
0.211	-0.041	-0.258	-0.015	-0.019	0.245	-0.107	-0.368	0.077	0.348	-0.251	0.192	-0.095	0.206	0.009	-0.124	-0.119	0.067	0.126	0.069	0.298	0.182	0.316	0.119	-0.476	-0.292	0.297	0.010	-113.281
0.416	0.022	-0.217	-0.042	-0.115	0.189	-0.301	-0.515	0.001	0.186	-0.294	0.280	-0.072	0.237	-0.010	-0.090	-0.123	0.034	0.126	0.099	0.341	0.210	0.317	0.251	-0.484	-0.214	0.321	0.045	-109.375
0.583	0.066	-0.158	-0.063	-0.194	0.127	-0.447	-0.598	-0.038	0.061	-0.308	0.354	-0.036	0.254	-0.049	-0.064	-0.122	-0.034	0.096	0.126	0.372	0.208	0.242	0.382	-0.467	-0.138	0.347	0.080	-105.469
0.705	0.102	-0.093	-0.063	-0.239	0.078	-0.532	-0.609	-0.031	-0.014	-0.290	0.400	0.001	0.249	-0.108	-0.032	-0.107	-0.128	0.037	0.153	0.384	0.170	0.104	0.483	-0.437	-0.091	0.352	0.102	-101.562
0.784	0.139	-0.039	-0.033	-0.240	0.054	-0.549	-0.553	0.023	-0.035	-0.246	0.408	0.026	0.220	-0.180	0.018	-0.073	-0.228	-0.042	0.184	0.373	0.099	-0.072	0.531	-0.408	-0.091	0.312	0.101	-97.656
0.819	0.185	-0.014	0.026	-0.198	0.058	-0.504	-0.447	0.115	-0.004	-0.179	0.371	0.030	0.166	-0.251	0.096	-0.019	-0.313	-0.127	0.222	0.339	0.002	-0.253	0.512	-0.389	-0.143	0.216	0.068	-93.750
0.809	0.243	-0.033	0.108	-0.122	0.084	-0.406	-0.318	0.231	0.070	-0.097	0.291	0.011	0.095	-0.309	0.206	0.052	-0.361	-0.204	0.270	0.286	-0.105	-0.406	0.429	-0.382	-0.237	0.065	0.004	-89.844
0.752	0.309	-0.102	0.199	-0.029	0.116	-0.270	-0.193	0.348	0.174	-0.008	0.175	-0.026	0.016	-0.340	0.341	0.130	-0.355	-0.259	0.325	0.224	-0.205	-0.505	0.295	-0.383	-0.348	-0.127	-0.081	-85.938
0.648	0.373	-0.219	0.280	0.059	0.139	-0.113	-0.097	0.447	0.291	0.080	0.035	-0.068	-0.057	-0.335	0.489	0.206	-0.286	-0.281	0.383	0.161	-0.281	-0.536	0.134	-0.381	-0.449	-0.335	-0.176	-82.031
0.499	0.427	-0.368	0.335	0.124	0.139	0.051	-0.046	0.506	0.407	0.162	-0.112	-0.101	-0.112	-0.290	0.632	0.270	-0.159	-0.267	0.436	0.105	-0.321	-0.492	-0.027	-0.362	-0.515	-0.529	-0.264	-78.125
0.315	0.460	-0.528	0.352	0.152	0.109	0.210	-0.045	0.516	0.506	0.232	-0.254	-0.113	-0.143	-0.211	0.752	0.315	0.012	-0.220	0.474	0.059	-0.316	-0.381	-0.161	-0.317	-0.532	-0.684	-0.333	-74.219
0.113	0.468	-0.669	0.328	0.140	0.051	0.351	-0.083	0.477	0.578	0.289	-0.378	-0.097	-0.147	-0.110	0.832	0.338	0.203	-0.147	0.487	0.023	-0.271	-0.222	-0.252	-0.240	-0.500	-0.780	-0.374	-70.312
-0.085	0.451	-0.764	0.266	0.091	-0.023	0.466	-0.141	0.397	0.613	0.332	-0.477	-0.055	-0.130	-0.006	0.862	0.338	0.386	-0.064	0.466	-0.011	-0.197	-0.043	-0.292	-0.131	-0.427	-0.812	-0.383	-66.406
-0.255	0.414	-0.790	0.180	0.019	-0.098	0.549	-0.192	0.297	0.608	0.359	-0.548	0.000	-0.104	0.084	0.837	0.316	0.537	0.013	0.407	-0.054	-0.116	0.121	-0.290	0.002	-0.330	-0.785	-0.361	-62.500
-0.377	0.368	-0.732	0.086	-0.059	-0.156	0.593	-0.212	0.198	0.564	0.372	-0.590	0.054	-0.085	0.146	0.762	0.274	0.642	0.063	0.307	-0.119	-0.053	0.230	-0.262	0.152	-0.224	-0.714	-0.313	-58.594
-0.436	0.322	-0.590	0.003	-0.127	-0.185	0.595	-0.181	0.123	0.483	0.370	-0.605	0.087	-0.088	0.171	0.644	0.211	0.696	0.070	0.168	-0.214	-0.035	0.252	-0.229	0.309	-0.123	-0.621	-0.247	-54.688
-0.428	0.285	-0.373	-0.057	-0.173	-0.176	0.554	-0.088	0.088	0.378	0.356	-0.592	0.085	-0.127	0.158	0.495	0.130	0.708	0.023	-0.005	-0.346	-0.081	0.167	-0.214	0.463	-0.035	-0.524	-0.170	-50.781
-0.358	0.264	-0.104	-0.086	-0.191	-0.131	0.472	0.065	0.103	0.260	0.333	-0.552	0.042	-0.209	0.112	0.328	0.030	0.697	-0.081	-0.204	-0.513	-0.195	-0.025	-0.230	0.608	0.037	-0.438	-0.088	-46.875
-0.242	0.261	0.189	-0.087	-0.188	-0.061	0.355	0.261	0.167	0.145	0.307	-0.483	-0.043	-0.332	0.043	0.155	-0.085	0.682	-0.234	-0.421	-0.711	-0.366	-0.297	-0.280	0.731	0.093	-0.368	-0.003	-42.969
-0.098	0.275	0.473	-0.068	-0.176	0.023	0.215	0.477	0.271	0.045	0.284	-0.382	-0.160	-0.490	-0.039	-0.013	-0.209	0.680	-0.418	-0.649	-0.930	-0.571	-0.601	-0.358	0.822	0.135	-0.310	0.086	-39.062
0.053	0.302	0.719	-0.044	-0.172	0.105	0.064	0.684	0.400	-0.030	0.272	-0.251	-0.296	-0.673	-0.126	-0.169	-0.332	0.700	-0.609	-0.879	-1.157	-0.774	-0.876	-0.446	0.868	0.163	-0.256	0.180	-35.156
0.194	0.332	0.902	-0.030	-0.195	0.172	-0.080	0.854	0.537	-0.075	0.281	-0.091	-0.433	-0.868	-0.211	-0.311	-0.447	0.741	-0.781	-1.106	-1.383	-0.940	-1.063	-0.524	0.859	0.181	-0.196	0.281	-31.250
0.311	0.357	1.010	-0.040	-0.256	0.215	-0.200	0.968	0.667	-0.088	0.318	0.094	-0.556	-1.062	-0.292	-0.439	-0.547	0.794	-0.912	-1.326	-1.598	-1.042	-1.115	-0.577	0.791	0.193	-0.123	0.390	-27.344
0.394	0.365	1.038	-0.084	-0.360	0.230	-0.280	1.021	0.781	-0.071	0.390	0.297	-0.653	-1.246	-0.369	-0.557	-0.628	0.846	-0.991	-1.538	-1.797	-1.069	-1.016	-0.595	0.669	0.204	-0.037	0.507	-23.438
0.440	0.345	0.994	-0.167	-0.504	0.219	-0.306	1.022	0.878	-0.023	0.503	0.513	-0.717	-1.412	-0.442	-0.673	-0.694	0.884	-1.016	-1.741	-1.979	-1.024	-0.779	-0.576	0.509	0.222	0.059	0.631	-19.531
0.445	0.290	0.893	-0.285	-0.676	0.190	-0.273	0.993	0.965	0.057	0.657	0.732	-0.747	-1.557	-0.512	-0.793	-0.754	0.903	-1.001	-1.935	-2.145	-0.929	-0.449	-0.528	0.333	0.254	0.156	0.761	-15.625
0.412	0.198	0.757	-0.431	-0.856	0.152	-0.180	0.962	1.052	0.165	0.847	0.945	-0.747	-1.679	-0.578	-0.922	-0.820	0.901	-0.965	-2.119	-2.298	-0.814	-0.089	-0.463	0.170	0.303	0.246	0.896	-11.719
0.345	0.075	0.607	-0.591	-1.024	0.116	-0.034	0.957	1.151	0.302	1.059	1.139	-0.723	-1.777	-0.637	-1.063	-0.904	0.883	-0.932	-2.291	-2.440	-0.713	0.233	-0.396	0.046	0.373	0.321	1.032	-7.812
0.252	-0.069	0.464	-0.747	-1.162	0.093	0.148	1.000	1.268	0.460	1.274	1.301	-0.685	-1.853	-0.690	-1.212	-1.016	0.856	-0.922	-2.448	-2.571	-0.652	0.463	-0.339	-0.021	0.464	0.377	1.164	-3.906
0.143	-0.218	0.345	-0.883	-1.255	0.088	0.350	1.102	1.403	0.632	1.471	1.416	-0.639	-1.907	-0.736	-1.362	-1.160	0.830	-0.946	-2.585	-2.688	-0.647	0.565	-0.301	-0.023	0.577	0.417	1.285	0.000
0.030	-0.355	0.258	-0.986	-1.297	0.101	0.551	1.262	1.548	0.808	1.625	1.473	-0.591	-1.938	-0.776	-1.506	-1.333	0.811	-1.007	-2.695	-2.787	-0.699	0.535	-0.282	0.034	0.707	0.446	1.387	3.906
-0.077	-0.466	0.203	-1.047	-1.290	0.129	0.733	1.464	1.691	0.974	1.719	1.465	-0.541	-1.944	-0.811	-1.632	-1.523	0.803	-1.097	-2.776	-2.863	-0.799	0.388	-0.282	0.136	0.852	0.472	1.460	7.812
-0.168	-0.540	0.175	-1.066	-1.243	0.162	0.881	1.685	1.818	1.120	1.742	1.392	-0.489	-1.924	-0.841	-1.732	-1.712	0.807	-1.201	-2.824	-2.913	-0.926	0.159	-0.295	0.262	1.005	0.504	1.496	11.719
-0.238	-0.573	0.165	-1.049	-1.169	0.192	0.985	1.900	1.912	1.233	1.695	1.265	-0.432	-1.879	-0.865	-1.801	-1.878	0.823	-1.300	-2.838	-2.935	-1.059	-0.112	-0.316	0.391	1.156	0.544	1.488	15.625
-0.282	-0.568	0.164	-1.005	-1.086	0.210	1.038	2.080	1.963	1.301	1.589	1.102	-0.369	-1.809	-0.877	-1.834	-1.996	0.853	-1.376	-2.821	-2.932	-1.176	-0.384	-0.341	0.508	1.290	0.592	1.432	19.531
-0.300	-0.529	0.164	-0.947	-1.010	0.208	1.037	2.206	1.963	1.314	1.443	0.924	-0.304	-1.721	-0.872	-1.830	-2.046	0.896	-1.413	-2.777	-2.905	-1.263	-0.625	-0.370	0.603	1.388	0.638	1.329	23.438
-0.294	-0.466	0.164	-0.886	-0.953	0.184	0.982	2.263	1.908	1.263	1.281	0.759	-0.244	-1.624	-0.843	-1.792	-2.017	0.955	-1.403	-2.710	-2.861	-1.308	-0.809	-0.404	0.671	1.430	0.677	1.190	27.344
-0.268	-0.387	0.168	-0.829	-0.922	0.141	0.877	2.245	1.804	1.148	1.125	0.629	-0.198	-1.532	-0.789	-1.723	-1.904	1.032	-1.343	-2.628	-2.807	-1.311	-0.920	-0.443	0.711	1.397	0.702	1.029	31.250
-0.234	-0.301	0.179	-0.781	-0.919	0.088	0.732	2.155	1.659	0.978	0.996	0.554	-0.176	-1.459	-0.711	-1.631	-1.720	1.123	-1.240	-2.539	-2.751	-1.274	-0.954	-0.482	0.724	1.278	0.717	0.870	35.156
-0.205	-0.217	0.199	-0.746	-0.939	0.032	0.563	2.002	1.490	0.776	0.907	0.543	-0.187	-1.421	-0.619	-1.530	-1.487	1.222	-1.108	-2.455	-2.703	-1.204	-0.912	-0.512	0.712	1.076	0.742	0.742	39.062
-0.201	-0.147	0.226	-0.728	-0.980	-0.017	0.396	1.805	1.322	0.582	0.871	0.597	-0.235	-1.429	-0.529	-1.437	-1.239	1.313	-0.966	-2.391	-2.675	-1.113	-0.803	-0.517	0.679	0.815	0.809	0.678	42.969
-0.240	-0.104	0.248	-0.735	-1.037	-0.056	0.262	1.586	1.183	0.446	0.891	0.708	-0.317	-1.492	-0.465	-1.379	-1.020	1.373	-0.841	-2.367	-2.682	-1.017	-0.641	-0.472	0.635	0.540	0.967	0.710	46.875
-0.345	-0.107	0.244	-0.778	-1.109	-0.090	0.200	1.375	1.108	0.428	0.972	0.860	-0.421	-1.610	-0.457	-1.386	-0.875	1.374	-0.762	-2.404	-2.738	-0.931	-0.449	-0.353	0.600	0.319	1.271	0.868	50.781
-0.533	-0.177	0.191	-0.875	-1.201	-0.131	0.249	1.202	1.129	0.580	1.112	1.036	-0.524	-1.773	-0.534	-1.488	-0.848	1.286	-0.757	-2.526	-2.857	-0.873	-0.251	-0.137	0.598	0.230	1.772	1.174	54.688
-0.813	-0.334	0.062	-1.040	-1.314	-0.195	0.443	1.097	1.274	0.944	1.310	1.220	-0.600	-1.964	-0.719	-1.711	-0.973	1.086	-0.848	-2.748	-3.044	-0.857	-0.081	0.192	0.660	0.350	2.506	1.634	58.594
-1.185	-0.589	-0.161	-1.283	-1.450	-0.294	0.805	1.083	1.557	1.531	1.552	1.393	-0.614	-2.157	-1.026	-2.068	-1.263	0.766	-1.045	-3.076	-3.295	-0.893	0.033	0.638	0.810	0.731	3.473	2.234	62.500
-1.635	-0.941	-0.482	-1.601	-1.604	-0.436	1.334	1.169	1.970	2.316	1.814	1.535	-0.534	-2.318	-1.446	-2.552	-1.708	0.339	-1.343	-3.498	-3.591	-0.983	0.066	1.187	1.063	1.389	4.632	2.935	66.406
-2.131	-1.367	-0.889	-1.970	-1.759	-0.616	2.007	1.347	2.481	3.229	2.058	1.623	-0.336	-2.413	-1.951	-3.133	-2.270	-0.159	-1.716	-3.981	-3.899	-1.113	0.006	1.807	1.414	2.283	5.891	3.674	70.312
-2.628	-1.818	-1.347	-2.349	-1.893	-0.815	2.770	1.592	3.027	4.163	2.228	1.629	-0.009	-2.410	-2.489	-3.751	-2.883	-0.666	-2.119	-4.474	-4.171	-1.263	-0.143	2.447	1.837	3.317	7.109	4.358	74.219
-3.068	-2.226	-1.802	-2.680	-1.971	-1.003	3.545	1.862	3.529	4.978	2.264	1.520	0.437	-2.283	-2.986	-4.327	-3.461	-1.106	-2.493	-4.906	-4.355	-1.399	-0.357	3.039	2.283	4.347	8.117	4.879	78.125
-3.385	-2.511	-2.186	-2.892	-1.957	-1.140	4.236	2.106	3.890	5.520	2.101	1.258	0.978	-2.015	-3.361	-4.769	-3.911	-1.395	-2.771	-5.200	-4.395	-1.483	-0.598	3.510	2.688	5.194	8.735	5.120	82.031
-3.517	-2.586	-2.425	-2.917	-1.817	-1.185	4.739	2.262	4.010	5.643	1.686	0.811	1.571	-1.601	-3.532	-4.982	-4.141	-1.458	-2.885	-5.278	-4.242	-1.473	-0.809	3.792	2.976	5.673	8.801	4.975	85.938
-3.408	-2.382	-2.449	-2.700	-1.526	-1.101	4.954	2.271	3.801	5.225	0.981	0.154	2.164	-1.049	-3.431	-4.887	-4.073	-1.240	-2.776	-5.079	-3.861	-1.327	-0.931	3.831	3.076	5.623	8.201	4.362	89.844
-3.021	-1.852	-2.206	-2.206	-1.073	-0.866	4.805	2.075	3.192	4.194	-0.023	-0.723	2.707	-0.377	-3.016	-4.429	-3.659	-0.713	-2.404	-4.558	-3.232	-1.013	-0.900	3.602	2.928	4.934	6.890	3.246	93.750
-2.345	-0.985	-1.672	-1.434	-0.465	-0.474	4.244	1.629	2.149	2.538	-1.306	-1.806	3.154	0.390	-2.279	-3.588	-2.880	0.118	-1.747	-3.704	-2.362	-0.509	-0.667	3.111	2.498	3.566	4.899	1.643	97.656
-1.401	0.191	-0.858	-0.414	0.269	0.056	3.268	0.907	0.676	0.319	-2.815	-3.059	3.472	1.217	-1.248	-2.381	-1.755	1.218	-0.812	-2.539	-1.278	0.189	-0.200	2.394	1.776	1.560	2.338	-0.373	101.562
-0.240	1.609	0.192	0.794	1.087	0.690	1.922	-0.093	-1.172	-2.329	-4.466	-4.421	3.644	2.064	0.015	-0.868	-0.341	2.521	0.368	-1.117	-0.030	1.064	0.509	1.510	0.788	-0.966	-0.623	-2.680	105.469
1.055	3.175	1.398	2.105	1.932	1.379	0.299	-1.337	-3.292	-5.208	-6.152	-5.813	3.668	2.891	1.421	0.860	1.278	3.944	1.731	0.478	1.309	2.077	1.437	0.533	-0.420	-3.837	-3.772	-5.118	109.375
2.383	4.773	2.661	3.421	2.744	2.069	-1.467	-2.759	-5.542	-8.081	-7.753	-7.142	3.554	3.654	2.866	2.685	2.990	5.394	3.194	2.138	2.657	3.168	2.528	-0.461	-1.777	-6.839	-6.882	-7.514	113.281
3.630	6.283	3.869	4.645	3.466	2.705	-3.217	-4.261	-7.748	-10.689	-9.143	-8.315	3.324	4.310	4.241	4.472	4.671	6.773	4.659	3.744	3.919	4.261	3.702	-1.402	-3.202	-9.752	-9.736	-9.693	117.188
4.687	7.590	4.912	5.687	4.047	3.240	-4.780	-5.723	-9.725	-12.791	-10.206	-9.239	3.003	4.819	5.446	6.086	6.197	7.992	6.016	5.176	5.006	5.267	4.856	-2.235	-4.605	-12.367	-12.150	-11.504	121.094
5.459	8.602	5.699	6.476	4.452	3.635	-6.006	-7.018	-11.301	-14.189	-10.843	-9.839	2.618	5.146	6.395	7.402	7.451	8.975	7.162	6.325	5.836	6.101	5.876	-2.919	-5.893	-14.510	-13.982	-12.827	125.000
5.881	9.248	6.164	6.962	4.660	3.863	-6.777	-8.034	-12.335	-14.756	-10.985	-10.060	2.197	5.266	7.031	8.321	8.341	9.666	8.006	7.104	6.344	6.688	6.658	-3.430	-6.984	-16.055	-15.140	-13.585	128.906
5.922	9.496	6.276	7.126	4.664	3.908	-7.028	-8.686	-12.741	-14.447	-10.604	-9.873	1.765	5.165	7.320	8.774	8.807	10.035	8.488	7.457	6.491	6.979	7.127	-3.755	-7.809	-16.931	-15.587	-13.746	132.812
5.589	9.343	6.038	6.973	4.477	3.768	-6.752	-8.938	-12.500	-13.303	-9.715	-9.285	1.345	4.845	7.261	8.737	8.825	10.075	8.582	7.366	6.272	6.958	7.243	-3.889	-8.322	-17.129	-15.332	-13.328	136.719
4.923	8.819	5.487	6.533	4.122	3.453	-5.997	-8.800	-11.660	-11.444	-8.376	-8.333	0.956	4.329	6.875	8.224	8.414	9.801	8.305	6.850	5.712	6.646	7.016	-3.831	-8.506	-16.687	-14.428	-12.388	140.625
3.995	7.977	4.684	5.852	3.635	2.985	-4.850	-8.327	-10.327	-9.041	-6.685	-7.082	0.618	3.654	6.203	7.285	7.622	9.249	7.705	5.962	4.863	6.094	6.497	-3.588	-8.374	-15.690	-12.960	-11.013	144.531
2.888	6.888	3.705	4.988	3.054	2.395	-3.421	-7.601	-8.642	-6.289	-4.760	-5.612	0.346	2.868	5.297	5.998	6.523	8.465	6.854	4.781	3.800	5.375	5.767	-3.168	-7.963	-14.245	-11.031	-9.307	148.438
1.691	5.624	2.624	3.999	2.420	1.724	-1.828	-6.716	-6.757	-3.381	-2.728	-4.013	0.151	2.026	4.214	4.454	5.202	7.500	5.833	3.395	2.603	4.565	4.921	-2.590	-7.329	-12.475	-8.758	-7.381	152.344
0.486	4.260	1.513	2.943	1.768	1.012	-0.174	-5.757	-4.811	-0.480	-0.706	-2.368	0.039	1.177	3.009	2.746	3.744	6.406	4.718	1.889	1.349	3.734	4.043	-1.879	-6.537	-10.499	-6.256	-5.334	156.250
-0.660	2.859	0.426	1.865	1.126	0.301	1.457	-4.787	-2.910	2.290	1.210	-0.748	0.014	0.362	1.734	0.961	2.224	5.230	3.570	0.340	0.102	2.931	3.200	-1.069	-5.650	-8.428	-3.637	-3.257	160.156
-1.697	1.478	-0.596	0.804	0.514	-0.372	3.004	-3.844	-1.129	4.850	2.953	0.792	0.075	-0.388	0.433	-0.828	0.702	4.017	2.433	-1.191	-1.091	2.182	2.431	-0.199	-4.723	-6.358	-1.003	-1.225	164.062
-2.594	0.161	-1.529	-0.211	-0.053	-0.979	4.431	-2.942	0.498	7.158	4.486	2.212	0.221	-1.055	-0.852	-2.561	-0.771	2.803	1.335	-2.660	-2.203	1.494	1.747	0.690	-3.801	-4.368	1.554	0.700	167.969
-3.343	-1.055	-2.364	-1.157	-0.567	-1.502	5.719	-2.080	1.958	9.197	5.797	3.484	0.453	-1.623	-2.084	-4.190	-2.156	1.625	0.292	-4.035	-3.215	0.861	1.142	1.558	-2.921	-2.521	3.955	2.466	171.875
-3.949	-2.141	-3.103	-2.015	-1.022	-1.934	6.862	-1.253	3.255	10.964	6.889	4.590	0.773	-2.084	-3.226	-5.673	-3.420	0.514	-0.682	-5.288	-4.117	0.275	0.595	2.371	-2.110	-0.862	6.131	4.031	175.781
-4.431	-3.074	-3.750	-2.766	-1.408	-2.274	7.859	-0.460	4.395	12.462	7.775	5.517	1.185	-2.427	-4.247	-6.975	-4.536	-0.499	-1.571	-6.396	-4.900	-0.269	0.089	3.105	-1.390	0.576	8.029	5.360	179.688
-4.813	-3.836	-4.314	-3.395	-1.718	-2.526	8.712	0.287	5.377	13.692	8.468	6.255	1.692	-2.640	-5.116	-8.068	-5.477	-1.390	-2.356	-7.338	-5.550	-0.767	-0.393	3.743	-0.780	1.775	9.609	6.427	183.594
-5.118	-4.417	-4.796	-3.886	-1.942	-2.692	9.421	0.965	6.192	14.650	8.981	6.797	2.292	-2.715	-5.813	-8.926	-6.223	-2.141	-3.015	-8.094	-6.056	-1.208	-0.856	4.283	-0.293	2.727	10.849	7.217	187.500
-5.362	-4.812	-5.194	-4.232	-2.070	-2.775	9.986	1.541	6.824	15.328	9.317	7.139	2.973	-2.645	-6.327	-9.538	-6.759	-2.742	-3.526	-8.650	-6.404	-1.571	-1.293	4.729	0.067	3.433	11.741	7.729	191.406
-5.557	-5.028	-5.499	-4.426	-2.095	-2.777	10.406	1.981	7.252	15.721	9.477	7.279	3.714	-2.435	-6.656	-9.904	-7.081	-3.190	-3.874	-9.002	-6.588	-1.837	-1.684	5.090	0.302	3.904	12.290	7.970	195.312
-5.704	-5.080	-5.701	-4.474	-2.015	-2.698	10.683	2.258	7.462	15.827	9.457	7.225	4.483	-2.099	-6.809	-10.037	-7.195	-3.489	-4.054	-9.156	-6.610	-1.988	-2.000	5.377	0.421	4.160	12.517	7.964	199.219
-5.803	-4.992	-5.790	-4.387	-1.836	-2.541	10.820	2.358	7.446	15.653	9.256	6.988	5.236	-1.663	-6.805	-9.968	-7.122	-3.649	-4.072	-9.133	-6.481	-2.015	-2.210	5.599	0.448	4.225	12.453	7.743	203.125
-5.850	-4.796	-5.762	-4.188	-1.570	-2.313	10.828	2.286	7.213	15.222	8.880	6.588	5.927	-1.162	-6.667	-9.734	-6.890	-3.681	-3.948	-8.961	-6.222	-1.918	-2.289	5.762	0.409	4.130	12.137	7.347	207.031
-5.843	-4.528	-5.625	-3.903	-1.238	-2.023	10.718	2.064	6.785	14.570	8.347	6.054	6.512	-0.637	-6.420	-9.384	-6.535	-3.596	-3.712	-8.676	-5.862	-1.712	-2.227	5.865	0.341	3.905	11.612	6.821	210.938
-5.785	-4.224	-5.395	-3.566	-0.869	-1.687	10.511	1.731	6.202	13.744	7.689	5.422	6.951	-0.126	-6.091	-8.961	-6.095	-3.405	-3.399	-8.314	-5.431	-1.419	-2.030	5.907	0.279	3.581	10.928	6.213	214.844
-5.678	-3.917	-5.105	-3.212	-0.494	-1.327	10.228	1.331	5.513	12.806	6.952	4.734	7.220	0.333	-5.708	-8.507	-5.608	-3.124	-3.043	-7.909	-4.960	-1.067	-1.721	5.889	0.252	3.187	10.137	5.565	218.750
-5.531	-3.634	-4.791	-2.874	-0.145	-0.968	9.892	0.912	4.772	11.818	6.187	4.032	7.311	0.717	-5.295	-8.055	-5.103	-2.765	-2.674	-7.488	-4.475	-0.686	-1.332	5.810	0.275	2.752	9.289	4.916	222.656
-5.355	-3.393	-4.496	-2.580	0.147	-0.639	9.527	0.516	4.037	10.844	5.450	3.358	7.233	1.015	-4.876	-7.627	-4.606	-2.346	-2.311	-7.067	-3.997	-0.299	-0.895	5.680	0.347	2.300	8.436	4.297	226.562
-5.163	-3.206	-4.257	-2.352	0.363	-0.367	9.155	0.177	3.357	9.939	4.789	2.744	7.012	1.227	-4.468	-7.236	-4.131	-1.884	-1.964	-6.657	-3.540	0.076	-0.444	5.508	0.451	1.853	7.621	3.729	230.469
-4.971	-3.075	-4.102	-2.199	0.492	-0.172	8.798	-0.084	2.771	9.144	4.239	2.215	6.683	1.368	-4.086	-6.884	-3.686	-1.397	-1.632	-6.260	-3.109	0.430	-0.004	5.312	0.558	1.427	6.880	3.226	234.375
-4.792	-2.997	-4.046	-2.123	0.534	-0.063	8.470	-0.263	2.303	8.484	3.818	1.779	6.289	1.459	-3.738	-6.569	-3.274	-0.904	-1.311	-5.870	-2.707	0.758	0.403	5.107	0.637	1.032	6.238	2.791	238.281
-4.640	-2.961	-4.085	-2.111	0.504	-0.036	8.180	-0.365	1.959	7.962	3.525	1.433	5.875	1.526	-3.425	-6.281	-2.887	-0.422	-0.993	-5.483	-2.330	1.060	0.760	4.909	0.660	0.669	5.704	2.418	242.188
-4.521	-2.953	-4.202	-2.145	0.422	-0.072	7.928	-0.409	1.727	7.563	3.340	1.163	5.476	1.592	-3.143	-6.010	-2.518	0.037	-0.670	-5.090	-1.975	1.338	1.056	4.734	0.611	0.332	5.274	2.096	246.094
-4.434	-2.956	-4.365	-2.199	0.316	-0.145	7.706	-0.422	1.579	7.252	3.232	0.948	5.124	1.674	-2.886	-5.743	-2.152	0.461	-0.340	-4.684	-1.634	1.593	1.284	4.590	0.489	0.008	4.934	1.809	250.000
-4.372	-2.949	-4.536	-2.247	0.210	-0.223	7.498	-0.432	1.481	6.987	3.164	0.761	4.837	1.783	-2.646	-5.469	-1.779	0.845	-0.001	-4.260	-1.304	1.830	1.443	4.481	0.301	-0.315	4.660	1.542	253.906
-4.320	-2.916	-4.680	-2.266	0.126	-0.278	7.286	-0.463	1.394	6.716	3.096	0.578	4.623	1.921	-2.420	-5.178	-1.387	1.190	0.344	-3.814	-0.977	2.051	1.540	4.407	0.062	-0.649	4.426	1.278	257.812
-4.259	-2.842	-4.766	-2.237	0.078	-0.293	7.048	-0.537	1.283	6.397	2.991	0.376	4.483	2.087	-2.204	-4.861	-0.968	1.501	0.696	-3.344	-0.648	2.262	1.590	4.363	-0.210	-0.995	4.205	1.006	261.719
-4.173	-2.718	-4.778	-2.155	0.070	-0.263	6.766	-0.662	1.119	5.993	2.821	0.143	4.411	2.273	-1.997	-4.511	-0.520	1.786	1.052	-2.849	-0.310	2.469	1.612	4.340	-0.499	-1.347	3.974	0.715	265.625
-4.048	-2.543	-4.713	-2.018	0.097	-0.200	6.427	-0.842	0.885	5.485	2.564	-0.129	4.392	2.471	-1.799	-4.126	-0.044	2.053	1.412	-2.328	0.046	2.680	1.629	4.330	-0.791	-1.688	3.719	0.405	269.531
-3.878	-2.320	-4.579	-1.837	0.146	-0.127	6.026	-1.070	0.572	4.872	2.208	-0.438	4.414	2.674	-1.608	-3.705	0.453	2.307	1.779	-1.783	0.421	2.898	1.660	4.323	-1.075	-1.996	3.435	0.076	273.438
-3.665	-2.056	-4.394	-1.626	0.202	-0.070	5.566	-1.334	0.181	4.169	1.751	-0.778	4.459	2.873	-1.420	-3.252	0.958	2.549	2.149	-1.220	0.817	3.128	1.723	4.312	-1.339	-2.249	3.124	-0.264	277.344
-3.416	-1.762	-4.180	-1.403	0.251	-0.054	5.061	-1.618	-0.274	3.403	1.204	-1.139	4.510	3.064	-1.233	-2.777	1.456	2.772	2.521	-0.647	1.227	3.370	1.828	4.295	-1.568	-2.433	2.797	-0.605	281.250
-3.144	-1.451	-3.961	-1.184	0.283	-0.092	4.530	-1.901	-0.772	2.613	0.587	-1.511	4.554	3.244	-1.042	-2.292	1.929	2.965	2.887	-0.074	1.641	3.623	1.975	4.268	-1.750	-2.542	2.467	-0.935	285.156
-2.860	-1.136	-3.758	-0.979	0.296	-0.187	3.998	-2.164	-1.279	1.839	-0.066	-1.882	4.578	3.411	-0.850	-1.810	2.359	3.115	3.237	0.483	2.045	3.881	2.156	4.235	-1.877	-2.589	2.149	-1.244	289.062
-2.577	-0.830	-3.588	-0.795	0.296	-0.323	3.493	-2.384	-1.760	1.125	-0.713	-2.243	4.573	3.566	-0.660	-1.345	2.731	3.209	3.557	1.013	2.425	4.139	2.357	4.199	-1.945	-2.593	1.852	-1.527	292.969
-2.305	-0.542	-3.465	-0.628	0.297	-0.473	3.044	-2.545	-2.175	0.505	-1.311	-2.584	4.537	3.708	-0.481	-0.910	3.033	3.237	3.835	1.503	2.768	4.389	2.557	4.165	-1.960	-2.585	1.584	-1.782	296.875
-2.053	-0.282	-3.396	-0.473	0.318	-0.605	2.677	-2.636	-2.493	0.009	-1.820	-2.896	4.472	3.843	-0.323	-0.512	3.261	3.193	4.061	1.945	3.068	4.624	2.733	4.136	-1.938	-2.593	1.346	-2.011	300.781
-1.831	-0.055	-3.388	-0.319	0.381	-0.684	2.414	-2.652	-2.692	-0.349	-2.212	-3.173	4.388	3.971	-0.199	-0.155	3.416	3.080	4.228	2.337	3.322	4.834	2.867	4.117	-1.905	-2.641	1.140	-2.222	304.688
-1.650	0.136	-3.441	-0.153	0.504	-0.682	2.269	-2.597	-2.767	-0.563	-2.478	-3.414	4.296	4.099	-0.117	0.162	3.506	2.904	4.336	2.679	3.534	5.016	2.943	4.107	-1.892	-2.742	0.966	-2.421	308.594
-1.517	0.291	-3.550	0.031	0.698	-0.585	2.248	-2.485	-2.730	-0.639	-2.626	-3.616	4.213	4.229	-0.085	0.443	3.546	2.675	4.393	2.974	3.711	5.164	2.955	4.108	-1.928	-2.896	0.826	-2.615	312.500
-1.443	0.408	-3.707	0.237	0.965	-0.391	2.351	-2.331	-2.605	-0.592	-2.680	-3.782	4.153	4.365	-0.107	0.689	3.549	2.407	4.411	3.228	3.864	5.279	2.908	4.120	-2.036	-3.094	0.726	-2.804	316.406
-1.429	0.488	-3.896	0.460	1.295	-0.113	2.564	-2.158	-2.423	-0.441	-2.672	-3.913	4.132	4.507	-0.183	0.902	3.532	2.115	4.407	3.441	3.999	5.364	2.812	4.145	-2.224	-3.323	0.670	-2.988	320.312
-1.475	0.530	-4.097	0.687	1.669	0.221	2.870	-1.982	-2.213	-0.207	-2.638	-4.011	4.158	4.655	-0.310	1.079	3.505	1.812	4.395	3.613	4.121	5.424	2.684	4.184	-2.485	-3.565	0.667	-3.158	324.219
-1.574	0.534	-4.289	0.903	2.061	0.573	3.244	-1.818	-2.001	0.089	-2.606	-4.079	4.237	4.809	-0.481	1.215	3.473	1.512	4.386	3.740	4.232	5.464	2.547	4.244	-2.795	-3.805	0.717	-3.307	328.125
-1.714	0.500	-4.453	1.090	2.444	0.904	3.660	-1.675	-1.803	0.430	-2.593	-4.117	4.374	4.968	-0.686	1.305	3.436	1.225	4.384	3.820	4.334	5.491	2.419	4.327	-3.121	-4.033	0.819	-3.426	332.031
-1.880	0.430	-4.577	1.232	2.794	1.176	4.093	-1.557	-1.626	0.795	-2.604	-4.126	4.568	5.136	-0.911	1.345	3.389	0.960	4.388	3.852	4.428	5.512	2.321	4.437	-3.426	-4.239	0.963	-3.510	335.938
-2.056	0.326	-4.659	1.320	3.091	1.360	4.520	-1.468	-1.473	1.166	-2.634	-4.107	4.818	5.319	-1.143	1.335	3.324	0.722	4.391	3.840	4.516	5.532	2.266	4.573	-3.676	-4.419	1.134	-3.557	339.844
-2.225	0.190	-4.707	1.350	3.328	1.443	4.923	-1.408	-1.349	1.523	-2.669	-4.057	5.125	5.527	-1.369	1.278	3.232	0.512	4.383	3.794	4.607	5.555	2.259	4.729	-3.849	-4.564	1.313	-3.571	343.750
-2.377	0.024	-4.736	1.328	3.506	1.429	5.288	-1.379	-1.256	1.849	-2.693	-3.978	5.486	5.771	-1.578	1.182	3.107	0.329	4.358	3.727	4.707	5.583	2.295	4.896	-3.936	-4.672	1.477	-3.556	347.656
-2.502	-0.174	-4.768	1.266	3.636	1.338	5.609	-1.378	-1.199	2.127	-2.689	-3.866	5.898	6.058	-1.761	1.054	2.947	0.170	4.309	3.650	4.826	5.617	2.365	5.062	-3.943	-4.741	1.606	-3.521	351.562
-2.598	-0.402	-4.823	1.178	3.732	1.202	5.886	-1.403	-1.181	2.350	-2.642	-3.722	6.357	6.392	-1.918	0.903	2.753	0.032	4.236	3.574	4.968	5.655	2.454	5.216	-3.891	-4.777	1.685	-3.476	355.469
-2.663	-0.660	-4.913	1.079	3.811	1.060	6.124	-1.446	-1.200	2.517	-2.543	-3.545	6.852	6.768	-2.049	0.735	2.535	-0.091	4.139	3.503	5.136	5.694	2.544	5.346	-3.809	-4.792	1.706	-3.430	359.375
-2.703	-0.944	-5.040	0.984	3.889	0.949	6.329	-1.497	-1.248	2.640	-2.386	-3.337	7.369	7.171	-2.160	0.555	2.301	-0.204	4.023	3.434	5.321	5.727	2.620	5.449	-3.727	-4.799	1.673	-3.391	363.281
-2.722	-1.249	-5.196	0.899	3.974	0.901	6.508	-1.542	-1.312	2.734	-2.172	-3.102	7.886	7.580	-2.261	0.362	2.062	-0.312	3.891	3.358	5.511	5.745	2.667	5.524	-3.664	-4.811	1.601	-3.359	367.188
-2.725	-1.565	-5.363	0.827	4.065	0.932	6.665	-1.570	-1.372	2.820	-1.910	-2.844	8.377	7.964	-2.357	0.157	1.829	-0.423	3.745	3.266	5.690	5.742	2.674	5.579	-3.630	-4.835	1.512	-3.329	371.094
-2.717	-1.881	-5.518	0.766	4.152	1.041	6.798	-1.569	-1.408	2.917	-1.612	-2.572	8.810	8.291	-2.456	-0.063	1.607	-0.539	3.590	3.143	5.834	5.711	2.636	5.621	-3.622	-4.867	1.437	-3.290	375.000
-2.698	-2.185	-5.638	0.708	4.221	1.211	6.899	-1.530	-1.404	3.036	-1.296	-2.292	9.150	8.530	-2.560	-0.298	1.400	-0.661	3.428	2.981	5.926	5.648	2.556	5.660	-3.628	-4.896	1.398	-3.230	378.906
-2.666	-2.464	-5.706	0.647	4.254	1.410	6.957	-1.450	-1.346	3.179	-0.981	-2.011	9.366	8.654	-2.667	-0.551	1.206	-0.786	3.263	2.773	5.947	5.555	2.445	5.701	-3.629	-4.905	1.414	-3.133	382.812
-2.615	-2.710	-5.717	0.576	4.236	1.601	6.962	-1.323	-1.228	3.338	-0.682	-1.732	9.435	8.649	-2.775	-0.818	1.023	-0.909	3.097	2.521	5.887	5.435	2.321	5.740	-3.609	-4.879	1.485	-2.992	386.719
-2.539	-2.916	-5.673	0.494	4.160	1.751	6.909	-1.148	-1.048	3.498	-0.411	-1.454	9.343	8.511	-2.880	-1.098	0.842	-1.027	2.933	2.229	5.745	5.295	2.199	5.767	-3.558	-4.806	1.601	-2.803	390.625
-2.427	-3.077	-5.586	0.405	4.030	1.834	6.799	-0.921	-0.810	3.640	-0.170	-1.172	9.095	8.249	-2.980	-1.388	0.657	-1.134	2.771	1.910	5.527	5.138	2.093	5.766	-3.474	-4.686	1.734	-2.571	394.531
-2.274	-3.192	-5.475	0.315	3.858	1.845	6.641	-0.639	-0.521	3.749	0.046	-0.875	8.705	7.883	-3.070	-1.683	0.459	-1.230	2.607	1.577	5.247	4.966	2.004	5.714	-3.366	-4.525	1.848	-2.308	398.438
-2.075	-3.259	-5.358	0.236	3.663	1.795	6.449	-0.303	-0.186	3.811	0.250	-0.553	8.202	7.441	-3.148	-1.978	0.241	-1.310	2.437	1.244	4.919	4.778	1.923	5.593	-3.247	-4.338	1.908	-2.027	402.344
-1.832	-3.282	-5.251	0.175	3.465	1.708	6.241	0.084	0.185	3.818	0.458	-0.198	7.622	6.954	-3.212	-2.269	0.002	-1.376	2.256	0.921	4.561	4.570	1.838	5.391	-3.133	-4.139	1.886	-1.741	406.250
-1.553	-3.266	-5.164	0.138	3.283	1.616	6.031	0.508	0.578	3.770	0.685	0.190	7.006	6.451	-3.261	-2.554	-0.255	-1.426	2.062	0.616	4.191	4.341	1.730	5.110	-3.036	-3.942	1.770	-1.458	410.156
-1.255	-3.220	-5.098	0.127	3.132	1.545	5.830	0.946	0.979	3.670	0.939	0.603	6.394	5.963	-3.295	-2.827	-0.522	-1.463	1.857	0.333	3.825	4.093	1.589	4.766	-2.965	-3.756	1.569	-1.182	414.062
-0.961	-3.156	-5.051	0.139	3.017	1.510	5.645	1.368	1.363	3.527	1.219	1.023	5.829	5.515	-3.318	-3.086	-0.784	-1.491	1.649	0.076	3.479	3.833	1.413	4.389	-2.921	-3.581	1.313	-0.911	417.969
-0.694	-3.086	-5.015	0.167	2.939	1.509	5.480	1.739	1.706	3.357	1.517	1.422	5.346	5.133	-3.333	-3.323	-1.023	-1.519	1.446	-0.150	3.171	3.575	1.212	4.016	-2.899	-3.413	1.045	-0.643	421.875
-0.480	-3.025	-4.986	0.201	2.892	1.527	5.338	2.024	1.980	3.176	1.812	1.772	4.979	4.837	-3.349	-3.534	-1.223	-1.553	1.264	-0.339	2.919	3.338	1.003	3.688	-2.890	-3.243	0.816	-0.375	425.781
-0.334	-2.986	-4.957	0.235	2.871	1.539	5.222	2.197	2.163	3.005	2.078	2.044	4.755	4.647	-3.373	-3.711	-1.376	-1.602	1.111	-0.483	2.742	3.138	0.804	3.439	-2.889	-3.066	0.669	-0.109	429.688
-0.265	-2.977	-4.927	0.262	2.872	1.526	5.138	2.246	2.243	2.864	2.290	2.219	4.687	4.572	-3.412	-3.850	-1.477	-1.670	0.998	-0.576	2.653	2.991	0.635	3.288	-2.889	-2.882	0.633	0.148	433.594
-0.271	-3.004	-4.896	0.280	2.891	1.479	5.087	2.174	2.217	2.767	2.425	2.288	4.778	4.615	-3.466	-3.948	-1.531	-1.758	0.926	-0.615	2.658	2.903	0.510	3.239	-2.894	-2.703	0.710	0.383	437.500
-0.337	-3.062	-4.866	0.291	2.931	1.403	5.070	2.000	2.099	2.721	2.466	2.254	5.013	4.767	-3.530	-4.004	-1.551	-1.860	0.895	-0.602	2.756	2.876	0.438	3.280	-2.906	-2.546	0.880	0.578	441.406
-0.445	-3.145	-4.836	0.301	2.993	1.313	5.083	1.751	1.911	2.720	2.405	2.128	5.364	5.009	-3.593	-4.022	-1.550	-1.969	0.901	-0.544	2.935	2.902	0.421	3.384	-2.929	-2.429	1.101	0.713	445.312
-0.568	-3.236	-4.807	0.318	3.079	1.230	5.113	1.462	1.680	2.748	2.242	1.925	5.787	5.313	-3.642	-4.005	-1.543	-2.073	0.938	-0.447	3.178	2.972	0.452	3.519	-2.963	-2.365	1.328	0.775	449.219
-0.685	-3.318	-4.775	0.349	3.188	1.171	5.146	1.166	1.434	2.779	1.986	1.661	6.235	5.649	-3.663	-3.955	-1.535	-2.160	1.002	-0.319	3.463	3.073	0.515	3.655	-2.999	-2.359	1.515	0.754	453.125
-0.774	-3.372	-4.735	0.403	3.317	1.145	5.163	0.887	1.195	2.785	1.651	1.347	6.658	5.987	-3.648	-3.873	-1.528	-2.218	1.090	-0.165	3.769	3.192	0.593	3.768	-3.023	-2.404	1.634	0.649	457.031
-0.822	-3.379	-4.682	0.485	3.460	1.151	5.150	0.647	0.981	2.747	1.254	0.992	7.013	6.299	-3.594	-3.760	-1.514	-2.243	1.196	0.012	4.074	3.319	0.666	3.842	-3.023	-2.489	1.670	0.465	460.938
-0.823	-3.324	-4.609	0.600	3.609	1.186	5.100	0.455	0.802	2.654	0.820	0.600	7.271	6.564	-3.504	-3.614	-1.484	-2.239	1.319	0.212	4.364	3.447	0.723	3.868	-2.996	-2.599	1.628	0.213	464.844
-0.776	-3.200	-4.508	0.747	3.758	1.241	5.015	0.319	0.664	2.517	0.376	0.181	7.417	6.768	-3.389	-3.436	-1.428	-2.215	1.453	0.434	4.625	3.569	0.756	3.843	-2.950	-2.726	1.517	-0.092	468.750
-0.688	-3.011	-4.372	0.924	3.901	1.316	4.907	0.239	0.569	2.361	-0.051	-0.253	7.451	6.899	-3.261	-3.231	-1.344	-2.188	1.592	0.671	4.847	3.680	0.769	3.766	-2.906	-2.871	1.354	-0.434	472.656
-0.567	-2.770	-4.196	1.125	4.035	1.411	4.794	0.213	0.523	2.220	-0.428	-0.675	7.383	6.953	-3.134	-3.011	-1.234	-2.172	1.728	0.913	5.021	3.777	0.769	3.640	-2.892	-3.045	1.150	-0.795	476.562
-0.424	-2.504	-3.979	1.339	4.159	1.532	4.694	0.237	0.528	2.129	-0.731	-1.056	7.228	6.924	-3.021	-2.791	-1.113	-2.180	1.849	1.143	5.137	3.855	0.774	3.468	-2.934	-3.260	0.914	-1.153	480.469
-0.270	-2.243	-3.730	1.552	4.269	1.682	4.620	0.305	0.585	2.111	-0.937	-1.361	7.000	6.809	-2.931	-2.588	-0.998	-2.217	1.946	1.340	5.188	3.909	0.800	3.256	-3.045	-3.528	0.650	-1.489	484.375
-0.115	-2.017	-3.461	1.750	4.362	1.859	4.579	0.411	0.692	2.175	-1.037	-1.562	6.710	6.610	-2.864	-2.419	-0.905	-2.277	2.009	1.486	5.166	3.936	0.861	3.014	-3.220	-3.851	0.360	-1.784	488.281
0.031	-1.851	-3.190	1.917	4.435	2.056	4.566	0.549	0.844	2.307	-1.035	-1.645	6.363	6.329	-2.817	-2.292	-0.847	-2.346	2.035	1.567	5.069	3.933	0.965	2.753	-3.437	-4.218	0.042	-2.025	492.188
0.157	-1.757	-2.933	2.045	4.485	2.262	4.571	0.710	1.026	2.481	-0.948	-1.619	5.958	5.975	-2.778	-2.209	-0.826	-2.405	2.025	1.579	4.900	3.902	1.109	2.484	-3.658	-4.606	-0.303	-2.205	496.094
0.259	-1.733	-2.705	2.132	4.511	2.465	4.580	0.885	1.221	2.661	-0.806	-1.511	5.494	5.563	-2.734	-2.162	-0.837	-2.432	1.990	1.530	4.671	3.845	1.283	2.220	-3.846	-4.983	-0.669	-2.332	500.000
0.332	-1.763	-2.511	2.181	4.517	2.660	4.581	1.066	1.407	2.811	-0.647	-1.371	4.975	5.114	-2.674	-2.134	-0.864	-2.409	1.942	1.435	4.400	3.769	1.466	1.972	-3.974	-5.316	-1.049	-2.421	503.906
0.375	-1.821	-2.350	2.206	4.510	2.843	4.569	1.239	1.563	2.908	-0.512	-1.255	4.414	4.655	-2.591	-2.106	-0.889	-2.326	1.900	1.318	4.113	3.683	1.635	1.748	-4.031	-5.581	-1.434	-2.498	507.812
0.393	-1.877	-2.213	2.222	4.503	3.019	4.548	1.393	1.671	2.941	-0.437	-1.218	3.838	4.218	-2.486	-2.062	-0.896	-2.181	1.879	1.204	3.839	3.597	1.771	1.554	-4.025	-5.762	-1.808	-2.588	511.719
0.393	-1.904	-2.091	2.245	4.507	3.192	4.526	1.514	1.716	2.918	-0.447	-1.299	3.286	3.836	-2.371	-1.990	-0.875	-1.984	1.888	1.115	3.604	3.518	1.855	1.393	-3.976	-5.861	-2.154	-2.714	515.625
0.384	-1.882	-1.972	2.287	4.533	3.365	4.517	1.587	1.691	2.857	-0.554	-1.511	2.804	3.538	-2.258	-1.886	-0.824	-1.748	1.930	1.064	3.430	3.453	1.881	1.267	-3.911	-5.889	-2.456	-2.885	519.531
0.373	-1.803	-1.850	2.354	4.584	3.537	4.531	1.603	1.594	2.781	-0.753	-1.839	2.442	3.347	-2.165	-1.757	-0.753	-1.494	2.001	1.055	3.328	3.404	1.850	1.174	-3.853	-5.865	-2.697	-3.099	523.438
0.367	-1.672	-1.725	2.442	4.658	3.702	4.572	1.556	1.433	2.713	-1.024	-2.239	2.238	3.272	-2.104	-1.619	-0.675	-1.242	2.089	1.082	3.297	3.371	1.771	1.113	-3.820	-5.813	-2.863	-3.335	527.344
0.372	-1.504	-1.599	2.542	4.746	3.852	4.634	1.450	1.222	2.668	-1.336	-2.653	2.215	3.310	-2.082	-1.492	-0.608	-1.010	2.180	1.129	3.323	3.349	1.656	1.082	-3.817	-5.754	-2.950	-3.565	531.250
0.392	-1.319	-1.478	2.639	4.834	3.978	4.703	1.293	0.983	2.646	-1.653	-3.018	2.369	3.443	-2.097	-1.398	-0.566	-0.814	2.256	1.176	3.387	3.333	1.522	1.075	-3.838	-5.707	-2.961	-3.756	535.156
0.429	-1.141	-1.361	2.718	4.906	4.073	4.757	1.104	0.739	2.637	-1.939	-3.282	2.675	3.643	-2.137	-1.354	-0.558	-0.668	2.305	1.207	3.465	3.317	1.385	1.089	-3.871	-5.679	-2.908	-3.883	539.062
0.487	-0.990	-1.248	2.768	4.946	4.132	4.773	0.906	0.512	2.622	-2.168	-3.415	3.088	3.875	-2.190	-1.369	-0.589	-0.578	2.317	1.206	3.536	3.300	1.260	1.114	-3.900	-5.672	-2.811	-3.931	542.969
0.567	-0.880	-1.133	2.780	4.947	4.154	4.732	0.721	0.321	2.579	-2.323	-3.414	3.547	4.103	-2.239	-1.441	-0.654	-0.545	2.292	1.172	3.587	3.280	1.162	1.142	-3.909	-5.677	-2.695	-3.899	546.875
0.668	-0.819	-1.013	2.755	4.904	4.141	4.624	0.568	0.174	2.488	-2.401	-3.302	3.990	4.297	-2.269	-1.555	-0.745	-0.565	2.236	1.111	3.611	3.263	1.106	1.164	-3.887	-5.685	-2.583	-3.801	550.781
0.789	-0.802	-0.882	2.698	4.821	4.097	4.453	0.460	0.073	2.337	-2.409	-3.124	4.362	4.432	-2.274	-1.689	-0.847	-0.627	2.163	1.040	3.612	3.253	1.103	1.171	-3.830	-5.680	-2.499	-3.664	554.688
0.926	-0.814	-0.740	2.624	4.712	4.030	4.229	0.399	0.013	2.122	-2.365	-2.933	4.621	4.496	-2.249	-1.813	-0.945	-0.717	2.091	0.978	3.600	3.256	1.157	1.158	-3.738	-5.653	-2.458	-3.520	558.594
1.071	-0.836	-0.590	2.547	4.592	3.952	3.975	0.383	-0.018	1.853	-2.292	-2.784	4.741	4.485	-2.197	-1.897	-1.027	-0.820	2.035	0.948	3.587	3.273	1.261	1.123	-3.614	-5.595	-2.469	-3.402	562.500
1.217	-0.844	-0.434	2.487	4.480	3.877	3.712	0.401	-0.034	1.540	-2.216	-2.721	4.714	4.403	-2.121	-1.918	-1.077	-0.918	2.008	0.965	3.581	3.303	1.397	1.065	-3.465	-5.503	-2.533	-3.338	566.406
1.353	-0.813	-0.279	2.458	4.392	3.818	3.461	0.444	-0.049	1.202	-2.163	-2.773	4.548	4.258	-2.025	-1.861	-1.086	-1.000	2.017	1.038	3.589	3.336	1.538	0.988	-3.299	-5.380	-2.646	-3.343	570.312
1.470	-0.726	-0.129	2.472	4.341	3.790	3.238	0.498	-0.075	0.851	-2.154	-2.948	4.259	4.063	-1.913	-1.723	-1.048	-1.055	2.060	1.165	3.609	3.364	1.655	0.895	-3.125	-5.230	-2.794	-3.420	574.219
1.560	-0.575	0.011	2.533	4.330	3.798	3.049	0.554	-0.120	0.501	-2.203	-3.232	3.871	3.828	-1.788	-1.510	-0.955	-1.078	2.133	1.337	3.635	3.379	1.726	0.786	-2.953	-5.066	-2.966	-3.561	578.125
1.620	-0.360	0.140	2.640	4.354	3.841	2.892	0.604	-0.188	0.155	-2.312	-3.597	3.406	3.567	-1.652	-1.234	-0.804	-1.069	2.226	1.538	3.661	3.376	1.739	0.662	-2.790	-4.898	-3.149	-3.747	582.031
1.651	-0.091	0.254	2.781	4.403	3.908	2.759	0.644	-0.278	-0.184	-2.477	-4.006	2.887	3.291	-1.508	-0.914	-0.595	-1.029	2.331	1.756	3.680	3.353	1.698	0.519	-2.639	-4.740	-3.335	-3.954	585.938
1.661	0.214	0.354	2.942	4.460	3.982	2.637	0.673	-0.386	-0.521	-2.684	-4.416	2.331	3.009	-1.356	-0.564	-0.329	-0.961	2.438	1.976	3.686	3.315	1.617	0.351	-2.503	-4.603	-3.522	-4.160	589.844
1.662	0.534	0.441	3.103	4.508	4.044	2.512	0.691	-0.509	-0.859	-2.914	-4.793	1.753	2.731	-1.197	-0.197	-0.016	-0.866	2.544	2.192	3.681	3.272	1.517	0.152	-2.382	-4.495	-3.718	-4.345	593.750
1.665	0.849	0.519	3.250	4.531	4.076	2.373	0.698	-0.641	-1.205	-3.153	-5.110	1.167	2.466	-1.029	0.177	0.335	-0.746	2.646	2.402	3.669	3.235	1.425	-0.079	-2.277	-4.421	-3.929	-4.499	597.656
1.684	1.140	0.590	3.371	4.521	4.066	2.211	0.691	-0.782	-1.559	-3.385	-5.353	0.590	2.224	-0.850	0.552	0.704	-0.604	2.746	2.610	3.660	3.217	1.365	-0.337	-2.190	-4.387	-4.165	-4.619	601.562
1.724	1.396	0.657	3.458	4.475	4.012	2.025	0.666	-0.930	-1.922	-3.604	-5.521	0.042	2.018	-0.659	0.920	1.071	-0.445	2.846	2.819	3.665	3.229	1.359	-0.607	-2.129	-4.396	-4.425	-4.709	605.469
1.785	1.611	0.722	3.512	4.400	3.921	1.819	0.617	-1.084	-2.288	-3.804	-5.621	-0.450	1.860	-0.456	1.275	1.412	-0.276	2.951	3.030	3.694	3.278	1.415	-0.865	-2.103	-4.449	-4.699	-4.774	609.375
1.861	1.783	0.782	3.537	4.305	3.806	1.603	0.539	-1.241	-2.644	-3.984	-5.665	-0.856	1.763	-0.249	1.606	1.706	-0.113	3.059	3.242	3.754	3.364	1.529	-1.080	-2.123	-4.544	-4.964	-4.818	613.281
1.940	1.913	0.835	3.540	4.203	3.682	1.394	0.434	-1.394	-2.976	-4.143	-5.667	-1.145	1.734	-0.048	1.898	1.936	0.026	3.166	3.444	3.846	3.480	1.686	-1.221	-2.195	-4.674	-5.189	-4.841	617.188
2.010	2.001	0.878	3.526	4.105	3.562	1.206	0.306	-1.533	-3.267	-4.278	-5.637	-1.293	1.778	0.132	2.135	2.090	0.120	3.266	3.622	3.963	3.611	1.862	-1.262	-2.318	-4.823	-5.340	-4.835	621.094
2.058	2.047	0.906	3.496	4.017	3.455	1.057	0.169	-1.650	-3.501	-4.385	-5.581	-1.284	1.891	0.273	2.300	2.165	0.147	3.350	3.759	4.094	3.740	2.033	-1.193	-2.484	-4.972	-5.389	-4.793	625.000
2.077	2.049	0.915	3.448	3.939	3.365	0.960	0.036	-1.734	-3.664	-4.458	-5.504	-1.114	2.061	0.360	2.382	2.167	0.093	3.411	3.838	4.226	3.851	2.179	-1.016	-2.677	-5.096	-5.317	-4.707	628.906
2.060	2.006	0.901	3.378	3.865	3.290	0.923	-0.077	-1.785	-3.749	-4.494	-5.408	-0.795	2.273	0.383	2.373	2.106	-0.045	3.444	3.849	4.343	3.928	2.288	-0.751	-2.873	-5.173	-5.123	-4.570	632.812
2.005	1.917	0.862	3.279	3.787	3.224	0.948	-0.160	-1.805	-3.753	-4.491	-5.292	-0.349	2.508	0.344	2.278	1.994	-0.256	3.444	3.785	4.431	3.960	2.353	-0.428	-3.044	-5.181	-4.817	-4.384	636.719
1.912	1.786	0.797	3.148	3.693	3.157	1.029	-0.205	-1.801	-3.680	-4.450	-5.154	0.192	2.744	0.250	2.106	1.845	-0.513	3.408	3.652	4.477	3.939	2.364	-0.080	-3.162	-5.107	-4.423	-4.149	640.625
1.783	1.619	0.708	2.984	3.573	3.074	1.152	-0.214	-1.783	-3.539	-4.373	-4.991	0.787	2.962	0.121	1.877	1.669	-0.778	3.333	3.460	4.477	3.861	2.314	0.255	-3.204	-4.946	-3.972	-3.874	644.531
1.626	1.427	0.602	2.788	3.420	2.960	1.295	-0.190	-1.758	-3.344	-4.263	-4.802	1.392	3.144	-0.023	1.613	1.476	-1.004	3.216	3.227	4.426	3.726	2.195	0.548	-3.152	-4.705	-3.500	-3.569	648.438
1.452	1.224	0.490	2.567	3.229	2.805	1.431	-0.143	-1.733	-3.115	-4.122	-4.588	1.959	3.272	-0.157	1.340	1.271	-1.148	3.057	2.973	4.325	3.538	2.009	0.774	-3.006	-4.400	-3.044	-3.248	652.344
1.280	1.021	0.388	2.331	3.001	2.608	1.528	-0.082	-1.706	-2.872	-3.953	-4.353	2.437	3.329	-0.260	1.083	1.065	-1.175	2.861	2.717	4.178	3.308	1.765	0.912	-2.778	-4.056	-2.639	-2.928	656.250
1.130	0.835	0.313	2.092	2.741	2.380	1.557	-0.015	-1.671	-2.642	-3.759	-4.107	2.778	3.300	-0.318	0.863	0.866	-1.065	2.638	2.477	3.989	3.049	1.483	0.953	-2.498	-3.704	-2.318	-2.627	660.156
1.023	0.679	0.282	1.867	2.462	2.146	1.496	0.054	-1.620	-2.447	-3.544	-3.865	2.941	3.173	-0.322	0.697	0.690	-0.820	2.408	2.267	3.765	2.780	1.194	0.892	-2.206	-3.374	-2.109	-2.368	664.062
0.978	0.563	0.306	1.672	2.180	1.940	1.334	0.122	-1.547	-2.309	-3.321	-3.650	2.895	2.940	-0.271	0.598	0.553	-0.463	2.191	2.095	3.514	2.521	0.931	0.733	-1.946	-3.096	-2.030	-2.171	667.969
1.005	0.499	0.390	1.524	1.917	1.800	1.074	0.192	-1.449	-2.244	-3.108	-3.484	2.629	2.604	-0.172	0.567	0.475	-0.028	2.013	1.966	3.247	2.291	0.728	0.484	-1.760	-2.891	-2.091	-2.053	671.875
1.102	0.491	0.532	1.435	1.694	1.758	0.735	0.263	-1.333	-2.259	-2.932	-3.388	2.152	2.178	-0.034	0.602	0.472	0.439	1.896	1.881	2.976	2.106	0.611	0.161	-1.675	-2.767	-2.286	-2.025	675.781
1.258	0.539	0.718	1.413	1.531	1.832	0.350	0.336	-1.208	-2.351	-2.818	-3.376	1.498	1.686	0.129	0.690	0.554	0.893	1.853	1.834	2.713	1.978	0.591	-0.215	-1.700	-2.726	-2.599	-2.093	679.688
1.450	0.637	0.932	1.458	1.439	2.020	-0.041	0.412	-1.086	-2.504	-2.787	-3.447	0.723	1.162	0.303	0.813	0.718	1.296	1.888	1.817	2.469	1.909	0.667	-0.620	-1.826	-2.756	-2.996	-2.249	683.594
1.649	0.773	1.152	1.560	1.421	2.295	-0.393	0.492	-0.975	-2.688	-2.844	-3.587	-0.102	0.646	0.473	0.949	0.947	1.617	1.988	1.816	2.252	1.896	0.824	-1.026	-2.030	-2.844	-3.435	-2.477	687.500
1.824	0.930	1.357	1.702	1.469	2.616	-0.665	0.580	-0.877	-2.868	-2.977	-3.770	-0.897	0.179	0.628	1.072	1.210	1.835	2.133	1.818	2.068	1.926	1.031	-1.403	-2.276	-2.970	-3.865	-2.749	691.406
1.951	1.086	1.528	1.862	1.567	2.927	-0.827	0.676	-0.791	-3.004	-3.159	-3.962	-1.587	-0.202	0.757	1.161	1.466	1.940	2.295	1.808	1.918	1.986	1.255	-1.721	-2.529	-3.116	-4.237	-3.030	695.312
2.014	1.224	1.650	2.014	1.694	3.176	-0.863	0.779	-0.713	-3.064	-3.349	-4.129	-2.106	-0.466	0.852	1.202	1.677	1.932	2.445	1.780	1.801	2.057	1.456	-1.952	-2.757	-3.268	-4.504	-3.282	699.219
2.010	1.326	1.715	2.134	1.826	3.320	-0.777	0.881	-0.643	-3.029	-3.508	-4.244	-2.408	-0.598	0.906	1.189	1.809	1.820	2.559	1.729	1.718	2.125	1.604	-2.074	-2.937	-3.416	-4.635	-3.471	703.125
1.947	1.383	1.719	2.203	1.938	3.340	-0.592	0.970	-0.583	-2.896	-3.603	-4.289	-2.471	-0.592	0.915	1.128	1.847	1.624	2.623	1.662	1.669	2.179	1.678	-2.074	-3.059	-3.553	-4.611	-3.574	707.031
1.845	1.389	1.667	2.210	2.015	3.237	-0.343	1.027	-0.543	-2.682	-3.612	-4.260	-2.299	-0.459	0.878	1.031	1.796	1.372	2.632	1.587	1.653	2.214	1.673	-1.947	-3.121	-3.673	-4.432	-3.575	710.938
1.723	1.347	1.566	2.149	2.044	3.033	-0.073	1.032	-0.535	-2.418	-3.531	-4.163	-1.919	-0.220	0.798	0.917	1.674	1.096	2.590	1.518	1.671	2.231	1.599	-1.700	-3.132	-3.771	-4.111	-3.476	714.844
1.601	1.262	1.431	2.025	2.021	2.766	0.178	0.969	-0.572	-2.146	-3.371	-4.009	-1.373	0.095	0.679	0.803	1.515	0.829	2.507	1.462	1.719	2.236	1.481	-1.350	-3.105	-3.838	-3.673	-3.287	718.750
1.493	1.145	1.281	1.847	1.950	2.477	0.377	0.834	-0.661	-1.907	-3.154	-3.816	-0.719	0.451	0.525	0.700	1.350	0.602	2.396	1.427	1.791	2.236	1.345	-0.922	-3.056	-3.866	-3.149	-3.024	722.656
1.407	1.003	1.134	1.633	1.841	2.202	0.503	0.630	-0.800	-1.734	-2.908	-3.599	-0.013	0.813	0.345	0.616	1.208	0.436	2.273	1.412	1.875	2.237	1.222	-0.447	-2.999	-3.849	-2.578	-2.712	726.562
1.342	0.848	1.009	1.399	1.707	1.971	0.554	0.377	-0.977	-1.649	-2.666	-3.371	0.687	1.151	0.148	0.552	1.105	0.342	2.153	1.413	1.961	2.246	1.134	0.041	-2.946	-3.789	-1.997	-2.376	730.469
1.297	0.689	0.920	1.168	1.565	1.800	0.539	0.103	-1.170	-1.654	-2.456	-3.145	1.333	1.441	-0.054	0.502	1.044	0.319	2.045	1.422	2.035	2.261	1.092	0.508	-2.906	-3.691	-1.446	-2.044	734.375
1.266	0.536	0.874	0.958	1.432	1.695	0.477	-0.161	-1.354	-1.738	-2.303	-2.930	1.892	1.673	-0.246	0.461	1.015	0.354	1.956	1.430	2.090	2.280	1.093	0.918	-2.883	-3.570	-0.961	-1.742	738.281
1.245	0.397	0.869	0.786	1.325	1.649	0.391	-0.382	-1.506	-1.878	-2.221	-2.735	2.341	1.845	-0.412	0.422	1.004	0.425	1.886	1.433	2.121	2.294	1.121	1.244	-2.877	-3.441	-0.575	-1.494	742.188
1.234	0.285	0.899	0.669	1.256	1.648	0.299	-0.540	-1.609	-2.044	-2.217	-2.570	2.673	1.964	-0.538	0.386	0.998	0.507	1.832	1.431	2.131	2.295	1.151	1.461	-2.880	-3.320	-0.315	-1.318	746.094
1.237	0.210	0.954	0.617	1.234	1.672	0.213	-0.626	-1.659	-2.211	-2.286	-2.442	2.891	2.043	-0.613	0.355	0.984	0.576	1.789	1.427	2.128	2.276	1.156	1.556	-2.882	-3.219	-0.198	-1.226	750.000
1.265	0.183	1.022	0.635	1.260	1.700	0.138	-0.647	-1.667	-2.361	-2.418	-2.361	3.004	2.096	-0.631	0.338	0.962	0.618	1.754	1.435	2.125	2.237	1.117	1.527	-2.875	-3.148	-0.230	-1.224	753.906
1.325	0.214	1.092	0.722	1.329	1.714	0.066	-0.625	-1.651	-2.486	-2.595	-2.333	3.023	2.134	-0.592	0.347	0.938	0.624	1.729	1.466	2.136	2.184	1.031	1.383	-2.849	-3.112	-0.406	-1.309	757.812
1.427	0.304	1.156	0.868	1.431	1.705	-0.011	-0.584	-1.635	-2.588	-2.795	-2.363	2.960	2.166	-0.501	0.391	0.922	0.602	1.716	1.534	2.171	2.128	0.910	1.147	-2.801	-3.114	-0.703	-1.471	761.719
1.569	0.447	1.207	1.056	1.552	1.673	-0.104	-0.553	-1.639	-2.677	-2.994	-2.449	2.824	2.194	-0.367	0.480	0.927	0.564	1.725	1.646	2.239	2.085	0.782	0.850	-2.734	-3.152	-1.089	-1.693	765.625
1.739	0.630	1.241	1.259	1.672	1.629	-0.221	-0.545	-1.671	-2.764	-3.168	-2.581	2.622	2.214	-0.201	0.614	0.965	0.532	1.760	1.803	2.339	2.067	0.678	0.527	-2.654	-3.220	-1.522	-1.956	769.531
1.914	0.828	1.253	1.452	1.774	1.590	-0.362	-0.565	-1.729	-2.860	-3.296	-2.746	2.357	2.220	-0.014	0.787	1.043	0.529	1.823	1.996	2.466	2.082	0.624	0.214	-2.571	-3.312	-1.953	-2.233	773.438
2.067	1.015	1.244	1.607	1.842	1.579	-0.525	-0.600	-1.798	-2.972	-3.362	-2.926	2.037	2.205	0.186	0.987	1.160	0.575	1.914	2.213	2.611	2.131	0.639	-0.062	-2.495	-3.415	-2.337	-2.503	777.344
2.170	1.167	1.211	1.704	1.867	1.617	-0.702	-0.633	-1.861	-3.103	-3.359	-3.106	1.665	2.163	0.396	1.200	1.312	0.683	2.027	2.438	2.761	2.209	0.726	-0.282	-2.433	-3.519	-2.641	-2.748	781.250
2.204	1.268	1.158	1.736	1.846	1.717	-0.883	-0.644	-1.902	-3.253	-3.288	-3.275	1.251	2.093	0.613	1.413	1.487	0.855	2.154	2.659	2.908	2.306	0.880	-0.442	-2.389	-3.617	-2.847	-2.958	785.156
2.167	1.313	1.087	1.705	1.786	1.886	-1.063	-0.620	-1.913	-3.420	-3.163	-3.428	0.803	1.997	0.837	1.619	1.677	1.083	2.290	2.867	3.045	2.414	1.088	-0.549	-2.364	-3.705	-2.959	-3.135	789.062
2.070	1.312	1.005	1.628	1.697	2.112	-1.239	-0.561	-1.893	-3.599	-2.999	-3.566	0.331	1.880	1.069	1.814	1.871	1.354	2.428	3.062	3.173	2.525	1.331	-0.620	-2.354	-3.783	-3.001	-3.287	792.969
1.938	1.283	0.918	1.526	1.594	2.374	-1.410	-0.476	-1.851	-3.787	-2.820	-3.695	-0.154	1.752	1.305	2.000	2.065	1.648	2.568	3.247	3.293	2.635	1.591	-0.673	-2.354	-3.855	-3.005	-3.426	796.875
