FP1	F3	F7	FC3	C3	C5	P3	P7	PO7	PO3	O1	Oz	Pz	CPz	FP2	Fz	F4	F8	FC4	FCz	Cz	C4	C6	P4	P8	PO8	PO4	O2	time
1.251	-0.136	-0.134	0.536	0.823	0.626	-0.165	-0.552	-0.264	-0.541	-0.302	-1.311	0.636	1.310	-0.042	0.437	0.755	0.022	0.718	1.573	1.533	0.698	-0.099	-0.693	-0.921	-1.621	-1.792	-1.781	-199.219
1.141	-0.187	-0.027	0.324	0.545	0.353	-0.287	-0.588	-0.355	-0.491	-0.497	-0.939	0.649	1.204	-0.075	0.168	0.416	0.016	0.566	1.225	1.316	0.590	0.088	-0.336	-0.622	-1.256	-1.268	-1.225	-195.312
1.044	-0.226	0.093	0.144	0.304	0.118	-0.403	-0.625	-0.445	-0.455	-0.691	-0.621	0.645	1.097	-0.108	-0.079	0.113	0.013	0.442	0.904	1.113	0.505	0.282	-0.009	-0.356	-0.933	-0.796	-0.733	-191.406
0.966	-0.247	0.229	0.016	0.126	-0.057	-0.503	-0.661	-0.532	-0.439	-0.878	-0.398	0.615	0.988	-0.144	-0.288	-0.125	0.017	0.360	0.628	0.935	0.454	0.468	0.268	-0.140	-0.680	-0.412	-0.352	-187.500
0.911	-0.250	0.372	-0.050	0.023	-0.163	-0.582	-0.692	-0.609	-0.440	-1.044	-0.289	0.555	0.876	-0.186	-0.449	-0.280	0.026	0.329	0.410	0.788	0.440	0.632	0.478	0.017	-0.508	-0.131	-0.105	-183.594
0.875	-0.241	0.508	-0.060	-0.008	-0.209	-0.634	-0.712	-0.666	-0.451	-1.169	-0.290	0.469	0.763	-0.236	-0.559	-0.346	0.038	0.344	0.255	0.678	0.461	0.763	0.619	0.115	-0.414	0.051	0.011	-179.688
0.848	-0.230	0.613	-0.030	0.017	-0.214	-0.659	-0.716	-0.693	-0.456	-1.233	-0.376	0.368	0.652	-0.292	-0.623	-0.333	0.045	0.391	0.161	0.604	0.505	0.854	0.697	0.161	-0.382	0.156	0.024	-175.781
0.818	-0.232	0.665	0.015	0.073	-0.203	-0.653	-0.699	-0.683	-0.441	-1.216	-0.507	0.270	0.548	-0.353	-0.651	-0.263	0.039	0.450	0.117	0.564	0.558	0.901	0.726	0.171	-0.384	0.218	-0.021	-171.875
0.771	-0.258	0.646	0.050	0.131	-0.201	-0.616	-0.656	-0.632	-0.391	-1.112	-0.640	0.194	0.460	-0.418	-0.657	-0.163	0.009	0.498	0.107	0.552	0.604	0.900	0.724	0.165	-0.391	0.276	-0.077	-167.969
0.700	-0.317	0.551	0.055	0.170	-0.223	-0.547	-0.587	-0.547	-0.302	-0.927	-0.735	0.158	0.394	-0.486	-0.655	-0.065	-0.049	0.516	0.112	0.562	0.628	0.849	0.712	0.166	-0.376	0.360	-0.102	-164.062
0.600	-0.407	0.386	0.019	0.175	-0.275	-0.446	-0.492	-0.437	-0.179	-0.679	-0.767	0.175	0.358	-0.553	-0.655	0.005	-0.137	0.492	0.117	0.587	0.619	0.748	0.703	0.191	-0.321	0.487	-0.072	-160.156
0.473	-0.517	0.169	-0.056	0.145	-0.347	-0.316	-0.378	-0.320	-0.039	-0.395	-0.726	0.246	0.356	-0.614	-0.660	0.030	-0.252	0.425	0.111	0.622	0.575	0.600	0.709	0.250	-0.221	0.657	0.018	-156.250
0.325	-0.629	-0.071	-0.157	0.091	-0.422	-0.165	-0.255	-0.212	0.093	-0.108	-0.617	0.363	0.387	-0.661	-0.669	0.003	-0.385	0.324	0.094	0.664	0.499	0.414	0.732	0.334	-0.089	0.853	0.155	-152.344
0.166	-0.721	-0.305	-0.261	0.032	-0.475	-0.002	-0.136	-0.128	0.189	0.153	-0.460	0.509	0.448	-0.681	-0.671	-0.070	-0.528	0.208	0.072	0.712	0.403	0.213	0.766	0.423	0.051	1.045	0.308	-148.438
0.009	-0.771	-0.501	-0.343	-0.008	-0.486	0.157	-0.038	-0.079	0.225	0.366	-0.285	0.660	0.531	-0.664	-0.652	-0.174	-0.672	0.102	0.058	0.767	0.308	0.026	0.801	0.487	0.167	1.195	0.442	-144.531
-0.133	-0.763	-0.638	-0.380	-0.011	-0.440	0.296	0.029	-0.068	0.183	0.513	-0.120	0.791	0.624	-0.606	-0.597	-0.286	-0.811	0.028	0.070	0.830	0.233	-0.113	0.822	0.498	0.231	1.272	0.525	-140.625
-0.247	-0.692	-0.705	-0.355	0.038	-0.340	0.400	0.054	-0.091	0.063	0.591	0.007	0.883	0.716	-0.508	-0.496	-0.379	-0.940	0.004	0.119	0.900	0.195	-0.174	0.812	0.437	0.220	1.254	0.534	-136.719
-0.322	-0.562	-0.701	-0.263	0.140	-0.197	0.461	0.036	-0.141	-0.121	0.599	0.079	0.921	0.795	-0.380	-0.344	-0.432	-1.054	0.039	0.214	0.975	0.203	-0.145	0.759	0.301	0.129	1.132	0.459	-132.812
-0.350	-0.387	-0.637	-0.114	0.284	-0.037	0.476	-0.017	-0.203	-0.341	0.549	0.091	0.903	0.853	-0.240	-0.145	-0.427	-1.151	0.126	0.349	1.051	0.254	-0.031	0.655	0.107	-0.032	0.917	0.309	-128.906
-0.330	-0.185	-0.528	0.075	0.450	0.113	0.447	-0.094	-0.263	-0.562	0.455	0.048	0.831	0.884	-0.106	0.085	-0.361	-1.225	0.249	0.513	1.119	0.338	0.142	0.500	-0.114	-0.239	0.633	0.103	-125.000
-0.267	0.019	-0.395	0.279	0.613	0.228	0.387	-0.179	-0.304	-0.744	0.336	-0.029	0.719	0.884	0.004	0.324	-0.242	-1.271	0.386	0.681	1.167	0.435	0.334	0.306	-0.325	-0.458	0.315	-0.127	-121.094
-0.170	0.203	-0.257	0.469	0.749	0.296	0.308	-0.253	-0.316	-0.854	0.212	-0.119	0.579	0.852	0.080	0.546	-0.086	-1.286	0.511	0.828	1.185	0.520	0.498	0.088	-0.495	-0.653	-0.001	-0.348	-117.188
-0.057	0.352	-0.131	0.622	0.835	0.313	0.224	-0.305	-0.294	-0.871	0.103	-0.197	0.429	0.790	0.120	0.724	0.083	-1.267	0.601	0.926	1.161	0.572	0.590	-0.131	-0.600	-0.792	-0.282	-0.530	-113.281
0.054	0.452	-0.027	0.718	0.857	0.290	0.145	-0.324	-0.236	-0.788	0.027	-0.248	0.283	0.700	0.130	0.840	0.243	-1.214	0.643	0.958	1.089	0.577	0.583	-0.331	-0.637	-0.851	-0.502	-0.651	-109.375
0.146	0.501	0.044	0.748	0.812	0.241	0.076	-0.308	-0.150	-0.617	-0.006	-0.263	0.151	0.587	0.120	0.885	0.377	-1.127	0.634	0.914	0.967	0.529	0.472	-0.491	-0.612	-0.820	-0.645	-0.699	-105.469
0.205	0.501	0.078	0.710	0.701	0.181	0.019	-0.256	-0.046	-0.382	0.008	-0.248	0.039	0.455	0.107	0.862	0.473	-1.011	0.580	0.801	0.800	0.434	0.274	-0.599	-0.544	-0.704	-0.708	-0.678	-101.562
0.220	0.458	0.074	0.611	0.536	0.122	-0.028	-0.174	0.063	-0.118	0.067	-0.209	-0.049	0.311	0.104	0.784	0.526	-0.870	0.496	0.635	0.599	0.306	0.021	-0.649	-0.451	-0.519	-0.697	-0.597	-97.656
0.188	0.384	0.036	0.463	0.334	0.072	-0.068	-0.069	0.164	0.138	0.164	-0.159	-0.116	0.161	0.122	0.672	0.538	-0.711	0.395	0.440	0.378	0.164	-0.246	-0.645	-0.351	-0.293	-0.624	-0.473	-93.750
0.112	0.291	-0.030	0.284	0.114	0.034	-0.104	0.050	0.246	0.352	0.285	-0.102	-0.164	0.013	0.166	0.547	0.516	-0.542	0.293	0.242	0.152	0.028	-0.484	-0.595	-0.256	-0.056	-0.503	-0.321	-89.844
0.002	0.193	-0.110	0.094	-0.104	0.007	-0.136	0.173	0.304	0.500	0.418	-0.039	-0.198	-0.128	0.232	0.431	0.466	-0.374	0.197	0.065	-0.063	-0.087	-0.663	-0.510	-0.175	0.166	-0.353	-0.158	-85.938
-0.130	0.099	-0.193	-0.090	-0.298	-0.013	-0.163	0.288	0.335	0.572	0.545	0.035	-0.220	-0.253	0.310	0.337	0.397	-0.216	0.111	-0.077	-0.256	-0.173	-0.763	-0.408	-0.112	0.352	-0.186	0.006	-82.031
-0.268	0.020	-0.262	-0.250	-0.453	-0.031	-0.180	0.384	0.343	0.575	0.649	0.130	-0.233	-0.361	0.387	0.269	0.317	-0.080	0.033	-0.179	-0.421	-0.229	-0.779	-0.303	-0.069	0.490	-0.017	0.162	-78.125
-0.399	-0.040	-0.308	-0.371	-0.557	-0.050	-0.180	0.455	0.337	0.527	0.716	0.251	-0.238	-0.447	0.446	0.225	0.231	0.025	-0.045	-0.250	-0.556	-0.262	-0.723	-0.209	-0.043	0.580	0.144	0.306	-74.219
-0.512	-0.076	-0.323	-0.447	-0.605	-0.073	-0.155	0.497	0.326	0.457	0.732	0.400	-0.234	-0.512	0.474	0.194	0.143	0.098	-0.129	-0.302	-0.667	-0.284	-0.617	-0.138	-0.032	0.629	0.286	0.434	-70.312
-0.600	-0.087	-0.306	-0.474	-0.598	-0.097	-0.099	0.513	0.323	0.396	0.693	0.568	-0.222	-0.557	0.461	0.166	0.055	0.140	-0.227	-0.353	-0.761	-0.312	-0.489	-0.099	-0.032	0.649	0.401	0.541	-66.406
-0.661	-0.076	-0.262	-0.455	-0.543	-0.114	-0.005	0.512	0.340	0.370	0.601	0.740	-0.203	-0.586	0.405	0.131	-0.031	0.159	-0.343	-0.416	-0.844	-0.358	-0.370	-0.096	-0.041	0.651	0.480	0.623	-62.500
-0.693	-0.043	-0.199	-0.397	-0.453	-0.114	0.124	0.506	0.384	0.397	0.466	0.894	-0.180	-0.604	0.311	0.084	-0.112	0.170	-0.476	-0.499	-0.923	-0.432	-0.285	-0.129	-0.056	0.642	0.512	0.672	-58.594
-0.698	0.005	-0.127	-0.313	-0.344	-0.087	0.283	0.504	0.458	0.475	0.309	1.007	-0.160	-0.615	0.189	0.028	-0.185	0.189	-0.619	-0.601	-1.003	-0.533	-0.245	-0.195	-0.077	0.625	0.492	0.683	-54.688
-0.677	0.063	-0.054	-0.215	-0.234	-0.023	0.455	0.514	0.557	0.593	0.150	1.060	-0.154	-0.626	0.056	-0.032	-0.245	0.233	-0.762	-0.712	-1.083	-0.653	-0.248	-0.284	-0.104	0.600	0.417	0.652	-50.781
-0.634	0.126	0.014	-0.118	-0.139	0.079	0.622	0.538	0.663	0.725	0.010	1.040	-0.171	-0.646	-0.067	-0.084	-0.288	0.314	-0.887	-0.820	-1.164	-0.775	-0.282	-0.387	-0.133	0.564	0.289	0.577	-46.875
-0.577	0.188	0.075	-0.033	-0.074	0.213	0.758	0.570	0.758	0.837	-0.095	0.946	-0.222	-0.683	-0.161	-0.120	-0.308	0.443	-0.978	-0.909	-1.244	-0.880	-0.326	-0.490	-0.158	0.518	0.121	0.463	-42.969
-0.512	0.246	0.130	0.031	-0.047	0.361	0.839	0.600	0.815	0.898	-0.157	0.789	-0.313	-0.745	-0.209	-0.130	-0.303	0.620	-1.019	-0.969	-1.322	-0.951	-0.361	-0.580	-0.168	0.466	-0.073	0.322	-39.062
-0.448	0.299	0.184	0.066	-0.062	0.500	0.846	0.615	0.816	0.884	-0.177	0.592	-0.445	-0.834	-0.197	-0.113	-0.271	0.840	-1.003	-0.993	-1.394	-0.978	-0.374	-0.642	-0.151	0.415	-0.270	0.169	-35.156
-0.394	0.346	0.238	0.073	-0.118	0.602	0.771	0.606	0.750	0.784	-0.160	0.383	-0.611	-0.951	-0.122	-0.071	-0.216	1.088	-0.932	-0.983	-1.461	-0.956	-0.366	-0.668	-0.095	0.376	-0.453	0.024	-31.250
-0.357	0.392	0.294	0.052	-0.209	0.644	0.617	0.568	0.618	0.606	-0.116	0.193	-0.800	-1.089	0.014	-0.010	-0.144	1.344	-0.819	-0.943	-1.518	-0.895	-0.346	-0.652	0.007	0.359	-0.604	-0.095	-27.344
-0.337	0.438	0.346	0.011	-0.322	0.613	0.402	0.502	0.438	0.370	-0.057	0.046	-0.996	-1.238	0.198	0.060	-0.069	1.582	-0.684	-0.886	-1.565	-0.808	-0.329	-0.595	0.155	0.371	-0.717	-0.171	-23.438
-0.334	0.486	0.385	-0.044	-0.442	0.510	0.152	0.420	0.238	0.111	0.009	-0.040	-1.182	-1.386	0.410	0.127	-0.003	1.780	-0.551	-0.823	-1.600	-0.715	-0.331	-0.505	0.334	0.413	-0.793	-0.197	-19.531
-0.337	0.534	0.398	-0.102	-0.555	0.352	-0.100	0.336	0.055	-0.132	0.075	-0.062	-1.344	-1.521	0.624	0.182	0.041	1.919	-0.443	-0.768	-1.624	-0.633	-0.361	-0.394	0.525	0.477	-0.840	-0.171	-15.625
-0.336	0.578	0.371	-0.155	-0.647	0.164	-0.320	0.266	-0.075	-0.322	0.139	-0.024	-1.474	-1.632	0.811	0.217	0.054	1.988	-0.377	-0.730	-1.639	-0.575	-0.417	-0.277	0.701	0.551	-0.869	-0.103	-11.719
-0.317	0.613	0.295	-0.200	-0.710	-0.021	-0.485	0.219	-0.127	-0.429	0.201	0.060	-1.566	-1.713	0.945	0.226	0.034	1.986	-0.358	-0.716	-1.650	-0.546	-0.485	-0.169	0.841	0.622	-0.890	-0.008	-7.812
-0.271	0.633	0.167	-0.233	-0.742	-0.178	-0.580	0.199	-0.091	-0.442	0.261	0.170	-1.620	-1.761	1.009	0.208	-0.013	1.922	-0.384	-0.728	-1.660	-0.542	-0.546	-0.079	0.929	0.679	-0.909	0.096	-3.906
-0.194	0.633	-0.003	-0.257	-0.749	-0.291	-0.604	0.199	0.026	-0.361	0.317	0.288	-1.640	-1.777	0.994	0.164	-0.077	1.812	-0.439	-0.764	-1.673	-0.555	-0.576	-0.014	0.961	0.715	-0.924	0.188	0.000
-0.093	0.610	-0.198	-0.276	-0.741	-0.357	-0.570	0.208	0.198	-0.208	0.367	0.395	-1.629	-1.764	0.909	0.099	-0.143	1.678	-0.503	-0.816	-1.686	-0.569	-0.553	0.027	0.944	0.729	-0.926	0.258	3.906
0.017	0.565	-0.396	-0.296	-0.734	-0.384	-0.497	0.211	0.389	-0.012	0.406	0.481	-1.591	-1.726	0.772	0.020	-0.200	1.544	-0.556	-0.877	-1.697	-0.571	-0.468	0.050	0.890	0.726	-0.903	0.302	7.812
0.114	0.500	-0.572	-0.324	-0.742	-0.388	-0.409	0.195	0.561	0.193	0.436	0.541	-1.528	-1.668	0.612	-0.064	-0.240	1.428	-0.581	-0.936	-1.701	-0.553	-0.325	0.064	0.817	0.711	-0.845	0.324	11.719
0.175	0.420	-0.706	-0.362	-0.772	-0.388	-0.328	0.154	0.682	0.372	0.459	0.579	-1.444	-1.596	0.460	-0.146	-0.263	1.346	-0.570	-0.986	-1.695	-0.514	-0.142	0.078	0.741	0.690	-0.745	0.338	15.625
0.182	0.335	-0.784	-0.410	-0.824	-0.397	-0.269	0.089	0.734	0.503	0.486	0.604	-1.343	-1.520	0.346	-0.217	-0.274	1.301	-0.527	-1.024	-1.680	-0.461	0.047	0.100	0.677	0.668	-0.607	0.359	19.531
0.124	0.251	-0.803	-0.461	-0.890	-0.424	-0.238	0.011	0.717	0.575	0.531	0.630	-1.231	-1.448	0.287	-0.273	-0.280	1.291	-0.464	-1.050	-1.663	-0.410	0.204	0.129	0.631	0.644	-0.441	0.400	23.438
0.006	0.179	-0.764	-0.506	-0.956	-0.466	-0.230	-0.064	0.648	0.592	0.612	0.668	-1.117	-1.391	0.289	-0.315	-0.291	1.307	-0.401	-1.070	-1.655	-0.377	0.296	0.161	0.603	0.613	-0.267	0.468	27.344
-0.159	0.123	-0.680	-0.538	-1.005	-0.517	-0.236	-0.116	0.558	0.573	0.741	0.730	-1.011	-1.361	0.342	-0.345	-0.314	1.335	-0.358	-1.092	-1.670	-0.376	0.300	0.190	0.589	0.572	-0.103	0.562	31.250
-0.349	0.087	-0.565	-0.552	-1.028	-0.566	-0.237	-0.129	0.481	0.547	0.927	0.820	-0.927	-1.369	0.424	-0.370	-0.351	1.359	-0.349	-1.126	-1.722	-0.414	0.213	0.208	0.579	0.515	0.035	0.674	35.156
-0.543	0.066	-0.440	-0.548	-1.020	-0.604	-0.219	-0.092	0.449	0.547	1.167	0.937	-0.874	-1.422	0.506	-0.400	-0.405	1.366	-0.384	-1.180	-1.824	-0.491	0.050	0.214	0.565	0.447	0.146	0.795	39.062
-0.722	0.049	-0.326	-0.536	-0.989	-0.630	-0.166	-0.006	0.484	0.604	1.449	1.074	-0.859	-1.523	0.559	-0.445	-0.474	1.345	-0.462	-1.264	-1.980	-0.594	-0.152	0.215	0.545	0.381	0.243	0.920	42.969
-0.882	0.020	-0.245	-0.530	-0.953	-0.650	-0.069	0.120	0.591	0.745	1.752	1.218	-0.878	-1.670	0.556	-0.519	-0.560	1.291	-0.579	-1.384	-2.190	-0.707	-0.351	0.231	0.522	0.343	0.359	1.048	46.875
-1.029	-0.039	-0.220	-0.551	-0.935	-0.678	0.078	0.264	0.765	0.990	2.050	1.357	-0.919	-1.849	0.479	-0.631	-0.668	1.202	-0.725	-1.543	-2.442	-0.810	-0.503	0.288	0.507	0.370	0.544	1.190	50.781
-1.181	-0.148	-0.273	-0.618	-0.955	-0.736	0.280	0.402	0.987	1.348	2.317	1.475	-0.960	-2.042	0.317	-0.793	-0.806	1.080	-0.890	-1.743	-2.719	-0.887	-0.580	0.420	0.517	0.505	0.855	1.363	54.688
-1.362	-0.324	-0.421	-0.747	-1.028	-0.841	0.538	0.511	1.235	1.819	2.531	1.559	-0.970	-2.217	0.067	-1.014	-0.983	0.926	-1.066	-1.980	-2.997	-0.928	-0.570	0.659	0.570	0.789	1.349	1.588	58.594
-1.595	-0.576	-0.674	-0.943	-1.156	-1.005	0.854	0.570	1.487	2.391	2.676	1.596	-0.914	-2.342	-0.267	-1.298	-1.211	0.742	-1.248	-2.249	-3.249	-0.931	-0.485	1.031	0.686	1.254	2.065	1.884	62.500
-1.896	-0.901	-1.030	-1.200	-1.326	-1.231	1.228	0.567	1.721	3.041	2.739	1.572	-0.761	-2.381	-0.674	-1.642	-1.496	0.527	-1.433	-2.537	-3.445	-0.903	-0.355	1.543	0.874	1.913	3.015	2.258	66.406
-2.267	-1.283	-1.471	-1.496	-1.512	-1.507	1.657	0.501	1.919	3.727	2.707	1.469	-0.485	-2.304	-1.137	-2.034	-1.833	0.284	-1.618	-2.824	-3.560	-0.852	-0.217	2.183	1.137	2.754	4.171	2.700	70.312
-2.692	-1.691	-1.968	-1.800	-1.680	-1.813	2.128	0.380	2.066	4.396	2.566	1.270	-0.081	-2.092	-1.628	-2.449	-2.209	0.019	-1.797	-3.089	-3.573	-0.792	-0.111	2.915	1.468	3.731	5.462	3.178	74.219
-3.140	-2.083	-2.474	-2.073	-1.795	-2.117	2.620	0.221	2.149	4.982	2.301	0.953	0.438	-1.744	-2.112	-2.854	-2.594	-0.249	-1.959	-3.306	-3.476	-0.728	-0.064	3.682	1.850	4.775	6.777	3.640	78.125
-3.562	-2.410	-2.935	-2.277	-1.828	-2.387	3.102	0.049	2.156	5.410	1.897	0.504	1.033	-1.278	-2.546	-3.206	-2.951	-0.492	-2.090	-3.451	-3.270	-0.665	-0.087	4.413	2.256	5.789	7.977	4.018	82.031
-3.908	-2.627	-3.298	-2.379	-1.764	-2.587	3.533	-0.114	2.080	5.609	1.340	-0.086	1.647	-0.730	-2.885	-3.464	-3.232	-0.673	-2.171	-3.505	-2.969	-0.597	-0.170	5.034	2.657	6.668	8.916	4.238	85.938
-4.125	-2.697	-3.514	-2.358	-1.601	-2.690	3.866	-0.248	1.914	5.518	0.629	-0.815	2.211	-0.148	-3.086	-3.593	-3.392	-0.747	-2.181	-3.455	-2.598	-0.511	-0.279	5.478	3.020	7.312	9.461	4.236	89.844
-4.173	-2.595	-3.548	-2.207	-1.352	-2.673	4.055	-0.341	1.658	5.097	-0.227	-1.664	2.653	0.411	-3.116	-3.567	-3.392	-0.676	-2.098	-3.297	-2.183	-0.392	-0.370	5.697	3.310	7.638	9.518	3.965	93.750
-4.031	-2.320	-3.385	-1.932	-1.038	-2.528	4.062	-0.391	1.315	4.333	-1.199	-2.600	2.911	0.894	-2.954	-3.374	-3.210	-0.428	-1.904	-3.034	-1.753	-0.221	-0.391	5.670	3.492	7.594	9.041	3.407	97.656
-3.698	-1.882	-3.028	-1.550	-0.689	-2.257	3.863	-0.406	0.897	3.245	-2.243	-3.581	2.944	1.261	-2.598	-3.017	-2.839	0.013	-1.592	-2.676	-1.334	0.015	-0.298	5.401	3.536	7.164	8.042	2.576	101.562
-3.191	-1.312	-2.502	-1.086	-0.332	-1.873	3.452	-0.401	0.421	1.890	-3.300	-4.555	2.738	1.486	-2.065	-2.511	-2.296	0.639	-1.162	-2.239	-0.944	0.319	-0.065	4.921	3.417	6.370	6.588	1.517	105.469
-2.551	-0.649	-1.849	-0.571	0.007	-1.400	2.848	-0.391	-0.089	0.354	-4.300	-5.464	2.304	1.561	-1.390	-1.888	-1.613	1.423	-0.630	-1.747	-0.599	0.684	0.312	4.280	3.119	5.265	4.794	0.300	109.375
-1.829	0.064	-1.123	-0.038	0.310	-0.868	2.098	-0.391	-0.597	-1.246	-5.171	-6.251	1.679	1.496	-0.622	-1.191	-0.843	2.312	-0.024	-1.226	-0.307	1.088	0.809	3.539	2.642	3.926	2.806	-0.987	113.281
-1.088	0.776	-0.385	0.482	0.567	-0.311	1.273	-0.408	-1.060	-2.769	-5.841	-6.862	0.918	1.311	0.176	-0.474	-0.049	3.237	0.614	-0.714	-0.079	1.501	1.381	2.757	2.000	2.447	0.786	-2.246	117.188
-0.396	1.437	0.301	0.957	0.774	0.235	0.466	-0.434	-1.429	-4.064	-6.246	-7.247	0.088	1.031	0.936	0.203	0.695	4.117	1.231	-0.250	0.073	1.879	1.964	1.992	1.227	0.930	-1.103	-3.381	121.094
0.181	2.000	0.875	1.359	0.927	0.735	-0.223	-0.454	-1.652	-4.979	-6.335	-7.362	-0.746	0.676	1.590	0.774	1.314	4.864	1.770	0.121	0.134	2.181	2.492	1.290	0.371	-0.519	-2.708	-4.300	125.000
0.585	2.419	1.286	1.661	1.028	1.157	-0.696	-0.444	-1.683	-5.385	-6.073	-7.177	-1.521	0.267	2.078	1.177	1.737	5.398	2.172	0.355	0.089	2.364	2.899	0.684	-0.504	-1.802	-3.901	-4.925	128.906
0.767	2.653	1.491	1.839	1.073	1.469	-0.873	-0.380	-1.487	-5.188	-5.446	-6.676	-2.185	-0.185	2.350	1.360	1.909	5.652	2.385	0.412	-0.082	2.397	3.134	0.203	-1.328	-2.826	-4.583	-5.192	132.812
0.700	2.673	1.465	1.871	1.058	1.644	-0.704	-0.242	-1.044	-4.347	-4.459	-5.858	-2.702	-0.669	2.373	1.284	1.793	5.588	2.374	0.264	-0.387	2.264	3.165	-0.133	-2.032	-3.517	-4.691	-5.063	136.719
0.374	2.459	1.195	1.744	0.977	1.661	-0.174	-0.021	-0.360	-2.882	-3.144	-4.746	-3.044	-1.174	2.134	0.933	1.380	5.197	2.120	-0.105	-0.830	1.964	2.982	-0.306	-2.558	-3.823	-4.203	-4.522	140.625
-0.197	2.010	0.689	1.452	0.826	1.502	0.695	0.281	0.537	-0.867	-1.554	-3.383	-3.202	-1.687	1.639	0.312	0.689	4.505	1.632	-0.688	-1.397	1.517	2.599	-0.302	-2.865	-3.718	-3.141	-3.586	144.531
-0.978	1.343	-0.031	0.999	0.602	1.164	1.846	0.646	1.599	1.570	0.237	-1.832	-3.175	-2.187	0.913	-0.552	-0.234	3.563	0.940	-1.464	-2.066	0.960	2.054	-0.112	-2.938	-3.205	-1.563	-2.299	148.438
-1.918	0.490	-0.929	0.401	0.307	0.656	3.201	1.052	2.764	4.273	2.141	-0.168	-2.974	-2.656	-0.003	-1.613	-1.326	2.447	0.095	-2.392	-2.801	0.339	1.401	0.269	-2.787	-2.323	0.435	-0.736	152.344
-2.952	-0.501	-1.956	-0.317	-0.049	0.005	4.671	1.467	3.964	7.078	4.067	1.526	-2.618	-3.070	-1.058	-2.810	-2.514	1.235	-0.839	-3.424	-3.562	-0.294	0.703	0.833	-2.446	-1.134	2.733	1.012	156.250
-4.017	-1.575	-3.057	-1.122	-0.454	-0.746	6.167	1.866	5.137	9.829	5.927	3.169	-2.131	-3.412	-2.194	-4.082	-3.727	0.004	-1.798	-4.508	-4.314	-0.893	0.023	1.563	-1.959	0.276	5.202	2.838	160.156
-5.052	-2.676	-4.175	-1.974	-0.887	-1.541	7.614	2.225	6.231	12.400	7.645	4.689	-1.542	-3.672	-3.353	-5.367	-4.906	-1.182	-2.720	-5.595	-5.025	-1.420	-0.586	2.430	-1.380	1.810	7.711	4.641	164.062
-6.010	-3.754	-5.254	-2.833	-1.328	-2.319	8.956	2.531	7.208	14.699	9.165	6.033	-0.879	-3.845	-4.483	-6.611	-6.006	-2.279	-3.560	-6.641	-5.674	-1.852	-1.089	3.395	-0.758	3.367	10.144	6.329	167.969
-6.859	-4.766	-6.245	-3.661	-1.753	-3.026	10.156	2.774	8.045	16.677	10.447	7.163	-0.168	-3.936	-5.537	-7.769	-7.000	-3.256	-4.285	-7.615	-6.250	-2.184	-1.469	4.413	-0.135	4.856	12.407	7.831	171.875
-7.585	-5.681	-7.107	-4.424	-2.142	-3.616	11.198	2.956	8.734	18.318	11.472	8.064	0.565	-3.951	-6.483	-8.809	-7.874	-4.101	-4.881	-8.489	-6.748	-2.421	-1.731	5.436	0.455	6.199	14.429	9.101	175.781
-8.188	-6.479	-7.809	-5.094	-2.476	-4.067	12.081	3.081	9.275	19.630	12.237	8.733	1.303	-3.901	-7.295	-9.705	-8.618	-4.807	-5.349	-9.248	-7.168	-2.577	-1.890	6.415	0.988	7.339	16.161	10.117	179.688
-8.675	-7.144	-8.333	-5.650	-2.738	-4.371	12.812	3.155	9.674	20.638	12.754	9.180	2.030	-3.797	-7.962	-10.443	-9.226	-5.375	-5.697	-9.877	-7.510	-2.673	-1.972	7.306	1.450	8.244	17.575	10.878	183.594
-9.060	-7.670	-8.676	-6.080	-2.921	-4.539	13.400	3.187	9.941	21.366	13.043	9.420	2.733	-3.644	-8.478	-11.011	-9.692	-5.804	-5.943	-10.373	-7.775	-2.728	-2.007	8.071	1.832	8.902	18.658	11.398	187.500
-9.354	-8.051	-8.844	-6.379	-3.021	-4.591	13.852	3.184	10.085	21.834	13.132	9.474	3.402	-3.450	-8.844	-11.407	-10.008	-6.095	-6.101	-10.732	-7.962	-2.757	-2.021	8.682	2.133	9.321	19.405	11.696	191.406
-9.564	-8.286	-8.858	-6.549	-3.040	-4.548	14.170	3.155	10.113	22.052	13.048	9.360	4.029	-3.217	-9.062	-11.631	-10.167	-6.249	-6.185	-10.957	-8.070	-2.770	-2.031	9.120	2.354	9.523	19.824	11.791	195.312
-9.689	-8.376	-8.746	-6.597	-2.985	-4.431	14.350	3.102	10.030	22.024	12.822	9.099	4.604	-2.945	-9.139	-11.690	-10.168	-6.270	-6.200	-11.055	-8.095	-2.769	-2.048	9.381	2.498	9.538	19.927	11.700	199.219
-9.723	-8.326	-8.538	-6.534	-2.869	-4.259	14.386	3.028	9.838	21.749	12.475	8.711	5.118	-2.635	-9.086	-11.594	-10.011	-6.169	-6.147	-11.034	-8.034	-2.752	-2.076	9.471	2.572	9.402	19.736	11.440	203.125
-9.658	-8.142	-8.267	-6.373	-2.705	-4.044	14.273	2.932	9.540	21.232	12.027	8.218	5.561	-2.289	-8.911	-11.357	-9.707	-5.963	-6.025	-10.901	-7.884	-2.710	-2.108	9.405	2.584	9.148	19.278	11.024	207.031
-9.488	-7.838	-7.961	-6.132	-2.511	-3.796	14.008	2.808	9.140	20.489	11.487	7.646	5.920	-1.912	-8.630	-10.995	-9.268	-5.676	-5.826	-10.666	-7.645	-2.636	-2.133	9.210	2.544	8.809	18.591	10.473	210.938
-9.212	-7.432	-7.642	-5.827	-2.301	-3.524	13.600	2.650	8.645	19.553	10.862	7.018	6.184	-1.512	-8.256	-10.526	-8.714	-5.336	-5.549	-10.336	-7.316	-2.521	-2.138	8.919	2.461	8.410	17.716	9.810	214.844
-8.845	-6.948	-7.326	-5.479	-2.091	-3.238	13.067	2.451	8.074	18.471	10.160	6.362	6.343	-1.100	-7.807	-9.971	-8.069	-4.967	-5.193	-9.920	-6.903	-2.358	-2.104	8.568	2.343	7.969	16.702	9.067	218.750
-8.412	-6.417	-7.023	-5.106	-1.888	-2.948	12.441	2.210	7.450	17.306	9.394	5.704	6.392	-0.687	-7.299	-9.353	-7.356	-4.593	-4.767	-9.429	-6.414	-2.144	-2.016	8.196	2.190	7.498	15.599	8.278	222.656
-7.949	-5.870	-6.742	-4.727	-1.698	-2.666	11.765	1.932	6.806	16.125	8.586	5.066	6.334	-0.281	-6.752	-8.699	-6.604	-4.226	-4.285	-8.873	-5.858	-1.878	-1.863	7.834	1.998	7.000	14.455	7.477	226.562
-7.494	-5.336	-6.486	-4.356	-1.518	-2.404	11.086	1.627	6.175	14.991	7.765	4.465	6.182	0.111	-6.183	-8.034	-5.841	-3.873	-3.767	-8.265	-5.248	-1.568	-1.643	7.504	1.756	6.477	13.314	6.692	230.469
-7.084	-4.838	-6.261	-4.003	-1.342	-2.172	10.452	1.316	5.587	13.955	6.969	3.913	5.958	0.487	-5.614	-7.384	-5.092	-3.532	-3.236	-7.620	-4.597	-1.225	-1.368	7.219	1.453	5.924	12.210	5.944	234.375
-6.742	-4.391	-6.068	-3.671	-1.159	-1.973	9.902	1.019	5.063	13.050	6.234	3.411	5.688	0.852	-5.063	-6.767	-4.381	-3.199	-2.718	-6.951	-3.919	-0.867	-1.058	6.974	1.082	5.339	11.165	5.240	238.281
-6.476	-3.994	-5.903	-3.356	-0.955	-1.807	9.462	0.756	4.612	12.287	5.589	2.957	5.401	1.207	-4.551	-6.198	-3.728	-2.867	-2.234	-6.271	-3.229	-0.512	-0.745	6.758	0.644	4.721	10.194	4.580	242.188
-6.278	-3.639	-5.762	-3.050	-0.721	-1.670	9.145	0.544	4.235	11.660	5.056	2.540	5.124	1.556	-4.094	-5.684	-3.146	-2.536	-1.801	-5.591	-2.541	-0.181	-0.463	6.553	0.149	4.070	9.299	3.956	246.094
-6.128	-3.310	-5.635	-2.744	-0.453	-1.552	8.943	0.394	3.921	11.149	4.641	2.151	4.877	1.899	-3.704	-5.227	-2.643	-2.212	-1.431	-4.923	-1.872	0.109	-0.243	6.343	-0.384	3.395	8.482	3.361	250.000
-6.001	-2.990	-5.516	-2.435	-0.154	-1.449	8.837	0.309	3.659	10.729	4.340	1.783	4.672	2.231	-3.389	-4.823	-2.222	-1.905	-1.127	-4.277	-1.236	0.346	-0.105	6.119	-0.924	2.708	7.744	2.795	253.906
-5.874	-2.668	-5.399	-2.120	0.161	-1.358	8.797	0.284	3.437	10.373	4.134	1.432	4.515	2.547	-3.150	-4.464	-1.876	-1.634	-0.884	-3.666	-0.647	0.527	-0.057	5.885	-1.441	2.032	7.090	2.262	257.812
-5.733	-2.340	-5.288	-1.806	0.473	-1.282	8.790	0.304	3.246	10.061	4.000	1.102	4.405	2.838	-2.981	-4.144	-1.596	-1.415	-0.692	-3.098	-0.116	0.658	-0.089	5.653	-1.905	1.394	6.525	1.777	261.719
-5.575	-2.011	-5.191	-1.505	0.760	-1.230	8.785	0.351	3.078	9.778	3.906	0.799	4.338	3.098	-2.872	-3.854	-1.365	-1.261	-0.536	-2.580	0.351	0.750	-0.177	5.444	-2.292	0.826	6.061	1.355	265.625
-5.409	-1.693	-5.121	-1.230	1.000	-1.209	8.761	0.403	2.927	9.516	3.826	0.531	4.308	3.324	-2.810	-3.586	-1.171	-1.180	-0.402	-2.116	0.752	0.819	-0.287	5.280	-2.588	0.359	5.706	1.014	269.531
-5.249	-1.403	-5.095	-0.995	1.181	-1.229	8.706	0.438	2.788	9.273	3.736	0.304	4.313	3.519	-2.781	-3.337	-1.001	-1.172	-0.277	-1.707	1.091	0.881	-0.387	5.181	-2.783	0.022	5.466	0.762	273.438
-5.114	-1.157	-5.126	-0.811	1.297	-1.293	8.620	0.445	2.655	9.049	3.623	0.119	4.352	3.689	-2.770	-3.105	-0.849	-1.230	-0.156	-1.351	1.373	0.946	-0.452	5.160	-2.874	-0.165	5.342	0.606	277.344
-5.022	-0.970	-5.223	-0.682	1.350	-1.399	8.512	0.421	2.527	8.847	3.483	-0.025	4.423	3.843	-2.769	-2.891	-0.717	-1.345	-0.042	-1.044	1.609	1.021	-0.471	5.221	-2.860	-0.191	5.330	0.541	281.250
-4.983	-0.852	-5.383	-0.608	1.352	-1.538	8.396	0.376	2.401	8.664	3.321	-0.137	4.526	3.987	-2.771	-2.698	-0.612	-1.509	0.058	-0.783	1.807	1.103	-0.448	5.357	-2.741	-0.058	5.418	0.557	285.156
-4.999	-0.804	-5.596	-0.583	1.316	-1.699	8.289	0.328	2.279	8.498	3.148	-0.224	4.660	4.129	-2.776	-2.532	-0.542	-1.710	0.136	-0.562	1.974	1.187	-0.401	5.553	-2.524	0.219	5.590	0.640	289.062
-5.064	-0.821	-5.841	-0.597	1.261	-1.863	8.205	0.296	2.169	8.341	2.980	-0.299	4.818	4.269	-2.788	-2.394	-0.514	-1.942	0.186	-0.378	2.117	1.268	-0.349	5.792	-2.222	0.614	5.825	0.769	292.969
-5.166	-0.891	-6.096	-0.637	1.200	-2.012	8.154	0.301	2.078	8.192	2.832	-0.366	4.989	4.403	-2.811	-2.287	-0.528	-2.197	0.205	-0.225	2.240	1.339	-0.314	6.051	-1.858	1.085	6.099	0.925	296.875
-5.288	-0.997	-6.338	-0.690	1.145	-2.131	8.139	0.358	2.020	8.049	2.722	-0.430	5.160	4.525	-2.852	-2.209	-0.578	-2.471	0.198	-0.101	2.343	1.399	-0.309	6.309	-1.463	1.589	6.392	1.087	300.781
-5.417	-1.121	-6.551	-0.744	1.104	-2.210	8.161	0.474	2.003	7.921	2.661	-0.486	5.312	4.623	-2.915	-2.156	-0.650	-2.757	0.171	-0.003	2.423	1.447	-0.335	6.547	-1.071	2.080	6.683	1.239	304.688
-5.542	-1.249	-6.733	-0.794	1.077	-2.248	8.216	0.647	2.036	7.821	2.656	-0.530	5.431	4.687	-3.002	-2.122	-0.730	-3.050	0.132	0.070	2.477	1.486	-0.386	6.752	-0.712	2.524	6.961	1.369	308.594
-5.659	-1.368	-6.886	-0.836	1.062	-2.249	8.299	0.864	2.120	7.771	2.704	-0.553	5.503	4.710	-3.110	-2.102	-0.804	-3.338	0.087	0.118	2.500	1.518	-0.448	6.917	-0.411	2.897	7.221	1.472	312.500
-5.768	-1.473	-7.023	-0.871	1.056	-2.224	8.407	1.111	2.248	7.790	2.793	-0.552	5.525	4.689	-3.234	-2.092	-0.863	-3.609	0.040	0.141	2.490	1.545	-0.503	7.042	-0.179	3.188	7.461	1.546	316.406
-5.872	-1.565	-7.155	-0.901	1.056	-2.187	8.537	1.366	2.411	7.893	2.906	-0.529	5.499	4.630	-3.366	-2.087	-0.906	-3.849	-0.012	0.142	2.450	1.565	-0.544	7.129	-0.018	3.402	7.684	1.591	320.312
-5.974	-1.645	-7.292	-0.926	1.063	-2.146	8.689	1.613	2.590	8.086	3.019	-0.493	5.437	4.547	-3.500	-2.085	-0.937	-4.041	-0.073	0.129	2.389	1.576	-0.570	7.186	0.082	3.550	7.888	1.607	324.219
-6.073	-1.717	-7.435	-0.944	1.083	-2.108	8.863	1.836	2.770	8.359	3.109	-0.458	5.355	4.455	-3.631	-2.084	-0.966	-4.177	-0.148	0.111	2.319	1.572	-0.589	7.221	0.135	3.647	8.067	1.594	328.125
-6.166	-1.785	-7.575	-0.952	1.123	-2.072	9.059	2.028	2.934	8.688	3.159	-0.442	5.272	4.373	-3.752	-2.083	-1.005	-4.254	-0.241	0.099	2.257	1.551	-0.614	7.239	0.154	3.706	8.209	1.547	332.031
-6.246	-1.850	-7.698	-0.942	1.195	-2.030	9.274	2.187	3.071	9.037	3.162	-0.456	5.205	4.316	-3.860	-2.079	-1.064	-4.278	-0.351	0.105	2.217	1.511	-0.650	7.248	0.146	3.731	8.296	1.464	335.938
-6.307	-1.916	-7.788	-0.910	1.306	-1.970	9.502	2.318	3.175	9.367	3.121	-0.503	5.168	4.296	-3.953	-2.076	-1.146	-4.263	-0.472	0.134	2.208	1.460	-0.697	7.252	0.109	3.720	8.312	1.345	339.844
-6.342	-1.981	-7.829	-0.853	1.457	-1.882	9.735	2.427	3.247	9.647	3.056	-0.576	5.172	4.316	-4.031	-2.077	-1.253	-4.229	-0.592	0.186	2.233	1.407	-0.742	7.257	0.034	3.663	8.247	1.196	343.750
-6.346	-2.050	-7.814	-0.775	1.641	-1.761	9.960	2.521	3.290	9.853	2.990	-0.653	5.223	4.375	-4.096	-2.091	-1.383	-4.197	-0.699	0.250	2.289	1.365	-0.769	7.271	-0.088	3.552	8.100	1.033	347.656
-6.317	-2.124	-7.745	-0.687	1.844	-1.610	10.166	2.604	3.311	9.981	2.952	-0.703	5.321	4.465	-4.154	-2.129	-1.532	-4.185	-0.783	0.310	2.364	1.345	-0.764	7.299	-0.258	3.386	7.887	0.878	351.562
-6.259	-2.209	-7.632	-0.607	2.044	-1.442	10.344	2.677	3.316	10.042	2.967	-0.693	5.466	4.577	-4.213	-2.202	-1.697	-4.209	-0.843	0.346	2.443	1.351	-0.723	7.348	-0.466	3.175	7.636	0.763	355.469
-6.179	-2.311	-7.490	-0.552	2.219	-1.274	10.485	2.733	3.309	10.061	3.050	-0.597	5.654	4.697	-4.280	-2.321	-1.880	-4.276	-0.884	0.338	2.508	1.381	-0.652	7.420	-0.692	2.943	7.389	0.718	359.375
-6.090	-2.435	-7.337	-0.539	2.347	-1.124	10.587	2.766	3.295	10.070	3.207	-0.398	5.879	4.817	-4.360	-2.493	-2.080	-4.384	-0.921	0.272	2.546	1.423	-0.571	7.517	-0.902	2.724	7.189	0.769	363.281
-6.008	-2.585	-7.192	-0.581	2.412	-1.007	10.649	2.769	3.281	10.101	3.427	-0.098	6.133	4.925	-4.455	-2.721	-2.301	-4.524	-0.972	0.142	2.544	1.461	-0.506	7.637	-1.062	2.556	7.081	0.930	367.188
-5.947	-2.762	-7.068	-0.680	2.409	-0.933	10.675	2.739	3.270	10.179	3.689	0.283	6.402	5.014	-4.562	-3.002	-2.543	-4.678	-1.053	-0.051	2.496	1.478	-0.481	7.775	-1.139	2.470	7.091	1.199	371.094
-5.914	-2.962	-6.976	-0.831	2.338	-0.902	10.668	2.682	3.269	10.312	3.962	0.710	6.665	5.075	-4.674	-3.328	-2.805	-4.823	-1.174	-0.299	2.398	1.463	-0.508	7.925	-1.116	2.483	7.230	1.557	375.000
-5.909	-3.180	-6.918	-1.023	2.209	-0.912	10.629	2.611	3.279	10.496	4.211	1.142	6.896	5.099	-4.786	-3.687	-3.078	-4.932	-1.332	-0.588	2.251	1.413	-0.581	8.078	-0.988	2.596	7.483	1.968	378.906
-5.919	-3.409	-6.896	-1.240	2.035	-0.952	10.558	2.545	3.306	10.714	4.408	1.542	7.064	5.074	-4.887	-4.064	-3.351	-4.984	-1.514	-0.905	2.057	1.334	-0.681	8.218	-0.771	2.790	7.814	2.391	382.812
-5.930	-3.639	-6.907	-1.463	1.831	-1.008	10.454	2.509	3.353	10.940	4.539	1.883	7.139	4.988	-4.970	-4.444	-3.608	-4.963	-1.697	-1.235	1.818	1.239	-0.774	8.329	-0.495	3.034	8.171	2.779	386.719
-5.921	-3.860	-6.943	-1.673	1.617	-1.064	10.319	2.527	3.428	11.148	4.608	2.155	7.099	4.832	-5.027	-4.812	-3.832	-4.868	-1.856	-1.567	1.541	1.142	-0.829	8.391	-0.201	3.283	8.488	3.090	390.625
-5.877	-4.059	-6.996	-1.853	1.412	-1.104	10.159	2.619	3.540	11.315	4.640	2.365	6.931	4.603	-5.053	-5.154	-4.011	-4.711	-1.969	-1.892	1.234	1.056	-0.823	8.383	0.063	3.493	8.701	3.293	394.531
-5.785	-4.226	-7.050	-1.988	1.234	-1.114	9.978	2.796	3.698	11.426	4.674	2.537	6.639	4.307	-5.042	-5.459	-4.134	-4.516	-2.026	-2.200	0.909	0.984	-0.747	8.286	0.252	3.623	8.755	3.373	398.438
-5.642	-4.349	-7.090	-2.068	1.099	-1.083	9.787	3.054	3.906	11.473	4.755	2.702	6.241	3.956	-4.990	-5.716	-4.201	-4.311	-2.027	-2.482	0.580	0.926	-0.614	8.087	0.333	3.644	8.612	3.332	402.344
-5.450	-4.420	-7.097	-2.087	1.017	-1.008	9.591	3.377	4.162	11.456	4.919	2.888	5.770	3.575	-4.899	-5.921	-4.217	-4.122	-1.987	-2.731	0.265	0.872	-0.451	7.785	0.286	3.546	8.266	3.190	406.250
-5.219	-4.438	-7.059	-2.049	0.988	-0.896	9.396	3.736	4.452	11.379	5.188	3.117	5.263	3.188	-4.775	-6.070	-4.195	-3.967	-1.925	-2.941	-0.021	0.811	-0.294	7.392	0.116	3.342	7.741	2.981	410.156
-4.961	-4.406	-6.966	-1.964	1.003	-0.762	9.203	4.091	4.752	11.248	5.554	3.393	4.763	2.823	-4.629	-6.166	-4.148	-3.853	-1.866	-3.107	-0.264	0.736	-0.182	6.934	-0.148	3.063	7.091	2.749	414.062
-4.693	-4.336	-6.822	-1.848	1.047	-0.631	9.008	4.403	5.032	11.067	5.983	3.703	4.308	2.506	-4.476	-6.211	-4.092	-3.777	-1.826	-3.229	-0.453	0.642	-0.143	6.450	-0.461	2.758	6.389	2.534	417.969
-4.431	-4.240	-6.636	-1.719	1.101	-0.527	8.807	4.636	5.260	10.841	6.420	4.013	3.927	2.255	-4.328	-6.210	-4.037	-3.725	-1.816	-3.306	-0.581	0.532	-0.190	5.983	-0.765	2.479	5.715	2.366	421.875
-4.192	-4.134	-6.426	-1.596	1.145	-0.470	8.594	4.765	5.409	10.569	6.796	4.279	3.637	2.083	-4.197	-6.166	-3.988	-3.680	-1.833	-3.339	-0.644	0.418	-0.317	5.571	-1.000	2.274	5.140	2.259	425.781
-3.989	-4.032	-6.212	-1.491	1.167	-0.470	8.362	4.778	5.461	10.251	7.047	4.457	3.444	1.993	-4.086	-6.086	-3.943	-3.627	-1.868	-3.329	-0.643	0.312	-0.503	5.244	-1.124	2.179	4.714	2.212	429.688
-3.834	-3.945	-6.013	-1.412	1.161	-0.523	8.109	4.682	5.410	9.887	7.125	4.515	3.344	1.977	-3.994	-5.977	-3.897	-3.557	-1.907	-3.281	-0.586	0.225	-0.721	5.018	-1.110	2.209	4.458	2.213	433.594
-3.732	-3.881	-5.844	-1.359	1.128	-0.617	7.838	4.502	5.267	9.483	7.013	4.444	3.320	2.022	-3.913	-5.848	-3.843	-3.466	-1.937	-3.204	-0.484	0.164	-0.942	4.889	-0.961	2.358	4.365	2.243	437.500
-3.684	-3.843	-5.710	-1.328	1.075	-0.730	7.554	4.274	5.054	9.050	6.729	4.262	3.356	2.107	-3.833	-5.715	-3.776	-3.359	-1.956	-3.110	-0.355	0.125	-1.148	4.839	-0.706	2.600	4.401	2.281	441.406
-3.685	-3.829	-5.613	-1.312	1.010	-0.840	7.270	4.041	4.804	8.606	6.323	4.012	3.431	2.211	-3.744	-5.595	-3.695	-3.244	-1.967	-3.015	-0.218	0.100	-1.325	4.838	-0.392	2.892	4.514	2.313	445.312
-3.721	-3.835	-5.544	-1.305	0.945	-0.932	6.998	3.848	4.553	8.170	5.866	3.751	3.527	2.312	-3.640	-5.508	-3.602	-3.125	-1.979	-2.937	-0.093	0.076	-1.469	4.851	-0.078	3.184	4.646	2.327	449.219
-3.776	-3.855	-5.492	-1.301	0.884	-0.995	6.753	3.724	4.329	7.764	5.434	3.536	3.630	2.394	-3.518	-5.466	-3.503	-3.009	-2.001	-2.890	0.007	0.046	-1.571	4.849	0.177	3.423	4.739	2.316	453.125
-3.829	-3.879	-5.440	-1.298	0.835	-1.030	6.542	3.685	4.151	7.400	5.093	3.406	3.730	2.451	-3.377	-5.477	-3.403	-2.895	-2.034	-2.880	0.076	0.009	-1.623	4.810	0.329	3.567	4.750	2.278	457.031
-3.862	-3.901	-5.374	-1.295	0.799	-1.043	6.370	3.721	4.022	7.084	4.883	3.374	3.817	2.485	-3.223	-5.534	-3.308	-2.782	-2.068	-2.902	0.116	-0.023	-1.608	4.727	0.353	3.587	4.655	2.204	460.938
-3.859	-3.909	-5.276	-1.289	0.780	-1.041	6.232	3.807	3.928	6.811	4.810	3.421	3.888	2.505	-3.060	-5.619	-3.216	-2.665	-2.084	-2.940	0.141	-0.031	-1.506	4.606	0.247	3.471	4.447	2.086	464.844
-3.812	-3.896	-5.136	-1.276	0.781	-1.032	6.121	3.904	3.844	6.565	4.846	3.498	3.938	2.527	-2.892	-5.703	-3.122	-2.538	-2.056	-2.968	0.168	0.009	-1.301	4.460	0.027	3.224	4.139	1.910	468.750
-3.721	-3.854	-4.947	-1.247	0.806	-1.016	6.023	3.969	3.742	6.328	4.939	3.542	3.962	2.567	-2.721	-5.756	-3.018	-2.396	-1.961	-2.959	0.218	0.116	-0.986	4.308	-0.272	2.869	3.753	1.666	472.656
-3.594	-3.778	-4.710	-1.193	0.859	-0.992	5.927	3.968	3.598	6.084	5.025	3.492	3.958	2.635	-2.548	-5.749	-2.893	-2.236	-1.785	-2.890	0.306	0.301	-0.570	4.164	-0.613	2.437	3.320	1.347	476.562
-3.446	-3.666	-4.434	-1.106	0.942	-0.953	5.823	3.881	3.395	5.819	5.047	3.306	3.918	2.733	-2.373	-5.666	-2.744	-2.060	-1.529	-2.749	0.439	0.554	-0.082	4.039	-0.954	1.972	2.871	0.960	480.469
-3.293	-3.522	-4.134	-0.981	1.051	-0.895	5.705	3.705	3.133	5.530	4.961	2.972	3.835	2.850	-2.196	-5.505	-2.570	-1.870	-1.212	-2.538	0.614	0.853	0.430	3.933	-1.255	1.518	2.439	0.526	484.375
-3.153	-3.356	-3.829	-0.819	1.180	-0.814	5.570	3.455	2.823	5.224	4.751	2.514	3.701	2.969	-2.020	-5.279	-2.379	-1.677	-0.867	-2.275	0.814	1.161	0.908	3.842	-1.484	1.120	2.050	0.080	488.281
-3.034	-3.183	-3.537	-0.630	1.315	-0.715	5.417	3.160	2.488	4.914	4.432	1.988	3.506	3.063	-1.853	-5.013	-2.184	-1.489	-0.532	-1.990	1.015	1.440	1.295	3.757	-1.617	0.812	1.725	-0.333	492.188
-2.939	-3.019	-3.277	-0.431	1.439	-0.607	5.250	2.855	2.156	4.621	4.040	1.469	3.241	3.103	-1.707	-4.740	-1.999	-1.317	-0.244	-1.719	1.186	1.654	1.548	3.666	-1.645	0.620	1.477	-0.666	496.094
-2.863	-2.883	-3.057	-0.245	1.535	-0.504	5.070	2.578	1.858	4.365	3.632	1.033	2.899	3.065	-1.593	-4.490	-1.836	-1.170	-0.028	-1.495	1.301	1.779	1.646	3.558	-1.572	0.548	1.310	-0.885	500.000
-2.795	-2.786	-2.885	-0.090	1.588	-0.420	4.882	2.358	1.620	4.161	3.264	0.739	2.481	2.934	-1.520	-4.289	-1.702	-1.050	0.108	-1.342	1.337	1.812	1.597	3.426	-1.421	0.584	1.216	-0.970	503.906
-2.726	-2.732	-2.758	0.020	1.593	-0.363	4.694	2.215	1.457	4.018	2.986	0.618	1.998	2.709	-1.490	-4.145	-1.596	-0.957	0.173	-1.268	1.289	1.765	1.435	3.267	-1.228	0.695	1.176	-0.930	507.812
-2.650	-2.716	-2.671	0.080	1.555	-0.335	4.517	2.152	1.371	3.936	2.825	0.663	1.477	2.407	-1.499	-4.056	-1.511	-0.885	0.191	-1.263	1.168	1.669	1.214	3.085	-1.039	0.832	1.165	-0.796	511.719
-2.566	-2.727	-2.614	0.096	1.486	-0.325	4.366	2.156	1.348	3.907	2.782	0.828	0.957	2.064	-1.534	-4.004	-1.435	-0.827	0.196	-1.304	1.002	1.560	0.992	2.892	-0.899	0.944	1.157	-0.619	515.625
-2.486	-2.750	-2.579	0.085	1.409	-0.319	4.262	2.208	1.366	3.921	2.833	1.045	0.492	1.730	-1.579	-3.964	-1.359	-0.777	0.217	-1.354	0.832	1.476	0.821	2.706	-0.847	0.985	1.133	-0.459	519.531
-2.429	-2.770	-2.564	0.065	1.345	-0.301	4.226	2.279	1.393	3.967	2.930	1.234	0.139	1.460	-1.617	-3.913	-1.273	-0.733	0.278	-1.379	0.704	1.451	0.738	2.555	-0.902	0.924	1.085	-0.372	523.438
-2.419	-2.781	-2.569	0.052	1.316	-0.259	4.278	2.343	1.404	4.039	3.018	1.325	-0.045	1.306	-1.638	-3.833	-1.178	-0.699	0.387	-1.348	0.658	1.502	0.759	2.470	-1.059	0.757	1.023	-0.395	527.344
-2.476	-2.785	-2.600	0.058	1.331	-0.191	4.430	2.381	1.377	4.133	3.044	1.270	-0.020	1.306	-1.640	-3.721	-1.082	-0.686	0.541	-1.247	0.719	1.633	0.877	2.480	-1.294	0.509	0.975	-0.537	531.250
-2.617	-2.792	-2.666	0.080	1.391	-0.106	4.683	2.382	1.307	4.245	2.969	1.060	0.231	1.473	-1.632	-3.586	-1.001	-0.703	0.720	-1.079	0.893	1.831	1.071	2.610	-1.560	0.229	0.982	-0.775	535.156
-2.840	-2.819	-2.777	0.108	1.479	-0.027	5.017	2.347	1.197	4.371	2.779	0.720	0.695	1.795	-1.629	-3.450	-0.955	-0.760	0.898	-0.866	1.158	2.075	1.309	2.875	-1.803	-0.017	1.089	-1.058	539.062
-3.130	-2.884	-2.938	0.121	1.571	0.020	5.398	2.282	1.063	4.502	2.481	0.304	1.326	2.230	-1.652	-3.343	-0.960	-0.862	1.049	-0.640	1.477	2.333	1.558	3.271	-1.968	-0.162	1.338	-1.317	542.969
-3.456	-3.000	-3.147	0.098	1.632	0.004	5.772	2.197	0.922	4.620	2.108	-0.115	2.052	2.719	-1.716	-3.290	-1.026	-1.002	1.149	-0.441	1.796	2.572	1.788	3.781	-2.008	-0.147	1.750	-1.479	546.875
-3.780	-3.171	-3.392	0.021	1.631	-0.096	6.078	2.099	0.792	4.699	1.703	-0.466	2.784	3.191	-1.827	-3.307	-1.152	-1.161	1.184	-0.302	2.064	2.766	1.975	4.365	-1.899	0.059	2.323	-1.487	550.781
-4.058	-3.384	-3.651	-0.116	1.546	-0.289	6.253	1.989	0.678	4.709	1.314	-0.693	3.431	3.580	-1.977	-3.391	-1.323	-1.311	1.155	-0.243	2.238	2.895	2.106	4.973	-1.637	0.456	3.022	-1.312	554.688
-4.253	-3.615	-3.895	-0.303	1.369	-0.567	6.251	1.864	0.579	4.620	0.982	-0.769	3.913	3.835	-2.144	-3.523	-1.513	-1.418	1.075	-0.266	2.300	2.950	2.176	5.543	-1.246	1.007	3.780	-0.960	558.594
-4.338	-3.826	-4.088	-0.517	1.113	-0.898	6.043	1.716	0.484	4.407	0.732	-0.701	4.175	3.929	-2.294	-3.666	-1.689	-1.449	0.969	-0.350	2.252	2.935	2.189	6.010	-0.774	1.642	4.506	-0.479	562.500
-4.299	-3.977	-4.200	-0.721	0.810	-1.239	5.631	1.537	0.374	4.059	0.569	-0.529	4.192	3.864	-2.389	-3.772	-1.813	-1.378	0.867	-0.457	2.123	2.866	2.158	6.315	-0.285	2.272	5.098	0.052	566.406
-4.135	-4.026	-4.205	-0.873	0.505	-1.536	5.047	1.320	0.228	3.580	0.475	-0.317	3.975	3.668	-2.395	-3.789	-1.854	-1.193	0.802	-0.539	1.958	2.766	2.100	6.415	0.150	2.801	5.459	0.535	570.312
-3.861	-3.943	-4.091	-0.932	0.249	-1.742	4.343	1.065	0.026	2.989	0.413	-0.139	3.559	3.384	-2.289	-3.675	-1.788	-0.895	0.802	-0.546	1.812	2.662	2.039	6.287	0.472	3.148	5.512	0.876	574.219
-3.500	-3.711	-3.858	-0.868	0.088	-1.820	3.583	0.778	-0.249	2.317	0.336	-0.064	2.997	3.066	-2.063	-3.405	-1.604	-0.506	0.885	-0.438	1.731	2.583	1.996	5.937	0.640	3.257	5.217	0.999	578.125
-3.081	-3.329	-3.524	-0.668	0.054	-1.752	2.831	0.469	-0.605	1.595	0.197	-0.143	2.346	2.759	-1.723	-2.974	-1.303	-0.056	1.061	-0.195	1.747	2.551	1.991	5.394	0.643	3.114	4.579	0.865	582.031
-2.637	-2.816	-3.115	-0.338	0.157	-1.541	2.138	0.152	-1.040	0.853	-0.041	-0.398	1.656	2.498	-1.289	-2.402	-0.900	0.416	1.326	0.180	1.870	2.581	2.040	4.712	0.500	2.742	3.647	0.478	585.938
-2.202	-2.208	-2.668	0.099	0.385	-1.211	1.536	-0.158	-1.538	0.113	-0.391	-0.819	0.962	2.296	-0.789	-1.732	-0.420	0.871	1.666	0.658	2.083	2.676	2.149	3.961	0.256	2.200	2.509	-0.118	589.844
-1.805	-1.552	-2.222	0.601	0.702	-0.798	1.033	-0.442	-2.070	-0.613	-0.844	-1.368	0.285	2.148	-0.256	-1.019	0.107	1.280	2.058	1.190	2.352	2.831	2.320	3.212	-0.031	1.569	1.273	-0.846	593.750
-1.471	-0.905	-1.811	1.120	1.058	-0.352	0.621	-0.686	-2.595	-1.316	-1.366	-1.984	-0.367	2.034	0.275	-0.325	0.645	1.624	2.477	1.718	2.630	3.031	2.547	2.535	-0.303	0.936	0.058	-1.610	597.656
-1.214	-0.319	-1.466	1.601	1.397	0.075	0.276	-0.873	-3.068	-1.990	-1.909	-2.600	-0.990	1.932	0.778	0.292	1.163	1.897	2.891	2.185	2.872	3.256	2.817	1.981	-0.510	0.376	-1.032	-2.322	601.562
-1.041	0.161	-1.204	1.999	1.667	0.433	-0.025	-0.992	-3.448	-2.630	-2.421	-3.155	-1.575	1.823	1.229	0.790	1.636	2.103	3.272	2.546	3.041	3.482	3.110	1.581	-0.623	-0.059	-1.923	-2.908	605.469
-0.945	0.509	-1.029	2.278	1.831	0.681	-0.303	-1.037	-3.704	-3.225	-2.855	-3.599	-2.104	1.703	1.614	1.146	2.048	2.251	3.596	2.779	3.123	3.686	3.400	1.343	-0.639	-0.350	-2.576	-3.327	609.375
-0.914	0.714	-0.930	2.420	1.872	0.793	-0.562	-1.010	-3.826	-3.758	-3.178	-3.905	-2.548	1.583	1.926	1.359	2.387	2.354	3.843	2.884	3.124	3.847	3.657	1.255	-0.575	-0.511	-2.991	-3.573	613.281
-0.930	0.784	-0.888	2.427	1.796	0.765	-0.796	-0.924	-3.820	-4.206	-3.377	-4.070	-2.868	1.489	2.165	1.447	2.652	2.422	4.003	2.883	3.071	3.951	3.849	1.287	-0.471	-0.580	-3.199	-3.668	617.188
-0.976	0.742	-0.878	2.318	1.630	0.615	-0.983	-0.801	-3.712	-4.547	-3.457	-4.106	-3.024	1.452	2.335	1.439	2.843	2.465	4.075	2.812	3.001	3.992	3.951	1.407	-0.375	-0.604	-3.254	-3.653	621.094
-1.042	0.619	-0.876	2.127	1.413	0.383	-1.098	-0.670	-3.541	-4.759	-3.436	-4.044	-2.986	1.502	2.442	1.371	2.959	2.487	4.067	2.712	2.951	3.975	3.948	1.581	-0.335	-0.630	-3.207	-3.578	625.000
-1.124	0.445	-0.870	1.891	1.188	0.117	-1.120	-0.561	-3.349	-4.826	-3.345	-3.917	-2.742	1.655	2.491	1.277	3.004	2.490	3.997	2.616	2.953	3.917	3.850	1.786	-0.387	-0.689	-3.103	-3.482	628.906
-1.223	0.248	-0.855	1.647	0.989	-0.133	-1.034	-0.503	-3.177	-4.744	-3.214	-3.759	-2.305	1.909	2.487	1.181	2.978	2.472	3.885	2.546	3.017	3.838	3.682	2.010	-0.544	-0.790	-2.960	-3.391	632.812
-1.349	0.046	-0.840	1.422	0.837	-0.330	-0.843	-0.511	-3.050	-4.523	-3.073	-3.595	-1.711	2.244	2.432	1.094	2.880	2.423	3.751	2.505	3.134	3.764	3.492	2.256	-0.795	-0.916	-2.772	-3.308	636.719
-1.508	-0.153	-0.839	1.230	0.736	-0.454	-0.565	-0.587	-2.982	-4.184	-2.944	-3.440	-1.017	2.617	2.327	1.011	2.712	2.335	3.610	2.475	3.276	3.715	3.331	2.532	-1.101	-1.029	-2.514	-3.216	640.625
-1.702	-0.351	-0.870	1.066	0.669	-0.511	-0.232	-0.718	-2.966	-3.760	-2.838	-3.291	-0.295	2.977	2.174	0.919	2.475	2.193	3.468	2.428	3.399	3.701	3.241	2.848	-1.403	-1.079	-2.151	-3.084	644.531
-1.927	-0.555	-0.943	0.917	0.610	-0.521	0.115	-0.874	-2.979	-3.292	-2.756	-3.138	0.379	3.266	1.977	0.796	2.176	1.989	3.323	2.329	3.457	3.714	3.244	3.207	-1.631	-1.015	-1.655	-2.879	648.438
-2.171	-0.773	-1.062	0.762	0.527	-0.516	0.428	-1.022	-2.992	-2.825	-2.690	-2.963	0.936	3.433	1.747	0.629	1.829	1.721	3.164	2.152	3.411	3.733	3.330	3.596	-1.720	-0.798	-1.019	-2.577	652.344
-2.413	-1.004	-1.220	0.584	0.393	-0.528	0.663	-1.128	-2.972	-2.402	-2.625	-2.748	1.320	3.442	1.502	0.414	1.458	1.401	2.983	1.883	3.236	3.730	3.462	3.990	-1.623	-0.412	-0.269	-2.170	656.250
-2.628	-1.240	-1.397	0.374	0.194	-0.582	0.782	-1.170	-2.898	-2.067	-2.547	-2.484	1.494	3.278	1.267	0.168	1.095	1.056	2.778	1.534	2.932	3.675	3.588	4.345	-1.325	0.125	0.534	-1.675	660.156
-2.789	-1.459	-1.566	0.139	-0.066	-0.685	0.760	-1.143	-2.766	-1.854	-2.447	-2.174	1.443	2.948	1.075	-0.077	0.781	0.729	2.556	1.140	2.523	3.551	3.653	4.613	-0.850	0.758	1.300	-1.132	664.062
-2.874	-1.628	-1.696	-0.099	-0.365	-0.827	0.584	-1.063	-2.592	-1.794	-2.330	-1.841	1.172	2.485	0.961	-0.274	0.559	0.472	2.339	0.754	2.054	3.356	3.625	4.744	-0.260	1.404	1.921	-0.603	667.969
-2.864	-1.708	-1.758	-0.305	-0.666	-0.981	0.261	-0.960	-2.412	-1.904	-2.209	-1.518	0.707	1.937	0.958	-0.372	0.468	0.340	2.159	0.438	1.583	3.108	3.494	4.700	0.352	1.959	2.290	-0.159	671.875
-2.752	-1.663	-1.727	-0.437	-0.923	-1.110	-0.189	-0.874	-2.274	-2.185	-2.110	-1.250	0.088	1.363	1.090	-0.326	0.535	0.376	2.051	0.252	1.172	2.841	3.283	4.461	0.882	2.319	2.322	0.127	675.781
-2.543	-1.468	-1.591	-0.457	-1.092	-1.179	-0.726	-0.847	-2.224	-2.623	-2.064	-1.083	-0.628	0.828	1.363	-0.111	0.770	0.600	2.046	0.239	0.877	2.599	3.038	4.029	1.233	2.403	1.972	0.200	679.688
-2.253	-1.118	-1.355	-0.340	-1.137	-1.161	-1.299	-0.905	-2.297	-3.180	-2.097	-1.054	-1.379	0.387	1.765	0.277	1.159	1.005	2.163	0.418	0.737	2.421	2.820	3.434	1.334	2.164	1.246	0.029	683.594
-1.913	-0.629	-1.039	-0.079	-1.042	-1.042	-1.845	-1.060	-2.506	-3.799	-2.223	-1.184	-2.098	0.084	2.263	0.813	1.666	1.550	2.399	0.779	0.767	2.339	2.687	2.727	1.153	1.603	0.207	-0.383	687.500
-1.563	-0.043	-0.682	0.308	-0.812	-0.831	-2.300	-1.300	-2.833	-4.408	-2.441	-1.468	-2.718	-0.056	2.804	1.446	2.237	2.174	2.734	1.281	0.960	2.364	2.679	1.977	0.701	0.769	-1.034	-0.997	691.406
-1.247	0.579	-0.334	0.782	-0.474	-0.551	-2.607	-1.591	-3.234	-4.930	-2.732	-1.880	-3.182	-0.027	3.325	2.107	2.806	2.799	3.129	1.861	1.283	2.492	2.811	1.265	0.030	-0.245	-2.331	-1.743	695.312
-1.009	1.168	-0.050	1.290	-0.069	-0.240	-2.720	-1.886	-3.648	-5.290	-3.064	-2.369	-3.443	0.157	3.764	2.721	3.304	3.348	3.530	2.444	1.687	2.693	3.061	0.666	-0.774	-1.320	-3.526	-2.531	699.219
-0.884	1.656	0.122	1.766	0.351	0.059	-2.618	-2.129	-4.006	-5.434	-3.394	-2.870	-3.475	0.466	4.065	3.218	3.671	3.758	3.880	2.955	2.115	2.926	3.371	0.246	-1.607	-2.326	-4.471	-3.261	703.125
-0.891	1.985	0.148	2.151	0.730	0.306	-2.304	-2.273	-4.249	-5.331	-3.678	-3.312	-3.274	0.859	4.192	3.542	3.867	3.989	4.124	3.330	2.509	3.139	3.657	0.050	-2.361	-3.141	-5.054	-3.840	707.031
-1.031	2.123	0.015	2.394	1.023	0.470	-1.810	-2.287	-4.340	-4.988	-3.876	-3.631	-2.857	1.288	4.131	3.661	3.872	4.030	4.221	3.529	2.818	3.282	3.828	0.096	-2.942	-3.672	-5.207	-4.193	710.938
-1.288	2.060	-0.267	2.465	1.195	0.533	-1.192	-2.165	-4.269	-4.441	-3.963	-3.781	-2.263	1.709	3.894	3.570	3.696	3.896	4.151	3.536	3.007	3.319	3.812	0.378	-3.284	-3.863	-4.921	-4.278	714.844
-1.629	1.814	-0.667	2.358	1.229	0.491	-0.517	-1.927	-4.057	-3.756	-3.930	-3.736	-1.546	2.083	3.508	3.291	3.369	3.625	3.920	3.361	3.059	3.237	3.579	0.861	-3.361	-3.706	-4.237	-4.088	718.750
-2.011	1.423	-1.142	2.088	1.127	0.352	0.141	-1.616	-3.746	-3.014	-3.787	-3.501	-0.768	2.383	3.019	2.866	2.941	3.266	3.562	3.038	2.978	3.052	3.150	1.492	-3.188	-3.237	-3.240	-3.653	722.656
-2.391	0.941	-1.640	1.692	0.909	0.132	0.719	-1.289	-3.391	-2.303	-3.561	-3.104	0.011	2.597	2.476	2.352	2.470	2.868	3.127	2.615	2.785	2.800	2.598	2.209	-2.815	-2.530	-2.041	-3.031	726.562
-2.732	0.425	-2.113	1.218	0.608	-0.142	1.171	-0.999	-3.047	-1.694	-3.285	-2.595	0.735	2.725	1.928	1.806	2.010	2.471	2.676	2.145	2.513	2.531	2.021	2.946	-2.316	-1.678	-0.759	-2.299	730.469
-3.008	-0.072	-2.525	0.718	0.266	-0.440	1.475	-0.790	-2.755	-1.240	-2.997	-2.033	1.363	2.779	1.421	1.283	1.603	2.102	2.264	1.678	2.203	2.297	1.524	3.645	-1.770	-0.782	0.494	-1.538	734.375
-3.210	-0.509	-2.854	0.243	-0.075	-0.730	1.635	-0.678	-2.534	-0.962	-2.725	-1.477	1.867	2.776	0.988	0.823	1.273	1.772	1.931	1.256	1.890	2.135	1.192	4.256	-1.249	0.064	1.627	-0.826	738.281
-3.340	-0.859	-3.093	-0.166	-0.378	-0.986	1.671	-0.657	-2.383	-0.852	-2.486	-0.981	2.227	2.730	0.652	0.452	1.026	1.484	1.698	0.904	1.605	2.064	1.069	4.748	-0.807	0.788	2.572	-0.222	742.188
-3.410	-1.111	-3.249	-0.483	-0.616	-1.184	1.617	-0.694	-2.284	-0.880	-2.288	-0.585	2.435	2.654	0.425	0.186	0.853	1.230	1.568	0.637	1.366	2.082	1.160	5.102	-0.474	1.342	3.290	0.231	746.094
-3.431	-1.263	-3.334	-0.693	-0.772	-1.313	1.508	-0.745	-2.212	-1.007	-2.130	-0.315	2.490	2.554	0.306	0.024	0.741	1.006	1.526	0.457	1.181	2.165	1.425	5.313	-0.253	1.706	3.766	0.514	750.000
-3.414	-1.321	-3.359	-0.792	-0.846	-1.366	1.371	-0.766	-2.142	-1.192	-2.011	-0.179	2.395	2.433	0.288	-0.037	0.674	0.809	1.550	0.359	1.047	2.280	1.799	5.383	-0.132	1.883	4.001	0.623	753.906
-3.361	-1.292	-3.328	-0.789	-0.843	-1.346	1.224	-0.726	-2.061	-1.408	-1.935	-0.173	2.158	2.289	0.358	-0.005	0.646	0.640	1.617	0.337	0.958	2.392	2.201	5.323	-0.088	1.893	4.005	0.571	757.812
-3.273	-1.182	-3.240	-0.694	-0.777	-1.259	1.073	-0.616	-1.971	-1.639	-1.909	-0.279	1.795	2.123	0.502	0.112	0.654	0.509	1.707	0.383	0.907	2.471	2.557	5.143	-0.093	1.765	3.796	0.381	761.719
-3.146	-0.997	-3.085	-0.522	-0.664	-1.118	0.914	-0.450	-1.887	-1.883	-1.944	-0.477	1.328	1.941	0.708	0.307	0.703	0.423	1.805	0.493	0.892	2.497	2.806	4.859	-0.128	1.528	3.391	0.081	765.625
-2.981	-0.742	-2.851	-0.288	-0.518	-0.935	0.741	-0.261	-1.835	-2.145	-2.050	-0.739	0.789	1.751	0.969	0.575	0.802	0.393	1.904	0.667	0.915	2.464	2.913	4.484	-0.178	1.209	2.810	-0.300	769.531
-2.784	-0.424	-2.532	-0.008	-0.353	-0.728	0.550	-0.093	-1.844	-2.431	-2.231	-1.039	0.212	1.565	1.281	0.908	0.960	0.425	2.001	0.903	0.982	2.379	2.864	4.035	-0.239	0.823	2.070	-0.736	773.438
-2.572	-0.055	-2.128	0.308	-0.176	-0.509	0.342	0.014	-1.938	-2.738	-2.480	-1.352	-0.366	1.399	1.646	1.300	1.183	0.520	2.099	1.200	1.101	2.255	2.666	3.524	-0.310	0.383	1.195	-1.202	777.344
-2.363	0.352	-1.648	0.648	0.008	-0.289	0.124	0.028	-2.131	-3.059	-2.784	-1.657	-0.913	1.263	2.064	1.740	1.473	0.675	2.200	1.555	1.276	2.109	2.340	2.966	-0.395	-0.105	0.206	-1.681	781.250
-2.176	0.781	-1.107	1.003	0.198	-0.072	-0.095	-0.065	-2.423	-3.386	-3.125	-1.941	-1.407	1.165	2.533	2.218	1.822	0.881	2.307	1.960	1.509	1.957	1.913	2.372	-0.493	-0.635	-0.871	-2.163	785.156
-2.021	1.221	-0.521	1.368	0.393	0.140	-0.309	-0.260	-2.800	-3.708	-3.485	-2.200	-1.845	1.104	3.050	2.725	2.220	1.124	2.423	2.408	1.795	1.808	1.418	1.751	-0.606	-1.201	-2.014	-2.641	789.062
-1.896	1.664	0.091	1.740	0.594	0.348	-0.515	-0.533	-3.240	-4.023	-3.851	-2.437	-2.237	1.073	3.602	3.250	2.652	1.391	2.548	2.885	2.121	1.671	0.887	1.113	-0.731	-1.794	-3.198	-3.117	792.969
-1.792	2.107	0.714	2.114	0.799	0.556	-0.717	-0.851	-3.711	-4.337	-4.216	-2.661	-2.604	1.058	4.177	3.784	3.101	1.667	2.682	3.377	2.468	1.546	0.353	0.465	-0.865	-2.402	-4.402	-3.592	796.875
