FP1	F3	F7	FC3	C3	C5	P3	P7	PO7	PO3	O1	Oz	Pz	CPz	FP2	Fz	F4	F8	FC4	FCz	Cz	C4	C6	P4	P8	PO8	PO4	O2	time
0.205	1.010	0.897	0.950	0.760	0.074	-0.400	-0.672	-1.933	-1.373	-2.142	-1.217	0.284	1.344	0.802	1.184	0.410	-0.869	0.626	1.867	2.366	0.385	0.101	-0.164	-0.933	-0.436	-0.804	-1.152	-199.219
0.281	0.984	0.879	0.981	0.848	0.261	-0.350	-0.845	-1.793	-1.267	-2.038	-1.253	0.408	1.475	0.786	1.248	0.427	-0.839	0.583	1.935	2.421	0.403	0.131	-0.179	-1.013	-0.682	-0.936	-1.200	-195.312
0.340	0.946	0.848	0.992	0.906	0.404	-0.306	-0.985	-1.644	-1.168	-1.919	-1.269	0.517	1.581	0.766	1.291	0.434	-0.810	0.545	1.974	2.451	0.420	0.168	-0.181	-1.088	-0.892	-1.030	-1.223	-191.406
0.368	0.890	0.800	0.966	0.913	0.480	-0.274	-1.073	-1.487	-1.088	-1.783	-1.251	0.597	1.638	0.741	1.294	0.425	-0.784	0.516	1.957	2.431	0.436	0.212	-0.158	-1.140	-1.029	-1.051	-1.200	-187.500
0.352	0.811	0.732	0.894	0.857	0.477	-0.258	-1.096	-1.325	-1.032	-1.626	-1.189	0.639	1.630	0.710	1.242	0.395	-0.759	0.494	1.864	2.345	0.445	0.261	-0.105	-1.152	-1.064	-0.979	-1.118	-183.594
0.288	0.706	0.644	0.776	0.742	0.394	-0.257	-1.052	-1.162	-0.997	-1.447	-1.077	0.638	1.551	0.673	1.128	0.343	-0.738	0.473	1.690	2.182	0.443	0.307	-0.023	-1.107	-0.981	-0.810	-0.971	-179.688
0.178	0.578	0.542	0.621	0.579	0.247	-0.268	-0.952	-1.001	-0.973	-1.246	-0.919	0.597	1.401	0.627	0.953	0.271	-0.719	0.446	1.440	1.946	0.424	0.340	0.080	-0.993	-0.777	-0.557	-0.761	-175.781
0.036	0.434	0.437	0.443	0.395	0.062	-0.286	-0.815	-0.850	-0.945	-1.027	-0.727	0.523	1.196	0.571	0.727	0.182	-0.705	0.404	1.130	1.650	0.386	0.351	0.192	-0.803	-0.466	-0.247	-0.503	-171.875
-0.117	0.286	0.345	0.263	0.215	-0.131	-0.303	-0.662	-0.716	-0.900	-0.800	-0.518	0.426	0.958	0.503	0.468	0.080	-0.696	0.343	0.788	1.319	0.330	0.329	0.298	-0.549	-0.078	0.084	-0.218	-167.969
-0.254	0.147	0.282	0.103	0.067	-0.300	-0.313	-0.517	-0.607	-0.826	-0.578	-0.315	0.320	0.713	0.420	0.199	-0.026	-0.694	0.262	0.446	0.983	0.261	0.272	0.383	-0.255	0.342	0.397	0.065	-164.062
-0.350	0.031	0.262	-0.023	-0.033	-0.418	-0.309	-0.398	-0.527	-0.716	-0.373	-0.139	0.216	0.489	0.325	-0.054	-0.130	-0.699	0.167	0.136	0.675	0.188	0.181	0.438	0.044	0.738	0.656	0.318	-160.156
-0.384	-0.050	0.289	-0.103	-0.075	-0.471	-0.287	-0.311	-0.473	-0.569	-0.197	-0.008	0.125	0.310	0.221	-0.266	-0.224	-0.708	0.067	-0.114	0.422	0.123	0.066	0.457	0.304	1.056	0.831	0.515	-156.250
-0.348	-0.092	0.357	-0.136	-0.064	-0.457	-0.244	-0.254	-0.438	-0.385	-0.056	0.067	0.052	0.191	0.115	-0.419	-0.300	-0.718	-0.025	-0.284	0.246	0.076	-0.059	0.440	0.483	1.250	0.904	0.639	-152.344
-0.242	-0.098	0.450	-0.127	-0.012	-0.384	-0.181	-0.219	-0.413	-0.171	0.048	0.086	0.002	0.138	0.012	-0.502	-0.356	-0.723	-0.100	-0.367	0.157	0.052	-0.175	0.391	0.553	1.292	0.870	0.683	-148.438
-0.082	-0.076	0.545	-0.086	0.064	-0.268	-0.100	-0.191	-0.388	0.063	0.119	0.054	-0.026	0.146	-0.080	-0.512	-0.388	-0.719	-0.150	-0.362	0.151	0.052	-0.266	0.315	0.502	1.175	0.741	0.650	-144.531
0.110	-0.036	0.622	-0.024	0.145	-0.128	-0.009	-0.162	-0.358	0.300	0.164	-0.015	-0.035	0.200	-0.157	-0.457	-0.396	-0.701	-0.172	-0.281	0.214	0.073	-0.318	0.221	0.342	0.917	0.537	0.553	-140.625
0.305	0.009	0.661	0.049	0.221	0.022	0.081	-0.125	-0.322	0.517	0.187	-0.108	-0.030	0.281	-0.213	-0.348	-0.381	-0.669	-0.168	-0.142	0.325	0.105	-0.321	0.118	0.103	0.555	0.288	0.413	-136.719
0.476	0.055	0.656	0.126	0.283	0.173	0.160	-0.082	-0.287	0.686	0.190	-0.210	-0.018	0.365	-0.245	-0.202	-0.344	-0.621	-0.144	0.034	0.458	0.139	-0.273	0.011	-0.172	0.137	0.026	0.250	-132.812
0.598	0.096	0.606	0.204	0.330	0.324	0.214	-0.042	-0.260	0.778	0.176	-0.309	-0.004	0.434	-0.248	-0.038	-0.285	-0.558	-0.106	0.223	0.586	0.164	-0.180	-0.091	-0.437	-0.285	-0.219	0.086	-128.906
0.660	0.132	0.520	0.280	0.367	0.477	0.236	-0.011	-0.250	0.771	0.145	-0.399	0.005	0.472	-0.222	0.127	-0.205	-0.482	-0.061	0.405	0.688	0.174	-0.054	-0.186	-0.653	-0.664	-0.428	-0.065	-125.000
0.657	0.165	0.413	0.352	0.396	0.631	0.222	0.002	-0.254	0.659	0.099	-0.475	0.007	0.471	-0.169	0.279	-0.108	-0.394	-0.014	0.560	0.747	0.165	0.083	-0.267	-0.794	-0.966	-0.589	-0.192	-121.094
0.598	0.195	0.301	0.413	0.419	0.780	0.177	-0.001	-0.267	0.452	0.045	-0.535	0.001	0.434	-0.092	0.408	0.003	-0.293	0.032	0.678	0.756	0.139	0.208	-0.333	-0.848	-1.171	-0.701	-0.295	-117.188
0.497	0.220	0.196	0.457	0.433	0.905	0.112	-0.017	-0.274	0.178	-0.006	-0.575	-0.009	0.368	-0.003	0.507	0.120	-0.183	0.076	0.751	0.715	0.099	0.294	-0.378	-0.822	-1.272	-0.770	-0.374	-113.281
0.377	0.235	0.109	0.475	0.430	0.983	0.041	-0.038	-0.263	-0.117	-0.044	-0.593	-0.015	0.287	0.084	0.572	0.233	-0.068	0.115	0.778	0.629	0.054	0.324	-0.397	-0.731	-1.273	-0.800	-0.433	-109.375
0.256	0.235	0.041	0.458	0.402	0.987	-0.021	-0.056	-0.225	-0.386	-0.060	-0.583	-0.008	0.207	0.154	0.607	0.333	0.046	0.150	0.766	0.513	0.014	0.289	-0.382	-0.598	-1.186	-0.793	-0.475	-105.469
0.150	0.214	-0.010	0.402	0.341	0.899	-0.067	-0.068	-0.163	-0.588	-0.050	-0.543	0.021	0.144	0.194	0.613	0.409	0.151	0.180	0.723	0.380	-0.012	0.195	-0.326	-0.447	-1.027	-0.747	-0.496	-101.562
0.069	0.168	-0.048	0.305	0.242	0.715	-0.095	-0.078	-0.089	-0.696	-0.014	-0.474	0.075	0.105	0.197	0.597	0.458	0.238	0.205	0.658	0.246	-0.015	0.063	-0.226	-0.296	-0.812	-0.659	-0.492	-97.656
0.016	0.098	-0.080	0.172	0.105	0.446	-0.111	-0.088	-0.020	-0.704	0.043	-0.377	0.154	0.091	0.164	0.564	0.479	0.302	0.224	0.580	0.122	0.007	-0.079	-0.084	-0.159	-0.557	-0.525	-0.455	-93.750
-0.016	0.007	-0.113	0.012	-0.062	0.120	-0.126	-0.104	0.025	-0.623	0.113	-0.262	0.249	0.097	0.100	0.518	0.476	0.340	0.240	0.495	0.016	0.055	-0.193	0.087	-0.043	-0.280	-0.348	-0.381	-89.844
-0.034	-0.097	-0.151	-0.160	-0.248	-0.225	-0.151	-0.129	0.036	-0.482	0.190	-0.135	0.344	0.108	0.019	0.464	0.459	0.353	0.251	0.406	-0.072	0.121	-0.248	0.269	0.051	0.002	-0.140	-0.269	-85.938
-0.048	-0.204	-0.196	-0.329	-0.433	-0.547	-0.192	-0.163	0.012	-0.313	0.267	-0.008	0.420	0.108	-0.064	0.400	0.435	0.345	0.257	0.312	-0.149	0.193	-0.224	0.436	0.128	0.272	0.084	-0.128	-82.031
-0.066	-0.303	-0.250	-0.479	-0.597	-0.808	-0.249	-0.201	-0.036	-0.148	0.341	0.112	0.462	0.081	-0.136	0.326	0.409	0.318	0.257	0.208	-0.222	0.258	-0.117	0.562	0.197	0.513	0.302	0.030	-78.125
-0.091	-0.385	-0.312	-0.597	-0.722	-0.977	-0.315	-0.237	-0.090	-0.008	0.409	0.220	0.458	0.015	-0.190	0.239	0.380	0.279	0.248	0.090	-0.305	0.302	0.057	0.628	0.268	0.713	0.495	0.188	-74.219
-0.122	-0.446	-0.383	-0.675	-0.794	-1.041	-0.375	-0.260	-0.124	0.100	0.475	0.316	0.404	-0.092	-0.224	0.133	0.342	0.233	0.224	-0.049	-0.408	0.312	0.263	0.623	0.350	0.863	0.648	0.330	-70.312
-0.156	-0.484	-0.465	-0.710	-0.809	-0.999	-0.414	-0.260	-0.115	0.180	0.543	0.403	0.309	-0.238	-0.246	0.007	0.285	0.185	0.184	-0.212	-0.538	0.284	0.460	0.554	0.446	0.957	0.757	0.445	-66.406
-0.189	-0.504	-0.557	-0.706	-0.769	-0.874	-0.414	-0.227	-0.047	0.246	0.621	0.488	0.187	-0.412	-0.265	-0.140	0.199	0.139	0.123	-0.400	-0.699	0.215	0.608	0.437	0.556	0.997	0.825	0.529	-62.500
-0.216	-0.510	-0.660	-0.673	-0.688	-0.697	-0.364	-0.153	0.089	0.319	0.713	0.577	0.056	-0.599	-0.290	-0.305	0.077	0.102	0.042	-0.609	-0.886	0.113	0.673	0.299	0.671	0.988	0.861	0.584	-58.594
-0.238	-0.506	-0.770	-0.622	-0.583	-0.505	-0.257	-0.034	0.287	0.414	0.822	0.676	-0.069	-0.782	-0.329	-0.481	-0.081	0.078	-0.058	-0.832	-1.092	-0.013	0.638	0.167	0.778	0.938	0.878	0.617	-54.688
-0.255	-0.495	-0.876	-0.565	-0.475	-0.336	-0.099	0.130	0.533	0.539	0.942	0.785	-0.177	-0.950	-0.383	-0.657	-0.265	0.072	-0.173	-1.056	-1.303	-0.153	0.504	0.062	0.864	0.859	0.883	0.636	-50.781
-0.266	-0.480	-0.966	-0.513	-0.382	-0.211	0.097	0.333	0.802	0.691	1.063	0.899	-0.267	-1.092	-0.448	-0.822	-0.457	0.093	-0.297	-1.268	-1.506	-0.296	0.288	-0.007	0.917	0.761	0.878	0.646	-46.875
-0.273	-0.461	-1.025	-0.471	-0.317	-0.142	0.306	0.561	1.068	0.850	1.165	1.006	-0.344	-1.206	-0.513	-0.964	-0.633	0.147	-0.420	-1.452	-1.687	-0.429	0.021	-0.043	0.933	0.654	0.858	0.651	-42.969
-0.277	-0.437	-1.040	-0.442	-0.286	-0.125	0.501	0.797	1.303	0.993	1.227	1.094	-0.418	-1.292	-0.565	-1.072	-0.766	0.242	-0.532	-1.597	-1.836	-0.544	-0.257	-0.057	0.914	0.544	0.813	0.649	-39.062
-0.279	-0.410	-1.002	-0.425	-0.289	-0.146	0.655	1.020	1.485	1.092	1.233	1.151	-0.498	-1.354	-0.592	-1.140	-0.836	0.383	-0.621	-1.694	-1.947	-0.634	-0.506	-0.069	0.869	0.434	0.731	0.635	-35.156
-0.279	-0.380	-0.912	-0.416	-0.319	-0.185	0.748	1.207	1.604	1.129	1.171	1.168	-0.587	-1.396	-0.583	-1.167	-0.830	0.571	-0.679	-1.740	-2.017	-0.692	-0.693	-0.095	0.810	0.324	0.607	0.605	-31.250
-0.282	-0.349	-0.777	-0.412	-0.362	-0.219	0.774	1.341	1.658	1.096	1.041	1.145	-0.683	-1.420	-0.537	-1.157	-0.748	0.797	-0.702	-1.738	-2.047	-0.720	-0.799	-0.148	0.748	0.213	0.440	0.554	-27.344
-0.288	-0.319	-0.613	-0.408	-0.405	-0.230	0.738	1.409	1.654	1.001	0.856	1.088	-0.776	-1.427	-0.459	-1.117	-0.602	1.045	-0.691	-1.699	-2.045	-0.718	-0.821	-0.231	0.689	0.100	0.240	0.484	-23.438
-0.300	-0.290	-0.441	-0.400	-0.435	-0.207	0.660	1.406	1.607	0.865	0.639	1.012	-0.850	-1.416	-0.361	-1.059	-0.416	1.291	-0.653	-1.635	-2.016	-0.696	-0.770	-0.340	0.635	-0.011	0.027	0.402	-19.531
-0.320	-0.263	-0.282	-0.387	-0.440	-0.150	0.566	1.338	1.536	0.717	0.417	0.933	-0.892	-1.387	-0.259	-0.996	-0.220	1.508	-0.601	-1.563	-1.970	-0.661	-0.669	-0.466	0.583	-0.111	-0.178	0.319	-15.625
-0.348	-0.237	-0.156	-0.369	-0.417	-0.069	0.482	1.216	1.458	0.587	0.216	0.866	-0.889	-1.341	-0.171	-0.938	-0.047	1.673	-0.548	-1.497	-1.914	-0.625	-0.543	-0.595	0.528	-0.189	-0.350	0.246	-11.719
-0.380	-0.212	-0.074	-0.346	-0.369	0.017	0.431	1.061	1.390	0.498	0.055	0.822	-0.839	-1.283	-0.114	-0.893	0.077	1.770	-0.506	-1.448	-1.857	-0.594	-0.414	-0.713	0.468	-0.229	-0.470	0.194	-7.812
-0.411	-0.184	-0.040	-0.322	-0.304	0.086	0.421	0.896	1.340	0.463	-0.055	0.804	-0.749	-1.220	-0.097	-0.864	0.132	1.795	-0.485	-1.425	-1.804	-0.575	-0.301	-0.809	0.401	-0.223	-0.525	0.169	-3.906
-0.434	-0.152	-0.048	-0.299	-0.236	0.120	0.450	0.744	1.311	0.479	-0.114	0.811	-0.636	-1.163	-0.121	-0.849	0.113	1.754	-0.489	-1.428	-1.761	-0.569	-0.211	-0.874	0.332	-0.168	-0.513	0.173	0.000
-0.440	-0.114	-0.086	-0.281	-0.181	0.108	0.500	0.621	1.302	0.533	-0.124	0.836	-0.524	-1.127	-0.179	-0.843	0.026	1.666	-0.515	-1.457	-1.735	-0.575	-0.148	-0.905	0.268	-0.069	-0.443	0.203	3.906
-0.425	-0.068	-0.135	-0.271	-0.154	0.048	0.550	0.540	1.305	0.603	-0.091	0.875	-0.441	-1.126	-0.256	-0.839	-0.109	1.551	-0.558	-1.507	-1.731	-0.592	-0.111	-0.905	0.221	0.063	-0.334	0.254	7.812
-0.393	-0.013	-0.179	-0.272	-0.167	-0.055	0.573	0.504	1.315	0.662	-0.019	0.924	-0.410	-1.170	-0.329	-0.831	-0.263	1.430	-0.611	-1.572	-1.755	-0.620	-0.101	-0.881	0.206	0.216	-0.207	0.321	11.719
-0.351	0.052	-0.209	-0.288	-0.225	-0.188	0.550	0.508	1.322	0.690	0.090	0.981	-0.450	-1.267	-0.378	-0.815	-0.406	1.322	-0.664	-1.646	-1.811	-0.658	-0.116	-0.845	0.234	0.380	-0.085	0.400	15.625
-0.309	0.124	-0.220	-0.317	-0.327	-0.333	0.472	0.542	1.325	0.672	0.231	1.051	-0.565	-1.416	-0.387	-0.787	-0.509	1.237	-0.708	-1.722	-1.900	-0.707	-0.159	-0.809	0.314	0.546	0.013	0.490	19.531
-0.279	0.197	-0.214	-0.357	-0.463	-0.473	0.341	0.587	1.321	0.604	0.399	1.135	-0.749	-1.608	-0.348	-0.750	-0.552	1.179	-0.737	-1.797	-2.019	-0.768	-0.230	-0.782	0.445	0.711	0.075	0.588	23.438
-0.270	0.268	-0.201	-0.403	-0.618	-0.590	0.172	0.628	1.313	0.492	0.582	1.235	-0.987	-1.831	-0.265	-0.707	-0.529	1.148	-0.747	-1.867	-2.163	-0.842	-0.326	-0.772	0.617	0.867	0.097	0.691	27.344
-0.284	0.328	-0.191	-0.449	-0.773	-0.671	-0.013	0.650	1.307	0.353	0.770	1.350	-1.254	-2.067	-0.154	-0.664	-0.447	1.138	-0.738	-1.932	-2.324	-0.926	-0.438	-0.780	0.811	1.009	0.082	0.795	31.250
-0.320	0.374	-0.191	-0.490	-0.912	-0.710	-0.185	0.646	1.307	0.211	0.950	1.477	-1.525	-2.301	-0.035	-0.630	-0.324	1.145	-0.715	-1.994	-2.496	-1.016	-0.551	-0.800	1.005	1.126	0.045	0.898	35.156
-0.374	0.399	-0.210	-0.522	-1.022	-0.712	-0.317	0.616	1.321	0.092	1.110	1.606	-1.773	-2.519	0.067	-0.611	-0.189	1.163	-0.685	-2.058	-2.671	-1.105	-0.646	-0.819	1.172	1.212	0.007	0.999	39.062
-0.441	0.399	-0.254	-0.550	-1.097	-0.691	-0.386	0.570	1.357	0.026	1.244	1.727	-1.976	-2.711	0.126	-0.618	-0.072	1.185	-0.656	-2.132	-2.845	-1.186	-0.707	-0.820	1.295	1.266	-0.001	1.097	42.969
-0.521	0.368	-0.330	-0.578	-1.141	-0.667	-0.373	0.523	1.422	0.040	1.348	1.829	-2.113	-2.871	0.121	-0.660	-0.004	1.201	-0.638	-2.223	-3.014	-1.249	-0.722	-0.781	1.367	1.300	0.058	1.201	46.875
-0.619	0.298	-0.445	-0.620	-1.163	-0.662	-0.267	0.489	1.521	0.157	1.425	1.901	-2.169	-2.992	0.038	-0.747	-0.011	1.200	-0.643	-2.340	-3.175	-1.290	-0.690	-0.677	1.395	1.338	0.230	1.325	50.781
-0.744	0.179	-0.609	-0.689	-1.178	-0.696	-0.066	0.477	1.651	0.391	1.478	1.936	-2.130	-3.067	-0.133	-0.890	-0.114	1.168	-0.678	-2.488	-3.326	-1.304	-0.618	-0.484	1.401	1.418	0.560	1.486	54.688
-0.908	0.001	-0.834	-0.801	-1.200	-0.780	0.228	0.488	1.805	0.749	1.511	1.929	-1.984	-3.087	-0.391	-1.099	-0.323	1.089	-0.750	-2.672	-3.461	-1.290	-0.521	-0.182	1.416	1.582	1.086	1.706	58.594
-1.123	-0.244	-1.125	-0.964	-1.241	-0.918	0.605	0.511	1.972	1.226	1.524	1.876	-1.719	-3.038	-0.730	-1.378	-0.633	0.952	-0.859	-2.891	-3.573	-1.251	-0.417	0.238	1.474	1.869	1.832	2.003	62.500
-1.399	-0.555	-1.483	-1.180	-1.305	-1.103	1.051	0.532	2.132	1.803	1.512	1.775	-1.328	-2.908	-1.133	-1.721	-1.029	0.751	-1.002	-3.134	-3.653	-1.189	-0.325	0.775	1.604	2.299	2.792	2.379	66.406
-1.733	-0.921	-1.896	-1.440	-1.387	-1.317	1.546	0.534	2.268	2.444	1.456	1.616	-0.812	-2.681	-1.577	-2.112	-1.477	0.493	-1.166	-3.385	-3.685	-1.110	-0.257	1.408	1.820	2.874	3.928	2.820	70.312
-2.113	-1.318	-2.341	-1.722	-1.470	-1.537	2.067	0.504	2.362	3.097	1.329	1.387	-0.185	-2.350	-2.033	-2.521	-1.932	0.195	-1.332	-3.615	-3.654	-1.017	-0.222	2.099	2.119	3.562	5.161	3.287	74.219
-2.512	-1.709	-2.782	-1.992	-1.535	-1.736	2.585	0.437	2.398	3.696	1.099	1.069	0.526	-1.917	-2.464	-2.907	-2.345	-0.113	-1.477	-3.793	-3.547	-0.913	-0.219	2.793	2.480	4.307	6.381	3.719	78.125
-2.891	-2.047	-3.172	-2.214	-1.558	-1.886	3.066	0.337	2.365	4.167	0.731	0.646	1.275	-1.399	-2.833	-3.224	-2.661	-0.391	-1.577	-3.888	-3.357	-0.800	-0.239	3.426	2.868	5.034	7.452	4.043	82.031
-3.202	-2.286	-3.463	-2.351	-1.517	-1.966	3.473	0.214	2.260	4.436	0.205	0.109	2.004	-0.825	-3.103	-3.428	-2.836	-0.597	-1.609	-3.876	-3.084	-0.673	-0.266	3.932	3.240	5.658	8.236	4.185	85.938
-3.401	-2.389	-3.612	-2.373	-1.402	-1.963	3.766	0.082	2.082	4.444	-0.483	-0.541	2.647	-0.240	-3.241	-3.486	-2.838	-0.689	-1.557	-3.744	-2.742	-0.528	-0.277	4.253	3.558	6.099	8.614	4.087	89.844
-3.452	-2.330	-3.585	-2.265	-1.211	-1.875	3.910	-0.045	1.837	4.153	-1.317	-1.284	3.142	0.308	-3.222	-3.381	-2.656	-0.638	-1.410	-3.496	-2.353	-0.360	-0.252	4.352	3.792	6.295	8.503	3.715	93.750
-3.332	-2.103	-3.368	-2.026	-0.958	-1.710	3.874	-0.156	1.534	3.554	-2.259	-2.088	3.434	0.768	-3.029	-3.114	-2.294	-0.425	-1.166	-3.146	-1.947	-0.163	-0.172	4.211	3.925	6.205	7.872	3.070	97.656
-3.036	-1.714	-2.966	-1.668	-0.659	-1.478	3.639	-0.247	1.185	2.663	-3.257	-2.914	3.488	1.098	-2.660	-2.699	-1.777	-0.048	-0.831	-2.719	-1.554	0.066	-0.023	3.840	3.952	5.815	6.744	2.183	101.562
-2.574	-1.185	-2.399	-1.212	-0.338	-1.190	3.198	-0.318	0.800	1.526	-4.254	-3.719	3.288	1.271	-2.126	-2.161	-1.137	0.482	-0.413	-2.241	-1.201	0.330	0.206	3.268	3.871	5.133	5.193	1.108	105.469
-1.975	-0.543	-1.704	-0.685	-0.017	-0.854	2.567	-0.372	0.391	0.211	-5.192	-4.466	2.843	1.278	-1.454	-1.535	-0.417	1.133	0.077	-1.740	-0.906	0.626	0.518	2.542	3.682	4.190	3.332	-0.084	109.375
-1.277	0.175	-0.931	-0.113	0.289	-0.475	1.785	-0.415	-0.026	-1.196	-6.020	-5.125	2.182	1.128	-0.685	-0.857	0.338	1.865	0.624	-1.238	-0.681	0.950	0.913	1.716	3.377	3.030	1.299	-1.318	113.281
-0.531	0.931	-0.131	0.474	0.569	-0.059	0.915	-0.446	-0.429	-2.589	-6.689	-5.670	1.353	0.843	0.127	-0.171	1.080	2.623	1.206	-0.758	-0.526	1.291	1.379	0.851	2.947	1.710	-0.762	-2.518	117.188
0.204	1.679	0.639	1.048	0.819	0.384	0.044	-0.460	-0.784	-3.848	-7.156	-6.077	0.419	0.457	0.919	0.478	1.758	3.347	1.794	-0.324	-0.441	1.631	1.890	0.001	2.382	0.299	-2.704	-3.613	121.094
0.867	2.372	1.324	1.578	1.035	0.835	-0.730	-0.443	-1.051	-4.851	-7.380	-6.321	-0.550	0.007	1.624	1.041	2.324	3.977	2.351	0.037	-0.422	1.942	2.407	-0.782	1.684	-1.120	-4.396	-4.537	125.000
1.395	2.959	1.872	2.030	1.215	1.267	-1.307	-0.378	-1.183	-5.477	-7.324	-6.370	-1.482	-0.474	2.177	1.465	2.730	4.460	2.826	0.294	-0.469	2.193	2.876	-1.453	0.872	-2.455	-5.723	-5.228	128.906
1.735	3.388	2.238	2.371	1.354	1.640	-1.602	-0.247	-1.137	-5.625	-6.963	-6.196	-2.312	-0.957	2.522	1.701	2.933	4.752	3.168	0.412	-0.588	2.351	3.236	-1.975	-0.008	-3.608	-6.592	-5.632	132.812
1.847	3.615	2.383	2.567	1.442	1.916	-1.555	-0.042	-0.878	-5.227	-6.282	-5.771	-2.986	-1.422	2.618	1.706	2.901	4.820	3.326	0.359	-0.786	2.385	3.431	-2.322	-0.887	-4.479	-6.938	-5.709	136.719
1.713	3.606	2.282	2.595	1.470	2.056	-1.145	0.239	-0.392	-4.258	-5.291	-5.082	-3.464	-1.857	2.445	1.452	2.615	4.650	3.262	0.112	-1.072	2.277	3.422	-2.476	-1.681	-4.982	-6.726	-5.433	140.625
1.337	3.342	1.925	2.439	1.429	2.034	-0.388	0.582	0.312	-2.740	-4.021	-4.134	-3.730	-2.256	2.006	0.930	2.073	4.240	2.959	-0.339	-1.450	2.024	3.199	-2.432	-2.302	-5.054	-5.955	-4.803	144.531
0.742	2.826	1.321	2.099	1.310	1.836	0.666	0.963	1.200	-0.746	-2.526	-2.954	-3.782	-2.619	1.322	0.152	1.291	3.602	2.424	-0.987	-1.921	1.640	2.779	-2.193	-2.679	-4.672	-4.660	-3.839	148.438
-0.028	2.082	0.500	1.589	1.112	1.470	1.938	1.357	2.219	1.617	-0.874	-1.591	-3.639	-2.946	0.437	-0.846	0.305	2.761	1.690	-1.806	-2.478	1.152	2.211	-1.771	-2.769	-3.852	-2.907	-2.586	152.344
-0.918	1.148	-0.492	0.937	0.839	0.958	3.343	1.736	3.308	4.218	0.857	-0.108	-3.328	-3.242	-0.595	-2.015	-0.837	1.751	0.808	-2.760	-3.104	0.600	1.556	-1.188	-2.566	-2.653	-0.791	-1.108	156.250
-1.874	0.081	-1.592	0.177	0.500	0.341	4.794	2.082	4.403	6.922	2.595	1.424	-2.883	-3.508	-1.715	-3.296	-2.079	0.615	-0.162	-3.803	-3.779	0.025	0.881	-0.471	-2.101	-1.166	1.574	0.517	160.156
-2.842	-1.061	-2.734	-0.647	0.113	-0.332	6.221	2.386	5.451	9.602	4.271	2.936	-2.339	-3.745	-2.867	-4.627	-3.361	-0.598	-1.158	-4.886	-4.480	-0.534	0.241	0.349	-1.436	0.497	4.065	2.209	164.062
-3.780	-2.218	-3.847	-1.495	-0.303	-1.008	7.570	2.648	6.410	12.155	5.833	4.365	-1.723	-3.954	-4.000	-5.948	-4.627	-1.838	-2.125	-5.966	-5.183	-1.051	-0.324	1.238	-0.646	2.221	6.564	3.890	167.969
-4.657	-3.336	-4.870	-2.327	-0.726	-1.644	8.810	2.873	7.253	14.501	7.243	5.664	-1.058	-4.130	-5.073	-7.213	-5.828	-3.052	-3.024	-7.004	-5.865	-1.507	-0.798	2.161	0.189	3.900	8.963	5.490	171.875
-5.457	-4.370	-5.755	-3.109	-1.133	-2.205	9.929	3.069	7.968	16.588	8.477	6.795	-0.358	-4.270	-6.057	-8.379	-6.924	-4.192	-3.830	-7.967	-6.505	-1.897	-1.182	3.081	1.000	5.450	11.174	6.952	175.781
-6.173	-5.287	-6.474	-3.814	-1.505	-2.672	10.924	3.241	8.553	18.387	9.522	7.739	0.368	-4.366	-6.931	-9.418	-7.888	-5.215	-4.527	-8.831	-7.087	-2.224	-1.491	3.966	1.733	6.809	13.132	8.231	179.688
-6.804	-6.064	-7.012	-4.421	-1.823	-3.038	11.798	3.390	9.015	19.885	10.372	8.484	1.114	-4.410	-7.683	-10.306	-8.696	-6.087	-5.112	-9.576	-7.595	-2.496	-1.746	4.784	2.349	7.940	14.795	9.297	183.594
-7.351	-6.692	-7.377	-4.916	-2.074	-3.301	12.552	3.513	9.363	21.082	11.023	9.027	1.873	-4.392	-8.304	-11.027	-9.337	-6.784	-5.584	-10.185	-8.013	-2.721	-1.965	5.509	2.824	8.827	16.139	10.133	187.500
-7.811	-7.164	-7.584	-5.289	-2.246	-3.464	13.183	3.603	9.604	21.980	11.474	9.370	2.635	-4.304	-8.789	-11.567	-9.800	-7.292	-5.945	-10.648	-8.329	-2.905	-2.161	6.118	3.147	9.468	17.157	10.729	191.406
-8.176	-7.484	-7.655	-5.538	-2.334	-3.529	13.682	3.651	9.744	22.582	11.722	9.520	3.383	-4.142	-9.139	-11.921	-10.083	-7.608	-6.194	-10.958	-8.533	-3.052	-2.338	6.596	3.313	9.870	17.849	11.085	195.312
-8.435	-7.657	-7.616	-5.663	-2.338	-3.500	14.033	3.648	9.788	22.894	11.771	9.488	4.094	-3.908	-9.354	-12.088	-10.188	-7.739	-6.332	-11.114	-8.618	-3.159	-2.493	6.933	3.328	10.048	18.223	11.210	199.219
-8.571	-7.690	-7.489	-5.671	-2.267	-3.376	14.223	3.589	9.733	22.920	11.629	9.289	4.738	-3.608	-9.438	-12.075	-10.120	-7.701	-6.357	-11.119	-8.580	-3.224	-2.618	7.126	3.203	10.018	18.293	11.119	203.125
-8.570	-7.597	-7.293	-5.574	-2.131	-3.165	14.238	3.470	9.578	22.668	11.315	8.942	5.285	-3.257	-9.399	-11.895	-9.890	-7.514	-6.272	-10.984	-8.423	-3.241	-2.702	7.181	2.957	9.797	18.078	10.835	207.031
-8.425	-7.391	-7.044	-5.387	-1.949	-2.877	14.072	3.292	9.320	22.153	10.850	8.471	5.709	-2.872	-9.245	-11.568	-9.514	-7.206	-6.079	-10.720	-8.153	-3.201	-2.732	7.108	2.616	9.404	17.603	10.384	210.938
-8.140	-7.089	-6.754	-5.128	-1.734	-2.528	13.731	3.055	8.955	21.402	10.262	7.899	5.991	-2.468	-8.985	-11.116	-9.010	-6.807	-5.785	-10.343	-7.779	-3.101	-2.699	6.929	2.206	8.857	16.901	9.796	214.844
-7.731	-6.708	-6.435	-4.815	-1.501	-2.141	13.232	2.764	8.484	20.451	9.578	7.252	6.123	-2.059	-8.631	-10.562	-8.404	-6.346	-5.402	-9.863	-7.311	-2.937	-2.598	6.665	1.758	8.180	16.012	9.101	218.750
-7.226	-6.266	-6.096	-4.464	-1.259	-1.744	12.607	2.423	7.915	19.350	8.821	6.554	6.115	-1.651	-8.193	-9.929	-7.724	-5.852	-4.944	-9.293	-6.760	-2.709	-2.428	6.344	1.299	7.396	14.979	8.328	222.656
-6.661	-5.783	-5.746	-4.089	-1.012	-1.367	11.892	2.037	7.261	18.150	8.010	5.826	5.989	-1.245	-7.687	-9.237	-6.995	-5.350	-4.427	-8.641	-6.136	-2.418	-2.196	5.990	0.856	6.533	13.849	7.501	226.562
-6.076	-5.276	-5.395	-3.699	-0.761	-1.035	11.132	1.615	6.544	16.905	7.161	5.085	5.778	-0.835	-7.128	-8.502	-6.242	-4.858	-3.869	-7.915	-5.447	-2.070	-1.913	5.624	0.448	5.617	12.663	6.642	230.469
-5.509	-4.761	-5.054	-3.304	-0.502	-0.768	10.370	1.168	5.792	15.664	6.290	4.344	5.520	-0.412	-6.537	-7.737	-5.482	-4.384	-3.284	-7.123	-4.701	-1.673	-1.594	5.262	0.085	4.675	11.462	5.765	234.375
-4.991	-4.251	-4.736	-2.909	-0.234	-0.577	9.646	0.711	5.037	14.467	5.411	3.611	5.256	0.032	-5.937	-6.956	-4.723	-3.933	-2.682	-6.276	-3.906	-1.235	-1.253	4.914	-0.232	3.735	10.280	4.883	238.281
-4.544	-3.760	-4.454	-2.521	0.045	-0.461	8.993	0.260	4.311	13.343	4.544	2.892	5.019	0.502	-5.353	-6.170	-3.969	-3.503	-2.075	-5.390	-3.077	-0.767	-0.902	4.586	-0.513	2.821	9.144	4.007	242.188
-4.182	-3.299	-4.221	-2.144	0.333	-0.414	8.431	-0.163	3.643	12.316	3.713	2.191	4.832	0.995	-4.808	-5.396	-3.223	-3.096	-1.469	-4.486	-2.230	-0.282	-0.555	4.279	-0.775	1.955	8.080	3.150	246.094
-3.910	-2.877	-4.048	-1.786	0.623	-0.422	7.973	-0.537	3.057	11.400	2.942	1.514	4.708	1.504	-4.321	-4.653	-2.488	-2.711	-0.875	-3.589	-1.387	0.203	-0.222	3.997	-1.033	1.162	7.109	2.329	250.000
-3.723	-2.500	-3.939	-1.455	0.908	-0.470	7.619	-0.844	2.569	10.604	2.257	0.871	4.650	2.010	-3.905	-3.964	-1.774	-2.355	-0.306	-2.728	-0.576	0.668	0.080	3.742	-1.297	0.465	6.249	1.561	253.906
-3.615	-2.171	-3.892	-1.156	1.177	-0.545	7.363	-1.071	2.183	9.931	1.678	0.275	4.652	2.495	-3.566	-3.353	-1.095	-2.035	0.222	-1.936	0.176	1.094	0.334	3.522	-1.571	-0.117	5.517	0.869	257.812
-3.574	-1.891	-3.900	-0.896	1.418	-0.632	7.191	-1.211	1.899	9.379	1.218	-0.256	4.702	2.941	-3.304	-2.842	-0.471	-1.762	0.689	-1.241	0.845	1.461	0.522	3.343	-1.844	-0.566	4.925	0.274	261.719
-3.587	-1.655	-3.951	-0.680	1.621	-0.723	7.087	-1.267	1.707	8.944	0.878	-0.702	4.787	3.331	-3.113	-2.449	0.081	-1.547	1.079	-0.666	1.411	1.753	0.630	3.214	-2.101	-0.872	4.480	-0.204	265.625
-3.638	-1.463	-4.032	-0.514	1.777	-0.813	7.034	-1.248	1.595	8.620	0.653	-1.042	4.893	3.655	-2.985	-2.184	0.540	-1.400	1.378	-0.228	1.862	1.963	0.653	3.141	-2.320	-1.032	4.183	-0.548	269.531
-3.715	-1.313	-4.130	-0.399	1.877	-0.904	7.019	-1.168	1.553	8.401	0.526	-1.264	5.010	3.912	-2.913	-2.047	0.893	-1.330	1.579	0.068	2.196	2.092	0.597	3.125	-2.480	-1.052	4.033	-0.752	273.438
-3.801	-1.204	-4.237	-0.338	1.919	-1.000	7.029	-1.045	1.567	8.285	0.476	-1.361	5.129	4.103	-2.889	-2.032	1.129	-1.339	1.682	0.226	2.420	2.150	0.479	3.166	-2.562	-0.945	4.018	-0.814	277.344
-3.886	-1.138	-4.345	-0.332	1.903	-1.107	7.058	-0.894	1.628	8.269	0.482	-1.337	5.247	4.237	-2.908	-2.120	1.244	-1.425	1.691	0.258	2.545	2.150	0.321	3.255	-2.553	-0.730	4.123	-0.746	281.250
-3.957	-1.114	-4.448	-0.377	1.833	-1.226	7.104	-0.730	1.727	8.348	0.522	-1.210	5.358	4.322	-2.969	-2.291	1.242	-1.581	1.617	0.183	2.588	2.107	0.145	3.382	-2.451	-0.432	4.328	-0.566	285.156
-4.005	-1.133	-4.540	-0.465	1.720	-1.358	7.166	-0.563	1.857	8.516	0.578	-1.007	5.462	4.369	-3.071	-2.520	1.132	-1.796	1.473	0.027	2.568	2.036	-0.026	3.535	-2.262	-0.076	4.608	-0.303	289.062
-4.027	-1.190	-4.616	-0.585	1.578	-1.494	7.245	-0.399	2.012	8.756	0.640	-0.759	5.553	4.386	-3.214	-2.781	0.932	-2.058	1.273	-0.184	2.499	1.949	-0.179	3.701	-2.004	0.312	4.940	0.009	292.969
-4.019	-1.278	-4.671	-0.724	1.424	-1.620	7.345	-0.234	2.192	9.048	0.710	-0.502	5.627	4.375	-3.396	-3.052	0.663	-2.356	1.033	-0.423	2.396	1.853	-0.302	3.865	-1.705	0.708	5.296	0.335	296.875
-3.984	-1.389	-4.703	-0.866	1.278	-1.720	7.464	-0.061	2.397	9.365	0.793	-0.267	5.678	4.340	-3.612	-3.312	0.348	-2.679	0.768	-0.667	2.270	1.755	-0.392	4.018	-1.398	1.091	5.654	0.641	300.781
-3.925	-1.511	-4.715	-0.997	1.156	-1.778	7.602	0.128	2.627	9.678	0.903	-0.075	5.700	4.282	-3.853	-3.543	0.011	-3.020	0.491	-0.894	2.130	1.657	-0.452	4.150	-1.114	1.443	5.990	0.900	304.688
-3.850	-1.632	-4.713	-1.104	1.070	-1.782	7.755	0.342	2.880	9.958	1.055	0.062	5.691	4.202	-4.106	-3.734	-0.327	-3.371	0.216	-1.085	1.985	1.564	-0.489	4.259	-0.877	1.753	6.287	1.097	308.594
-3.768	-1.742	-4.710	-1.180	1.031	-1.730	7.917	0.585	3.148	10.179	1.254	0.142	5.649	4.108	-4.355	-3.873	-0.651	-3.725	-0.045	-1.226	1.847	1.478	-0.512	4.346	-0.700	2.015	6.532	1.224	312.500
-3.686	-1.830	-4.720	-1.219	1.041	-1.628	8.085	0.850	3.417	10.330	1.500	0.175	5.581	4.008	-4.582	-3.955	-0.950	-4.075	-0.284	-1.308	1.728	1.403	-0.532	4.414	-0.583	2.226	6.721	1.287	316.406
-3.614	-1.893	-4.757	-1.221	1.099	-1.492	8.256	1.126	3.669	10.406	1.780	0.176	5.494	3.914	-4.777	-3.977	-1.220	-4.413	-0.492	-1.327	1.640	1.342	-0.561	4.473	-0.513	2.388	6.853	1.297	320.312
-3.555	-1.929	-4.831	-1.187	1.202	-1.340	8.430	1.398	3.887	10.419	2.072	0.159	5.403	3.840	-4.933	-3.944	-1.465	-4.730	-0.668	-1.285	1.595	1.296	-0.610	4.529	-0.471	2.506	6.936	1.269	324.219
-3.511	-1.940	-4.943	-1.124	1.341	-1.191	8.609	1.646	4.055	10.388	2.349	0.140	5.321	3.796	-5.050	-3.865	-1.690	-5.022	-0.811	-1.191	1.598	1.267	-0.685	4.586	-0.436	2.585	6.980	1.217	328.125
-3.481	-1.932	-5.090	-1.039	1.507	-1.060	8.795	1.860	4.166	10.338	2.582	0.131	5.266	3.791	-5.133	-3.755	-1.899	-5.284	-0.926	-1.058	1.652	1.252	-0.789	4.648	-0.393	2.631	6.997	1.154	332.031
-3.458	-1.913	-5.262	-0.941	1.690	-0.958	8.988	2.030	4.220	10.291	2.750	0.137	5.251	3.829	-5.194	-3.631	-2.094	-5.516	-1.018	-0.902	1.751	1.251	-0.914	4.711	-0.334	2.648	6.993	1.089	335.938
-3.436	-1.893	-5.448	-0.841	1.880	-0.889	9.185	2.155	4.225	10.264	2.843	0.161	5.288	3.910	-5.241	-3.509	-2.275	-5.720	-1.092	-0.740	1.886	1.262	-1.047	4.770	-0.265	2.636	6.972	1.024	339.844
-3.408	-1.881	-5.635	-0.748	2.066	-0.852	9.379	2.241	4.193	10.265	2.864	0.203	5.386	4.032	-5.282	-3.405	-2.435	-5.900	-1.152	-0.585	2.046	1.286	-1.167	4.819	-0.203	2.592	6.932	0.960	343.750
-3.369	-1.884	-5.813	-0.669	2.241	-0.841	9.563	2.292	4.141	10.294	2.828	0.261	5.547	4.190	-5.320	-3.327	-2.570	-6.060	-1.197	-0.447	2.218	1.323	-1.254	4.852	-0.167	2.514	6.867	0.895	347.656
-3.319	-1.908	-5.974	-0.610	2.398	-0.846	9.725	2.314	4.082	10.345	2.761	0.333	5.771	4.379	-5.356	-3.280	-2.673	-6.205	-1.227	-0.332	2.390	1.372	-1.291	4.868	-0.178	2.401	6.774	0.833	351.562
-3.262	-1.960	-6.113	-0.573	2.531	-0.857	9.860	2.308	4.030	10.412	2.695	0.418	6.053	4.594	-5.389	-3.264	-2.744	-6.339	-1.241	-0.241	2.555	1.431	-1.274	4.871	-0.247	2.260	6.655	0.777	355.469
-3.206	-2.044	-6.230	-0.562	2.636	-0.869	9.962	2.277	3.994	10.488	2.662	0.517	6.382	4.825	-5.418	-3.280	-2.790	-6.467	-1.242	-0.176	2.702	1.497	-1.205	4.872	-0.369	2.104	6.524	0.739	359.375
-3.162	-2.168	-6.327	-0.579	2.707	-0.879	10.034	2.223	3.981	10.577	2.691	0.636	6.744	5.064	-5.449	-3.328	-2.822	-6.592	-1.236	-0.142	2.822	1.565	-1.102	4.884	-0.529	1.955	6.402	0.735	363.281
-3.140	-2.337	-6.409	-0.626	2.738	-0.895	10.079	2.152	3.998	10.681	2.802	0.782	7.120	5.295	-5.490	-3.416	-2.857	-6.719	-1.235	-0.145	2.905	1.625	-0.985	4.922	-0.697	1.840	6.323	0.784	367.188
-3.149	-2.555	-6.477	-0.707	2.722	-0.925	10.106	2.078	4.051	10.811	3.002	0.962	7.484	5.498	-5.551	-3.553	-2.911	-6.850	-1.253	-0.199	2.937	1.669	-0.879	4.996	-0.837	1.790	6.319	0.904	371.094
-3.193	-2.823	-6.535	-0.824	2.656	-0.976	10.119	2.021	4.145	10.973	3.289	1.183	7.804	5.647	-5.642	-3.751	-3.001	-6.983	-1.303	-0.322	2.901	1.689	-0.802	5.107	-0.913	1.830	6.414	1.106	375.000
-3.266	-3.132	-6.580	-0.976	2.539	-1.051	10.122	2.002	4.285	11.168	3.644	1.448	8.047	5.715	-5.767	-4.019	-3.136	-7.114	-1.397	-0.528	2.783	1.676	-0.766	5.244	-0.901	1.974	6.615	1.391	378.906
-3.359	-3.468	-6.609	-1.158	2.377	-1.144	10.115	2.046	4.478	11.391	4.046	1.755	8.178	5.676	-5.923	-4.360	-3.319	-7.229	-1.538	-0.826	2.573	1.625	-0.778	5.385	-0.795	2.220	6.906	1.746	382.812
-3.454	-3.805	-6.616	-1.358	2.185	-1.239	10.099	2.173	4.726	11.630	4.469	2.094	8.174	5.513	-6.099	-4.764	-3.543	-7.317	-1.723	-1.215	2.269	1.533	-0.837	5.502	-0.606	2.542	7.246	2.141	386.719
-3.530	-4.116	-6.593	-1.556	1.983	-1.315	10.072	2.395	5.030	11.866	4.887	2.449	8.021	5.223	-6.277	-5.208	-3.792	-7.365	-1.943	-1.675	1.884	1.398	-0.940	5.559	-0.369	2.896	7.572	2.537	390.625
-3.566	-4.369	-6.534	-1.729	1.801	-1.347	10.033	2.718	5.384	12.081	5.279	2.799	7.725	4.818	-6.434	-5.657	-4.045	-7.363	-2.182	-2.172	1.440	1.226	-1.081	5.527	-0.131	3.220	7.811	2.884	394.531
-3.546	-4.539	-6.435	-1.854	1.663	-1.315	9.983	3.128	5.774	12.255	5.630	3.126	7.310	4.327	-6.549	-6.070	-4.277	-7.308	-2.417	-2.662	0.973	1.026	-1.248	5.383	0.058	3.451	7.893	3.137	398.438
-3.460	-4.610	-6.295	-1.912	1.592	-1.209	9.922	3.604	6.181	12.373	5.933	3.416	6.811	3.791	-6.602	-6.407	-4.466	-7.204	-2.629	-3.098	0.523	0.810	-1.428	5.117	0.155	3.537	7.766	3.262	402.344
-3.308	-4.582	-6.119	-1.895	1.598	-1.032	9.850	4.107	6.578	12.427	6.188	3.663	6.277	3.255	-6.583	-6.639	-4.599	-7.059	-2.799	-3.443	0.126	0.595	-1.602	4.738	0.133	3.449	7.413	3.245	406.250
-3.101	-4.469	-5.916	-1.809	1.675	-0.799	9.766	4.596	6.933	12.417	6.400	3.870	5.757	2.765	-6.492	-6.755	-4.671	-6.884	-2.915	-3.674	-0.188	0.396	-1.752	4.271	-0.009	3.186	6.852	3.096	410.156
-2.861	-4.299	-5.702	-1.671	1.807	-0.535	9.668	5.025	7.221	12.351	6.577	4.040	5.295	2.357	-6.336	-6.762	-4.687	-6.688	-2.973	-3.791	-0.402	0.230	-1.861	3.755	-0.252	2.781	6.139	2.843	414.062
-2.611	-4.103	-5.492	-1.505	1.967	-0.269	9.555	5.356	7.418	12.238	6.720	4.175	4.926	2.057	-6.135	-6.684	-4.660	-6.482	-2.976	-3.808	-0.514	0.106	-1.919	3.239	-0.554	2.292	5.354	2.529	417.969
-2.374	-3.910	-5.300	-1.336	2.127	-0.027	9.425	5.563	7.509	12.085	6.822	4.271	4.669	1.878	-5.910	-6.553	-4.603	-6.272	-2.933	-3.754	-0.529	0.031	-1.924	2.770	-0.865	1.791	4.583	2.197	421.875
-2.167	-3.743	-5.138	-1.185	2.262	0.170	9.274	5.632	7.486	11.894	6.867	4.315	4.531	1.820	-5.685	-6.404	-4.531	-6.060	-2.856	-3.659	-0.463	0.006	-1.885	2.387	-1.132	1.353	3.905	1.884	425.781
-1.999	-3.612	-5.014	-1.064	2.358	0.311	9.102	5.565	7.355	11.659	6.833	4.295	4.503	1.870	-5.480	-6.268	-4.454	-5.850	-2.758	-3.554	-0.335	0.024	-1.817	2.115	-1.314	1.038	3.377	1.617	429.688
-1.871	-3.517	-4.932	-0.975	2.411	0.397	8.911	5.383	7.129	11.374	6.703	4.200	4.568	2.008	-5.308	-6.166	-4.382	-5.645	-2.652	-3.458	-0.166	0.077	-1.735	1.959	-1.391	0.885	3.025	1.412	433.594
-1.780	-3.453	-4.889	-0.913	2.428	0.433	8.704	5.120	6.835	11.031	6.474	4.037	4.702	2.209	-5.174	-6.109	-4.319	-5.452	-2.549	-3.384	0.022	0.152	-1.655	1.907	-1.364	0.898	2.844	1.270	437.500
-1.717	-3.410	-4.879	-0.870	2.422	0.430	8.491	4.822	6.508	10.631	6.164	3.823	4.878	2.442	-5.077	-6.099	-4.267	-5.279	-2.459	-3.339	0.212	0.234	-1.587	1.932	-1.259	1.050	2.804	1.186	441.406
-1.672	-3.379	-4.893	-0.836	2.409	0.400	8.280	4.536	6.186	10.185	5.809	3.592	5.072	2.680	-5.010	-6.131	-4.229	-5.136	-2.387	-3.322	0.385	0.309	-1.539	1.999	-1.114	1.289	2.860	1.150	445.312
-1.634	-3.353	-4.914	-0.805	2.402	0.351	8.080	4.307	5.902	9.712	5.459	3.383	5.261	2.898	-4.960	-6.194	-4.202	-5.031	-2.336	-3.329	0.531	0.368	-1.514	2.075	-0.973	1.548	2.957	1.147	449.219
-1.591	-3.329	-4.925	-0.772	2.409	0.292	7.893	4.162	5.678	9.235	5.163	3.228	5.426	3.078	-4.918	-6.271	-4.181	-4.967	-2.302	-3.351	0.643	0.407	-1.514	2.133	-0.875	1.758	3.048	1.166	453.125
-1.534	-3.305	-4.907	-0.738	2.430	0.227	7.715	4.110	5.517	8.777	4.953	3.146	5.550	3.210	-4.870	-6.343	-4.158	-4.935	-2.275	-3.377	0.726	0.430	-1.532	2.156	-0.844	1.864	3.095	1.192	457.031
-1.455	-3.278	-4.843	-0.702	2.458	0.158	7.535	4.134	5.403	8.349	4.842	3.130	5.623	3.292	-4.803	-6.392	-4.120	-4.917	-2.236	-3.394	0.787	0.451	-1.555	2.141	-0.887	1.831	3.074	1.210	460.938
-1.351	-3.245	-4.724	-0.667	2.482	0.086	7.336	4.205	5.307	7.953	4.814	3.151	5.633	3.328	-4.706	-6.400	-4.054	-4.889	-2.168	-3.386	0.841	0.489	-1.562	2.093	-0.995	1.652	2.976	1.203	464.844
-1.221	-3.202	-4.549	-0.634	2.490	0.015	7.100	4.280	5.196	7.583	4.834	3.169	5.576	3.328	-4.567	-6.357	-3.947	-4.823	-2.052	-3.342	0.901	0.563	-1.531	2.019	-1.147	1.344	2.799	1.154	468.750
-1.069	-3.147	-4.323	-0.601	2.472	-0.054	6.816	4.321	5.042	7.224	4.860	3.137	5.446	3.299	-4.378	-6.259	-3.793	-4.696	-1.877	-3.254	0.980	0.688	-1.438	1.928	-1.314	0.945	2.551	1.048	472.656
-0.904	-3.076	-4.064	-0.568	2.425	-0.116	6.484	4.301	4.831	6.864	4.855	3.023	5.245	3.249	-4.137	-6.113	-3.594	-4.494	-1.644	-3.121	1.081	0.868	-1.272	1.826	-1.466	0.505	2.243	0.882	476.562
-0.735	-2.991	-3.792	-0.535	2.347	-0.168	6.114	4.206	4.567	6.498	4.799	2.815	4.977	3.180	-3.849	-5.934	-3.362	-4.222	-1.367	-2.953	1.200	1.091	-1.030	1.715	-1.578	0.077	1.889	0.663	480.469
-0.575	-2.898	-3.529	-0.502	2.244	-0.209	5.726	4.044	4.270	6.129	4.692	2.529	4.651	3.089	-3.530	-5.744	-3.118	-3.898	-1.071	-2.766	1.325	1.338	-0.726	1.591	-1.633	-0.292	1.506	0.409	484.375
-0.432	-2.802	-3.295	-0.469	2.125	-0.237	5.349	3.830	3.970	5.770	4.553	2.200	4.277	2.972	-3.205	-5.567	-2.887	-3.554	-0.787	-2.580	1.439	1.579	-0.383	1.452	-1.620	-0.565	1.115	0.152	488.281
-0.310	-2.713	-3.104	-0.438	2.001	-0.253	5.008	3.587	3.699	5.438	4.411	1.877	3.869	2.823	-2.901	-5.423	-2.691	-3.225	-0.545	-2.416	1.525	1.786	-0.034	1.296	-1.541	-0.721	0.740	-0.072	492.188
-0.209	-2.636	-2.965	-0.409	1.882	-0.257	4.722	3.338	3.480	5.150	4.293	1.605	3.440	2.639	-2.648	-5.324	-2.542	-2.944	-0.364	-2.288	1.570	1.938	0.292	1.125	-1.403	-0.762	0.406	-0.233	496.094
-0.124	-2.577	-2.878	-0.380	1.781	-0.247	4.501	3.095	3.321	4.919	4.214	1.418	3.003	2.425	-2.465	-5.271	-2.442	-2.727	-0.249	-2.204	1.572	2.024	0.568	0.943	-1.220	-0.704	0.129	-0.313	500.000
-0.049	-2.532	-2.835	-0.348	1.709	-0.222	4.345	2.865	3.213	4.748	4.172	1.323	2.573	2.192	-2.361	-5.256	-2.378	-2.576	-0.190	-2.157	1.537	2.050	0.776	0.759	-1.011	-0.583	-0.082	-0.315	503.906
0.020	-2.496	-2.823	-0.307	1.675	-0.177	4.248	2.649	3.140	4.637	4.148	1.305	2.164	1.959	-2.331	-5.261	-2.332	-2.477	-0.166	-2.136	1.483	2.030	0.907	0.582	-0.800	-0.444	-0.231	-0.263	507.812
0.087	-2.458	-2.823	-0.248	1.687	-0.111	4.201	2.445	3.078	4.578	4.110	1.326	1.791	1.751	-2.355	-5.261	-2.282	-2.408	-0.148	-2.120	1.433	1.987	0.964	0.422	-0.611	-0.334	-0.334	-0.196	511.719
0.152	-2.407	-2.820	-0.167	1.750	-0.020	4.200	2.256	3.008	4.563	4.027	1.338	1.471	1.594	-2.407	-5.235	-2.213	-2.341	-0.109	-2.090	1.409	1.948	0.962	0.285	-0.472	-0.297	-0.417	-0.164	515.625
0.211	-2.332	-2.801	-0.061	1.864	0.096	4.241	2.089	2.919	4.583	3.873	1.292	1.222	1.509	-2.461	-5.170	-2.121	-2.259	-0.029	-2.030	1.430	1.938	0.923	0.179	-0.406	-0.363	-0.505	-0.212	519.531
0.260	-2.232	-2.761	0.067	2.019	0.233	4.325	1.954	2.811	4.629	3.636	1.153	1.061	1.511	-2.497	-5.062	-2.011	-2.152	0.102	-1.935	1.506	1.973	0.878	0.109	-0.429	-0.540	-0.611	-0.367	523.438
0.292	-2.115	-2.704	0.206	2.203	0.383	4.451	1.862	2.693	4.692	3.323	0.906	1.002	1.602	-2.507	-4.922	-1.903	-2.025	0.276	-1.809	1.634	2.061	0.854	0.086	-0.541	-0.807	-0.731	-0.629	527.344
0.297	-1.998	-2.642	0.339	2.393	0.531	4.616	1.817	2.580	4.762	2.954	0.563	1.055	1.772	-2.494	-4.772	-1.819	-1.894	0.474	-1.669	1.800	2.198	0.872	0.120	-0.721	-1.117	-0.836	-0.969	531.250
0.268	-1.905	-2.592	0.446	2.563	0.655	4.807	1.817	2.487	4.825	2.563	0.161	1.215	2.002	-2.474	-4.641	-1.784	-1.782	0.670	-1.538	1.980	2.365	0.939	0.224	-0.927	-1.403	-0.881	-1.331	535.156
0.199	-1.865	-2.574	0.505	2.685	0.730	5.002	1.848	2.424	4.866	2.186	-0.250	1.473	2.262	-2.467	-4.559	-1.812	-1.711	0.834	-1.437	2.147	2.540	1.046	0.410	-1.103	-1.590	-0.808	-1.646	539.062
0.087	-1.899	-2.605	0.498	2.735	0.736	5.175	1.889	2.392	4.869	1.857	-0.609	1.802	2.519	-2.489	-4.549	-1.908	-1.698	0.941	-1.387	2.275	2.696	1.179	0.679	-1.192	-1.611	-0.569	-1.846	542.969
-0.061	-2.018	-2.696	0.413	2.695	0.662	5.290	1.912	2.386	4.816	1.601	-0.868	2.169	2.743	-2.551	-4.615	-2.060	-1.747	0.981	-1.396	2.342	2.814	1.320	1.025	-1.151	-1.427	-0.138	-1.879	546.875
-0.231	-2.218	-2.845	0.255	2.560	0.510	5.315	1.891	2.386	4.693	1.429	-0.994	2.533	2.910	-2.648	-4.749	-2.244	-1.849	0.957	-1.458	2.341	2.882	1.456	1.425	-0.963	-1.037	0.477	-1.727	550.781
-0.405	-2.475	-3.040	0.038	2.339	0.295	5.223	1.802	2.370	4.487	1.336	-0.982	2.851	3.003	-2.763	-4.922	-2.426	-1.977	0.889	-1.557	2.277	2.903	1.579	1.844	-0.638	-0.477	1.227	-1.403	554.688
-0.558	-2.749	-3.255	-0.206	2.057	0.048	4.996	1.631	2.308	4.191	1.298	-0.856	3.083	3.018	-2.867	-5.092	-2.567	-2.096	0.805	-1.664	2.168	2.887	1.685	2.237	-0.213	0.180	2.028	-0.957	558.594
-0.665	-2.991	-3.455	-0.440	1.747	-0.197	4.634	1.374	2.175	3.808	1.282	-0.663	3.198	2.962	-2.923	-5.207	-2.631	-2.163	0.741	-1.741	2.042	2.854	1.775	2.553	0.257	0.841	2.772	-0.467	562.500
-0.708	-3.148	-3.600	-0.621	1.452	-0.402	4.149	1.039	1.950	3.343	1.247	-0.468	3.173	2.847	-2.898	-5.220	-2.587	-2.139	0.731	-1.750	1.935	2.825	1.854	2.742	0.707	1.407	3.343	-0.023	566.406
-0.670	-3.177	-3.652	-0.710	1.214	-0.536	3.571	0.641	1.622	2.812	1.152	-0.338	2.998	2.691	-2.765	-5.091	-2.415	-1.994	0.802	-1.660	1.877	2.822	1.930	2.768	1.076	1.787	3.634	0.287	570.312
-0.548	-3.052	-3.583	-0.680	1.067	-0.580	2.937	0.208	1.194	2.230	0.965	-0.334	2.675	2.510	-2.512	-4.796	-2.108	-1.713	0.975	-1.449	1.891	2.861	2.013	2.610	1.314	1.919	3.569	0.392	574.219
-0.345	-2.768	-3.380	-0.522	1.032	-0.526	2.289	-0.227	0.686	1.618	0.669	-0.495	2.215	2.318	-2.145	-4.335	-1.672	-1.300	1.253	-1.112	1.989	2.953	2.117	2.268	1.392	1.775	3.115	0.253	578.125
-0.074	-2.345	-3.048	-0.244	1.112	-0.387	1.667	-0.627	0.131	0.993	0.263	-0.833	1.642	2.123	-1.688	-3.731	-1.129	-0.780	1.628	-0.662	2.165	3.100	2.250	1.767	1.308	1.372	2.292	-0.132	582.031
0.242	-1.825	-2.613	0.127	1.293	-0.187	1.105	-0.954	-0.424	0.373	-0.235	-1.329	0.984	1.928	-1.176	-3.027	-0.517	-0.192	2.074	-0.129	2.399	3.290	2.414	1.150	1.084	0.769	1.170	-0.725	585.938
0.579	-1.261	-2.116	0.549	1.545	0.042	0.623	-1.176	-0.931	-0.229	-0.789	-1.937	0.278	1.735	-0.656	-2.280	0.122	0.410	2.555	0.444	2.662	3.506	2.599	0.477	0.765	0.059	-0.137	-1.457	589.844
0.909	-0.713	-1.607	0.977	1.829	0.263	0.231	-1.272	-1.343	-0.800	-1.357	-2.589	-0.436	1.542	-0.171	-1.556	0.737	0.972	3.025	1.008	2.922	3.723	2.790	-0.186	0.407	-0.653	-1.489	-2.236	593.750
1.211	-0.236	-1.139	1.363	2.100	0.447	-0.076	-1.240	-1.629	-1.330	-1.891	-3.211	-1.117	1.351	0.239	-0.913	1.281	1.445	3.440	1.514	3.147	3.916	2.965	-0.776	0.067	-1.264	-2.744	-2.971	597.656
1.469	0.134	-0.752	1.670	2.320	0.571	-0.312	-1.098	-1.779	-1.815	-2.351	-3.733	-1.724	1.170	0.549	-0.398	1.717	1.792	3.766	1.925	3.317	4.062	3.106	-1.240	-0.205	-1.702	-3.777	-3.585	601.562
1.677	0.378	-0.475	1.877	2.463	0.631	-0.498	-0.884	-1.808	-2.250	-2.708	-4.107	-2.221	1.011	0.746	-0.033	2.021	1.998	3.981	2.217	3.425	4.150	3.201	-1.544	-0.382	-1.930	-4.504	-4.025	605.469
1.835	0.499	-0.312	1.978	2.516	0.634	-0.654	-0.648	-1.750	-2.634	-2.951	-4.307	-2.574	0.893	0.839	0.178	2.182	2.070	4.080	2.388	3.474	4.177	3.249	-1.677	-0.454	-1.957	-4.886	-4.275	609.375
1.951	0.517	-0.252	1.983	2.482	0.596	-0.795	-0.449	-1.652	-2.965	-3.081	-4.337	-2.760	0.836	0.844	0.257	2.211	2.034	4.077	2.449	3.480	4.152	3.256	-1.648	-0.433	-1.828	-4.940	-4.349	613.281
2.031	0.460	-0.273	1.913	2.377	0.534	-0.931	-0.338	-1.566	-3.242	-3.116	-4.225	-2.768	0.858	0.787	0.239	2.129	1.931	3.995	2.426	3.465	4.091	3.237	-1.484	-0.347	-1.609	-4.717	-4.284	617.188
2.083	0.360	-0.348	1.794	2.225	0.460	-1.062	-0.348	-1.531	-3.465	-3.083	-4.014	-2.597	0.969	0.697	0.162	1.969	1.806	3.867	2.349	3.449	4.017	3.212	-1.219	-0.231	-1.372	-4.297	-4.126	621.094
2.106	0.242	-0.452	1.650	2.047	0.379	-1.180	-0.494	-1.575	-3.630	-3.011	-3.753	-2.264	1.167	0.597	0.062	1.767	1.698	3.725	2.248	3.448	3.951	3.198	-0.888	-0.118	-1.172	-3.761	-3.920	625.000
2.099	0.121	-0.574	1.498	1.863	0.288	-1.274	-0.762	-1.701	-3.736	-2.928	-3.485	-1.799	1.437	0.502	-0.034	1.554	1.631	3.594	2.144	3.467	3.915	3.214	-0.520	-0.033	-1.042	-3.180	-3.697	628.906
2.053	0.001	-0.709	1.346	1.686	0.179	-1.329	-1.115	-1.892	-3.779	-2.856	-3.239	-1.244	1.750	0.420	-0.118	1.358	1.611	3.490	2.046	3.500	3.920	3.269	-0.137	0.016	-0.985	-2.603	-3.475	632.812
1.961	-0.124	-0.862	1.195	1.518	0.046	-1.334	-1.499	-2.113	-3.761	-2.805	-3.027	-0.649	2.066	0.347	-0.195	1.192	1.625	3.419	1.951	3.529	3.968	3.363	0.249	0.037	-0.976	-2.052	-3.254	636.719
1.819	-0.263	-1.042	1.036	1.356	-0.117	-1.282	-1.850	-2.317	-3.680	-2.774	-2.844	-0.069	2.340	0.278	-0.281	1.060	1.648	3.371	1.845	3.528	4.047	3.481	0.626	0.053	-0.968	-1.534	-3.023	640.625
1.628	-0.430	-1.255	0.859	1.191	-0.307	-1.175	-2.107	-2.454	-3.540	-2.754	-2.672	0.444	2.529	0.201	-0.398	0.960	1.650	3.330	1.706	3.470	4.135	3.600	0.985	0.095	-0.914	-1.044	-2.772	644.531
1.403	-0.627	-1.497	0.656	1.013	-0.514	-1.026	-2.221	-2.483	-3.346	-2.727	-2.488	0.844	2.597	0.111	-0.561	0.883	1.607	3.277	1.516	3.332	4.205	3.691	1.309	0.194	-0.770	-0.579	-2.491	648.438
1.166	-0.851	-1.756	0.426	0.815	-0.718	-0.858	-2.169	-2.382	-3.111	-2.677	-2.277	1.095	2.526	0.008	-0.778	0.821	1.508	3.198	1.265	3.104	4.228	3.726	1.573	0.373	-0.515	-0.154	-2.185	652.344
0.954	-1.081	-2.003	0.179	0.595	-0.894	-0.704	-1.957	-2.156	-2.856	-2.597	-2.035	1.169	2.311	-0.096	-1.036	0.773	1.361	3.085	0.960	2.790	4.186	3.689	1.746	0.637	-0.157	0.199	-1.869	656.250
0.806	-1.286	-2.203	-0.065	0.361	-1.013	-0.605	-1.625	-1.836	-2.612	-2.487	-1.771	1.054	1.968	-0.179	-1.306	0.741	1.190	2.947	0.623	2.413	4.071	3.583	1.793	0.970	0.267	0.428	-1.574	660.156
0.765	-1.420	-2.312	-0.274	0.130	-1.051	-0.603	-1.236	-1.479	-2.418	-2.365	-1.515	0.747	1.527	-0.214	-1.541	0.738	1.034	2.804	0.294	2.010	3.896	3.427	1.680	1.333	0.693	0.471	-1.341	664.062
0.860	-1.439	-2.290	-0.412	-0.074	-0.994	-0.733	-0.868	-1.152	-2.319	-2.259	-1.304	0.259	1.029	-0.169	-1.687	0.783	0.937	2.684	0.021	1.630	3.683	3.257	1.385	1.671	1.043	0.265	-1.214	667.969
1.108	-1.303	-2.108	-0.440	-0.220	-0.835	-1.011	-0.596	-0.927	-2.353	-2.200	-1.182	-0.381	0.524	-0.021	-1.692	0.896	0.936	2.621	-0.144	1.323	3.468	3.109	0.903	1.920	1.238	-0.233	-1.232	671.875
1.502	-0.986	-1.755	-0.332	-0.281	-0.584	-1.432	-0.480	-0.858	-2.547	-2.222	-1.186	-1.130	0.060	0.244	-1.517	1.092	1.052	2.641	-0.158	1.138	3.287	3.017	0.252	2.021	1.210	-1.030	-1.422	675.781
2.012	-0.487	-1.243	-0.073	-0.233	-0.259	-1.965	-0.553	-0.975	-2.905	-2.347	-1.339	-1.930	-0.316	0.620	-1.148	1.377	1.284	2.758	0.004	1.107	3.169	2.996	-0.528	1.929	0.922	-2.091	-1.793	679.688
2.586	0.167	-0.605	0.331	-0.065	0.115	-2.550	-0.814	-1.278	-3.402	-2.580	-1.642	-2.711	-0.568	1.081	-0.598	1.740	1.609	2.971	0.342	1.245	3.132	3.044	-1.374	1.629	0.372	-3.337	-2.331	683.594
3.160	0.924	0.102	0.851	0.219	0.505	-3.113	-1.231	-1.733	-3.985	-2.908	-2.074	-3.398	-0.676	1.583	0.089	2.155	1.976	3.260	0.831	1.544	3.179	3.142	-2.208	1.135	-0.401	-4.649	-2.997	687.500
3.663	1.710	0.806	1.436	0.597	0.877	-3.573	-1.744	-2.279	-4.579	-3.296	-2.588	-3.918	-0.631	2.071	0.844	2.583	2.326	3.588	1.421	1.972	3.295	3.259	-2.947	0.491	-1.322	-5.885	-3.729	691.406
4.031	2.439	1.432	2.020	1.029	1.194	-3.858	-2.282	-2.839	-5.101	-3.699	-3.122	-4.214	-0.443	2.486	1.583	2.978	2.596	3.909	2.045	2.479	3.456	3.363	-3.513	-0.232	-2.284	-6.903	-4.449	695.312
4.214	3.030	1.908	2.533	1.466	1.425	-3.921	-2.770	-3.336	-5.471	-4.064	-3.606	-4.249	-0.137	2.775	2.221	3.295	2.733	4.177	2.629	3.006	3.630	3.426	-3.843	-0.951	-3.169	-7.577	-5.074	699.219
4.189	3.414	2.180	2.906	1.849	1.540	-3.745	-3.146	-3.701	-5.632	-4.344	-3.975	-4.011	0.254	2.898	2.683	3.498	2.705	4.350	3.101	3.486	3.785	3.432	-3.900	-1.581	-3.859	-7.822	-5.525	703.125
3.961	3.550	2.219	3.088	2.126	1.522	-3.350	-3.371	-3.893	-5.556	-4.505	-4.179	-3.520	0.688	2.838	2.916	3.560	2.506	4.403	3.405	3.865	3.895	3.372	-3.676	-2.045	-4.257	-7.602	-5.741	707.031
3.559	3.427	2.022	3.053	2.256	1.367	-2.789	-3.433	-3.894	-5.249	-4.526	-4.187	-2.822	1.121	2.601	2.899	3.471	2.154	4.323	3.506	4.098	3.938	3.249	-3.196	-2.290	-4.302	-6.934	-5.687	710.938
3.038	3.066	1.615	2.798	2.218	1.086	-2.135	-3.345	-3.717	-4.743	-4.402	-3.990	-1.983	1.512	2.213	2.638	3.240	1.692	4.117	3.395	4.162	3.908	3.072	-2.509	-2.286	-3.978	-5.888	-5.360	714.844
2.457	2.514	1.045	2.354	2.012	0.704	-1.469	-3.140	-3.395	-4.092	-4.140	-3.603	-1.079	1.829	1.718	2.169	2.884	1.170	3.808	3.086	4.054	3.803	2.852	-1.686	-2.035	-3.316	-4.568	-4.791	718.750
1.880	1.835	0.375	1.767	1.661	0.261	-0.867	-2.866	-2.973	-3.360	-3.758	-3.061	-0.188	2.048	1.167	1.549	2.436	0.644	3.424	2.615	3.791	3.635	2.603	-0.804	-1.565	-2.389	-3.102	-4.034	722.656
1.360	1.100	-0.331	1.101	1.206	-0.199	-0.385	-2.570	-2.502	-2.607	-3.280	-2.411	0.621	2.157	0.615	0.846	1.933	0.161	3.003	2.029	3.406	3.421	2.339	0.058	-0.928	-1.300	-1.617	-3.166	726.562
0.935	0.379	-1.006	0.425	0.699	-0.634	-0.055	-2.291	-2.031	-1.891	-2.739	-1.711	1.297	2.157	0.109	0.131	1.411	-0.250	2.582	1.388	2.942	3.184	2.079	0.834	-0.190	-0.168	-0.232	-2.269	730.469
0.627	-0.271	-1.594	-0.199	0.197	-1.005	0.117	-2.056	-1.599	-1.252	-2.170	-1.023	1.805	2.060	-0.316	-0.533	0.906	-0.574	2.193	0.747	2.448	2.950	1.842	1.474	0.572	0.894	0.960	-1.427	734.375
0.443	-0.804	-2.051	-0.721	-0.250	-1.285	0.147	-1.878	-1.236	-0.721	-1.614	-0.405	2.134	1.886	-0.636	-1.094	0.450	-0.815	1.866	0.161	1.970	2.742	1.650	1.948	1.281	1.787	1.893	-0.709	738.281
0.376	-1.193	-2.351	-1.106	-0.602	-1.458	0.070	-1.754	-0.961	-0.316	-1.112	0.090	2.287	1.663	-0.842	-1.516	0.068	-0.984	1.620	-0.328	1.549	2.581	1.523	2.242	1.873	2.446	2.530	-0.170	742.188
0.409	-1.426	-2.488	-1.341	-0.835	-1.518	-0.075	-1.673	-0.781	-0.044	-0.702	0.423	2.280	1.419	-0.937	-1.780	-0.218	-1.096	1.464	-0.688	1.215	2.480	1.476	2.358	2.298	2.838	2.860	0.158	746.094
0.523	-1.504	-2.473	-1.427	-0.940	-1.468	-0.245	-1.617	-0.696	0.095	-0.410	0.573	2.139	1.178	-0.933	-1.883	-0.393	-1.162	1.400	-0.903	0.986	2.444	1.510	2.309	2.534	2.965	2.893	0.266	750.000
0.696	-1.441	-2.335	-1.379	-0.921	-1.320	-0.410	-1.567	-0.695	0.109	-0.253	0.537	1.890	0.962	-0.849	-1.837	-0.448	-1.189	1.419	-0.970	0.870	2.467	1.616	2.115	2.579	2.858	2.656	0.165	753.906
0.911	-1.258	-2.109	-1.220	-0.794	-1.095	-0.549	-1.509	-0.762	0.010	-0.232	0.332	1.560	0.785	-0.708	-1.661	-0.383	-1.183	1.505	-0.900	0.860	2.535	1.770	1.798	2.452	2.565	2.188	-0.115	757.812
1.149	-0.980	-1.834	-0.975	-0.583	-0.816	-0.652	-1.435	-0.877	-0.181	-0.332	-0.009	1.177	0.654	-0.532	-1.382	-0.209	-1.145	1.641	-0.712	0.943	2.628	1.946	1.382	2.191	2.147	1.539	-0.528	761.719
1.397	-0.632	-1.543	-0.673	-0.311	-0.510	-0.722	-1.344	-1.023	-0.440	-0.531	-0.441	0.763	0.568	-0.339	-1.031	0.050	-1.081	1.804	-0.433	1.100	2.727	2.112	0.896	1.843	1.668	0.771	-1.026	765.625
1.640	-0.243	-1.265	-0.335	-0.006	-0.205	-0.769	-1.243	-1.183	-0.739	-0.799	-0.918	0.341	0.523	-0.142	-0.637	0.355	-1.000	1.975	-0.093	1.309	2.812	2.244	0.369	1.462	1.187	-0.049	-1.555	769.531
1.862	0.163	-1.015	0.018	0.309	0.075	-0.804	-1.144	-1.344	-1.050	-1.104	-1.391	-0.069	0.512	0.051	-0.231	0.665	-0.914	2.135	0.278	1.548	2.866	2.321	-0.168	1.101	0.750	-0.850	-2.068	773.438
2.049	0.566	-0.802	0.370	0.616	0.310	-0.836	-1.059	-1.495	-1.346	-1.419	-1.824	-0.447	0.530	0.242	0.163	0.934	-0.834	2.271	0.652	1.800	2.879	2.329	-0.685	0.806	0.390	-1.569	-2.532	777.344
2.186	0.949	-0.627	0.711	0.904	0.489	-0.869	-0.998	-1.630	-1.604	-1.721	-2.192	-0.779	0.573	0.434	0.528	1.126	-0.773	2.376	1.012	2.056	2.846	2.262	-1.160	0.613	0.122	-2.158	-2.924	781.250
2.265	1.305	-0.484	1.037	1.167	0.608	-0.904	-0.965	-1.742	-1.814	-1.996	-2.488	-1.058	0.637	0.632	0.857	1.222	-0.736	2.449	1.346	2.311	2.767	2.123	-1.580	0.535	-0.056	-2.594	-3.242	785.156
2.288	1.633	-0.364	1.349	1.408	0.674	-0.942	-0.960	-1.834	-1.973	-2.241	-2.719	-1.288	0.718	0.842	1.151	1.219	-0.725	2.497	1.655	2.564	2.652	1.924	-1.946	0.567	-0.161	-2.887	-3.498	789.062
2.267	1.941	-0.256	1.651	1.634	0.704	-0.981	-0.976	-1.910	-2.092	-2.462	-2.903	-1.482	0.809	1.067	1.421	1.140	-0.735	2.528	1.945	2.817	2.511	1.684	-2.270	0.681	-0.219	-3.071	-3.712	792.969
2.224	2.241	-0.148	1.952	1.854	0.717	-1.022	-1.004	-1.979	-2.191	-2.668	-3.068	-1.661	0.904	1.304	1.682	1.016	-0.757	2.553	2.227	3.071	2.361	1.427	-2.576	0.838	-0.261	-3.204	-3.911	796.875
