FP1	F3	F7	FC3	C3	C5	P3	P7	PO7	PO3	O1	Oz	Pz	CPz	FP2	Fz	F4	F8	FC4	FCz	Cz	C4	C6	P4	P8	PO8	PO4	O2	time
-0.317	0.784	-1.161	0.669	0.388	0.555	-0.055	0.173	-0.233	-0.071	0.169	0.203	-0.187	-0.368	-1.071	0.113	0.242	-0.229	-0.153	0.292	0.334	0.098	-0.199	-0.115	-0.219	-0.650	-0.268	0.197	-199.219
-0.121	0.712	-0.666	0.652	0.561	0.621	0.132	0.024	-0.289	0.065	0.115	0.119	-0.024	-0.262	-0.669	0.242	0.007	-0.261	-0.303	0.385	0.466	-0.137	-0.410	-0.173	-0.322	-0.585	-0.247	0.109	-195.312
0.059	0.642	-0.229	0.634	0.723	0.674	0.307	-0.102	-0.329	0.192	0.072	0.046	0.127	-0.160	-0.326	0.363	-0.204	-0.298	-0.438	0.474	0.585	-0.353	-0.609	-0.221	-0.419	-0.520	-0.213	0.035	-191.406
0.206	0.576	0.109	0.614	0.862	0.701	0.456	-0.189	-0.341	0.299	0.051	-0.006	0.252	-0.068	-0.089	0.472	-0.371	-0.338	-0.542	0.555	0.679	-0.535	-0.779	-0.247	-0.504	-0.452	-0.157	-0.014	-187.500
0.305	0.514	0.320	0.593	0.967	0.693	0.564	-0.230	-0.321	0.376	0.058	-0.030	0.343	0.009	0.030	0.564	-0.480	-0.378	-0.606	0.624	0.741	-0.666	-0.907	-0.249	-0.571	-0.381	-0.075	-0.029	-183.594
0.347	0.453	0.400	0.567	1.028	0.646	0.620	-0.223	-0.269	0.417	0.094	-0.025	0.391	0.063	0.045	0.632	-0.533	-0.409	-0.627	0.674	0.762	-0.739	-0.981	-0.223	-0.613	-0.302	0.036	-0.005	-179.688
0.328	0.387	0.363	0.534	1.038	0.564	0.616	-0.175	-0.190	0.417	0.158	0.008	0.394	0.090	-0.006	0.671	-0.543	-0.422	-0.609	0.700	0.742	-0.750	-0.992	-0.173	-0.626	-0.214	0.168	0.055	-175.781
0.251	0.312	0.238	0.491	0.995	0.452	0.551	-0.101	-0.098	0.378	0.242	0.064	0.355	0.089	-0.074	0.677	-0.525	-0.410	-0.558	0.698	0.683	-0.699	-0.936	-0.105	-0.605	-0.117	0.314	0.149	-171.875
0.127	0.229	0.062	0.439	0.903	0.322	0.429	-0.019	-0.008	0.304	0.337	0.138	0.281	0.061	-0.124	0.651	-0.494	-0.368	-0.484	0.670	0.595	-0.595	-0.815	-0.025	-0.549	-0.009	0.460	0.267	-167.969
-0.029	0.149	-0.125	0.382	0.773	0.185	0.261	0.046	0.060	0.203	0.432	0.222	0.181	0.013	-0.134	0.600	-0.456	-0.297	-0.393	0.624	0.492	-0.450	-0.639	0.057	-0.460	0.104	0.591	0.397	-164.062
-0.193	0.085	-0.288	0.330	0.617	0.054	0.062	0.077	0.088	0.085	0.513	0.305	0.067	-0.048	-0.109	0.533	-0.412	-0.203	-0.290	0.570	0.391	-0.279	-0.423	0.133	-0.342	0.214	0.691	0.522	-160.156
-0.338	0.052	-0.400	0.293	0.455	-0.065	-0.149	0.060	0.063	-0.044	0.566	0.373	-0.049	-0.113	-0.067	0.464	-0.352	-0.098	-0.178	0.521	0.308	-0.099	-0.186	0.192	-0.205	0.308	0.742	0.624	-156.250
-0.435	0.065	-0.445	0.278	0.305	-0.164	-0.355	-0.008	-0.021	-0.176	0.579	0.410	-0.162	-0.173	-0.033	0.401	-0.272	0.004	-0.061	0.486	0.254	0.072	0.050	0.224	-0.063	0.373	0.731	0.680	-152.344
-0.457	0.127	-0.417	0.290	0.181	-0.243	-0.538	-0.118	-0.160	-0.307	0.541	0.403	-0.266	-0.224	-0.025	0.354	-0.171	0.091	0.056	0.471	0.231	0.220	0.264	0.221	0.070	0.395	0.647	0.673	-148.438
-0.391	0.232	-0.322	0.328	0.095	-0.298	-0.686	-0.249	-0.341	-0.434	0.448	0.341	-0.361	-0.263	-0.048	0.322	-0.056	0.151	0.165	0.471	0.236	0.333	0.438	0.179	0.180	0.367	0.492	0.593	-144.531
-0.234	0.361	-0.171	0.385	0.051	-0.328	-0.789	-0.378	-0.539	-0.552	0.304	0.221	-0.446	-0.291	-0.093	0.301	0.055	0.178	0.255	0.477	0.255	0.402	0.560	0.100	0.259	0.290	0.273	0.439	-140.625
-0.005	0.494	0.020	0.452	0.049	-0.329	-0.843	-0.477	-0.728	-0.655	0.121	0.050	-0.523	-0.311	-0.136	0.281	0.142	0.172	0.314	0.476	0.273	0.427	0.622	-0.007	0.299	0.171	0.013	0.224	-136.719
0.260	0.607	0.234	0.516	0.080	-0.300	-0.847	-0.525	-0.878	-0.737	-0.083	-0.154	-0.589	-0.325	-0.151	0.255	0.187	0.138	0.334	0.455	0.275	0.409	0.624	-0.131	0.302	0.029	-0.261	-0.027	-132.812
0.513	0.684	0.451	0.568	0.136	-0.236	-0.803	-0.508	-0.964	-0.788	-0.283	-0.364	-0.642	-0.335	-0.119	0.211	0.177	0.085	0.309	0.403	0.248	0.354	0.573	-0.255	0.271	-0.115	-0.513	-0.282	-128.906
0.703	0.715	0.649	0.601	0.203	-0.139	-0.715	-0.422	-0.969	-0.797	-0.452	-0.548	-0.675	-0.343	-0.032	0.145	0.112	0.024	0.243	0.313	0.184	0.271	0.477	-0.362	0.216	-0.236	-0.711	-0.501	-125.000
0.789	0.698	0.806	0.608	0.266	-0.013	-0.591	-0.275	-0.885	-0.757	-0.565	-0.673	-0.681	-0.348	0.096	0.052	0.001	-0.037	0.142	0.185	0.084	0.171	0.351	-0.437	0.147	-0.314	-0.828	-0.651	-121.094
0.747	0.639	0.902	0.586	0.311	0.131	-0.440	-0.079	-0.718	-0.663	-0.604	-0.711	-0.652	-0.348	0.237	-0.067	-0.139	-0.090	0.020	0.022	-0.047	0.063	0.209	-0.472	0.076	-0.335	-0.847	-0.706	-117.188
0.583	0.541	0.920	0.531	0.327	0.277	-0.270	0.146	-0.479	-0.516	-0.559	-0.647	-0.586	-0.342	0.351	-0.210	-0.291	-0.137	-0.109	-0.167	-0.199	-0.044	0.066	-0.463	0.013	-0.293	-0.765	-0.655	-113.281
0.328	0.408	0.853	0.441	0.306	0.409	-0.092	0.381	-0.190	-0.322	-0.429	-0.480	-0.482	-0.325	0.402	-0.373	-0.436	-0.179	-0.231	-0.372	-0.357	-0.141	-0.068	-0.414	-0.034	-0.194	-0.592	-0.501	-109.375
0.030	0.241	0.702	0.317	0.248	0.510	0.087	0.607	0.127	-0.093	-0.225	-0.222	-0.343	-0.295	0.366	-0.551	-0.565	-0.223	-0.337	-0.578	-0.508	-0.224	-0.183	-0.335	-0.061	-0.050	-0.354	-0.266	-105.469
-0.255	0.041	0.478	0.161	0.160	0.567	0.261	0.811	0.447	0.156	0.035	0.098	-0.179	-0.248	0.236	-0.733	-0.671	-0.271	-0.420	-0.769	-0.635	-0.288	-0.274	-0.236	-0.067	0.118	-0.080	0.019	-101.562
-0.479	-0.186	0.204	-0.016	0.053	0.574	0.424	0.980	0.747	0.410	0.323	0.444	0.001	-0.181	0.029	-0.907	-0.753	-0.325	-0.480	-0.927	-0.726	-0.328	-0.337	-0.130	-0.055	0.286	0.193	0.315	-97.656
-0.614	-0.429	-0.087	-0.200	-0.054	0.532	0.574	1.104	1.004	0.649	0.609	0.777	0.183	-0.094	-0.223	-1.055	-0.809	-0.381	-0.516	-1.037	-0.769	-0.343	-0.372	-0.027	-0.031	0.432	0.431	0.582	-93.750
-0.655	-0.664	-0.360	-0.371	-0.146	0.451	0.705	1.174	1.199	0.857	0.860	1.057	0.354	0.014	-0.476	-1.159	-0.839	-0.428	-0.529	-1.082	-0.760	-0.329	-0.379	0.063	-0.004	0.534	0.609	0.784	-89.844
-0.619	-0.861	-0.575	-0.507	-0.209	0.346	0.814	1.182	1.318	1.016	1.045	1.254	0.504	0.139	-0.686	-1.202	-0.836	-0.456	-0.516	-1.057	-0.698	-0.287	-0.359	0.133	0.018	0.577	0.705	0.895	-85.938
-0.539	-0.991	-0.704	-0.591	-0.235	0.235	0.895	1.122	1.349	1.115	1.142	1.346	0.625	0.274	-0.818	-1.174	-0.795	-0.454	-0.476	-0.960	-0.591	-0.217	-0.315	0.181	0.025	0.550	0.713	0.898	-82.031
-0.449	-1.029	-0.731	-0.613	-0.225	0.137	0.946	0.994	1.290	1.146	1.137	1.324	0.713	0.413	-0.851	-1.071	-0.710	-0.413	-0.405	-0.802	-0.449	-0.120	-0.248	0.205	0.013	0.453	0.636	0.793	-78.125
-0.377	-0.964	-0.658	-0.572	-0.186	0.065	0.965	0.802	1.143	1.107	1.028	1.192	0.770	0.549	-0.787	-0.900	-0.578	-0.332	-0.302	-0.600	-0.286	-0.003	-0.164	0.210	-0.020	0.294	0.489	0.591	-74.219
-0.337	-0.802	-0.504	-0.479	-0.129	0.026	0.952	0.556	0.922	1.005	0.825	0.964	0.799	0.675	-0.645	-0.679	-0.400	-0.216	-0.166	-0.378	-0.117	0.130	-0.066	0.205	-0.069	0.088	0.296	0.315	-70.312
-0.327	-0.570	-0.297	-0.354	-0.067	0.019	0.912	0.277	0.646	0.849	0.549	0.664	0.808	0.788	-0.461	-0.428	-0.184	-0.076	-0.004	-0.158	0.045	0.268	0.040	0.200	-0.125	-0.140	0.086	-0.005	-66.406
-0.334	-0.305	-0.072	-0.222	-0.015	0.034	0.849	-0.012	0.339	0.654	0.226	0.322	0.802	0.882	-0.273	-0.171	0.061	0.073	0.176	0.039	0.189	0.404	0.146	0.204	-0.177	-0.363	-0.110	-0.332	-62.500
-0.335	-0.053	0.137	-0.108	0.016	0.053	0.766	-0.287	0.030	0.436	-0.111	-0.029	0.787	0.954	-0.113	0.070	0.318	0.215	0.358	0.200	0.309	0.525	0.245	0.226	-0.213	-0.552	-0.268	-0.630	-58.594
-0.310	0.142	0.300	-0.036	0.018	0.060	0.666	-0.523	-0.253	0.214	-0.432	-0.359	0.762	0.999	-0.000	0.275	0.567	0.335	0.526	0.317	0.399	0.620	0.331	0.268	-0.221	-0.682	-0.368	-0.870	-54.688
-0.244	0.248	0.394	-0.019	-0.015	0.037	0.550	-0.702	-0.486	0.003	-0.710	-0.640	0.726	1.012	0.065	0.432	0.787	0.426	0.663	0.390	0.457	0.682	0.398	0.327	-0.196	-0.735	-0.404	-1.027	-50.781
-0.133	0.252	0.407	-0.063	-0.086	-0.025	0.415	-0.817	-0.651	-0.186	-0.927	-0.853	0.671	0.984	0.094	0.533	0.961	0.485	0.756	0.420	0.479	0.703	0.443	0.394	-0.133	-0.705	-0.379	-1.090	-46.875
0.014	0.162	0.337	-0.162	-0.194	-0.130	0.256	-0.867	-0.739	-0.344	-1.071	-0.988	0.590	0.909	0.108	0.576	1.078	0.515	0.799	0.410	0.462	0.682	0.468	0.457	-0.035	-0.593	-0.307	-1.058	-42.969
0.178	0.001	0.197	-0.301	-0.336	-0.272	0.072	-0.860	-0.752	-0.468	-1.143	-1.044	0.473	0.782	0.129	0.566	1.138	0.526	0.796	0.362	0.402	0.622	0.478	0.499	0.090	-0.416	-0.207	-0.941	-39.062
0.334	-0.191	0.013	-0.458	-0.505	-0.437	-0.138	-0.807	-0.695	-0.558	-1.146	-1.028	0.314	0.600	0.174	0.509	1.148	0.526	0.756	0.280	0.295	0.530	0.476	0.507	0.232	-0.197	-0.104	-0.760	-35.156
0.456	-0.375	-0.182	-0.614	-0.692	-0.609	-0.369	-0.721	-0.578	-0.617	-1.087	-0.953	0.114	0.367	0.253	0.417	1.119	0.522	0.692	0.163	0.140	0.414	0.469	0.471	0.374	0.033	-0.022	-0.540	-31.250
0.525	-0.519	-0.348	-0.751	-0.885	-0.769	-0.609	-0.607	-0.408	-0.644	-0.976	-0.834	-0.122	0.095	0.362	0.298	1.061	0.517	0.613	0.016	-0.059	0.283	0.458	0.387	0.501	0.243	0.022	-0.312	-27.344
0.533	-0.604	-0.454	-0.857	-1.068	-0.900	-0.836	-0.470	-0.192	-0.637	-0.817	-0.681	-0.377	-0.200	0.491	0.162	0.978	0.506	0.526	-0.158	-0.296	0.142	0.441	0.257	0.597	0.407	0.020	-0.101	-23.438
0.483	-0.627	-0.478	-0.929	-1.228	-0.990	-1.025	-0.307	0.067	-0.588	-0.613	-0.506	-0.627	-0.493	0.614	0.015	0.864	0.479	0.429	-0.355	-0.557	-0.002	0.411	0.095	0.651	0.510	-0.026	0.074	-19.531
0.388	-0.604	-0.414	-0.971	-1.350	-1.028	-1.151	-0.114	0.367	-0.488	-0.365	-0.313	-0.846	-0.761	0.703	-0.140	0.712	0.423	0.318	-0.567	-0.826	-0.146	0.363	-0.082	0.660	0.548	-0.103	0.204	-15.625
0.266	-0.560	-0.276	-0.995	-1.425	-1.014	-1.190	0.111	0.704	-0.331	-0.076	-0.105	-1.005	-0.981	0.728	-0.302	0.512	0.327	0.186	-0.788	-1.086	-0.287	0.290	-0.249	0.627	0.530	-0.189	0.292	-11.719
0.138	-0.525	-0.092	-1.011	-1.450	-0.950	-1.129	0.366	1.067	-0.115	0.246	0.115	-1.084	-1.139	0.668	-0.470	0.263	0.186	0.030	-1.009	-1.318	-0.418	0.192	-0.384	0.565	0.475	-0.261	0.348	-7.812
0.017	-0.524	0.100	-1.030	-1.426	-0.844	-0.970	0.640	1.437	0.152	0.588	0.344	-1.069	-1.226	0.511	-0.642	-0.025	0.005	-0.144	-1.222	-1.507	-0.532	0.075	-0.467	0.489	0.407	-0.296	0.388	-3.906
-0.086	-0.572	0.261	-1.058	-1.358	-0.707	-0.723	0.919	1.792	0.453	0.927	0.574	-0.963	-1.243	0.265	-0.813	-0.331	-0.201	-0.326	-1.416	-1.645	-0.623	-0.053	-0.487	0.416	0.347	-0.281	0.429	0.000
-0.170	-0.666	0.361	-1.094	-1.255	-0.550	-0.414	1.181	2.103	0.765	1.239	0.792	-0.781	-1.200	-0.051	-0.974	-0.625	-0.413	-0.498	-1.586	-1.729	-0.684	-0.176	-0.442	0.359	0.312	-0.213	0.482	3.906
-0.237	-0.793	0.383	-1.132	-1.130	-0.387	-0.075	1.406	2.347	1.058	1.497	0.985	-0.550	-1.114	-0.402	-1.116	-0.876	-0.606	-0.643	-1.725	-1.762	-0.711	-0.284	-0.344	0.326	0.306	-0.102	0.552	7.812
-0.293	-0.926	0.330	-1.164	-0.993	-0.229	0.261	1.576	2.503	1.306	1.679	1.137	-0.300	-1.006	-0.750	-1.231	-1.059	-0.761	-0.746	-1.829	-1.754	-0.705	-0.367	-0.213	0.320	0.327	0.033	0.635	11.719
-0.346	-1.038	0.223	-1.180	-0.857	-0.087	0.561	1.680	2.564	1.487	1.770	1.238	-0.065	-0.895	-1.055	-1.310	-1.160	-0.863	-0.800	-1.900	-1.718	-0.673	-0.420	-0.072	0.334	0.366	0.169	0.724	15.625
-0.397	-1.104	0.092	-1.172	-0.732	0.030	0.800	1.714	2.532	1.590	1.767	1.280	0.128	-0.799	-1.286	-1.350	-1.177	-0.909	-0.804	-1.938	-1.668	-0.622	-0.445	0.053	0.359	0.409	0.283	0.806	19.531
-0.445	-1.111	-0.026	-1.138	-0.626	0.115	0.963	1.683	2.421	1.614	1.679	1.265	0.261	-0.732	-1.426	-1.352	-1.121	-0.904	-0.762	-1.947	-1.613	-0.564	-0.449	0.142	0.383	0.443	0.358	0.870	23.438
-0.487	-1.056	-0.102	-1.078	-0.545	0.165	1.045	1.597	2.255	1.567	1.524	1.201	0.330	-0.697	-1.473	-1.318	-1.010	-0.858	-0.686	-1.928	-1.563	-0.508	-0.441	0.185	0.392	0.458	0.386	0.907	27.344
-0.516	-0.951	-0.122	-0.995	-0.487	0.180	1.053	1.474	2.062	1.467	1.330	1.106	0.338	-0.692	-1.441	-1.253	-0.868	-0.788	-0.587	-1.884	-1.520	-0.462	-0.430	0.181	0.375	0.451	0.372	0.914	31.250
-0.530	-0.812	-0.086	-0.897	-0.451	0.164	1.002	1.331	1.871	1.337	1.125	0.998	0.301	-0.709	-1.352	-1.165	-0.714	-0.710	-0.477	-1.819	-1.483	-0.431	-0.426	0.137	0.327	0.424	0.327	0.896	35.156
-0.533	-0.662	-0.007	-0.791	-0.432	0.125	0.915	1.187	1.707	1.201	0.939	0.898	0.237	-0.736	-1.231	-1.060	-0.567	-0.633	-0.368	-1.735	-1.452	-0.414	-0.435	0.071	0.247	0.384	0.271	0.862	39.062
-0.533	-0.519	0.091	-0.685	-0.422	0.073	0.816	1.057	1.589	1.083	0.792	0.818	0.168	-0.762	-1.096	-0.945	-0.440	-0.566	-0.268	-1.639	-1.423	-0.411	-0.459	0.001	0.139	0.342	0.224	0.822	42.969
-0.542	-0.396	0.190	-0.584	-0.416	0.019	0.728	0.954	1.522	1.000	0.693	0.757	0.109	-0.777	-0.956	-0.827	-0.342	-0.508	-0.186	-1.534	-1.396	-0.418	-0.496	-0.053	0.012	0.307	0.205	0.787	46.875
-0.564	-0.299	0.275	-0.492	-0.406	-0.025	0.672	0.885	1.506	0.965	0.639	0.700	0.073	-0.773	-0.814	-0.709	-0.280	-0.459	-0.125	-1.426	-1.367	-0.431	-0.541	-0.081	-0.123	0.283	0.220	0.757	50.781
-0.595	-0.226	0.343	-0.410	-0.387	-0.051	0.663	0.853	1.534	0.984	0.616	0.620	0.065	-0.747	-0.669	-0.595	-0.257	-0.418	-0.089	-1.320	-1.338	-0.448	-0.589	-0.075	-0.259	0.269	0.270	0.730	54.688
-0.622	-0.172	0.398	-0.338	-0.358	-0.051	0.706	0.863	1.598	1.057	0.603	0.481	0.084	-0.700	-0.524	-0.487	-0.275	-0.386	-0.080	-1.221	-1.308	-0.469	-0.635	-0.041	-0.391	0.259	0.343	0.692	58.594
-0.623	-0.131	0.450	-0.275	-0.319	-0.024	0.804	0.921	1.699	1.181	0.586	0.251	0.120	-0.639	-0.389	-0.387	-0.333	-0.369	-0.100	-1.132	-1.280	-0.498	-0.677	0.012	-0.516	0.247	0.424	0.630	62.500
-0.581	-0.102	0.508	-0.225	-0.274	0.029	0.947	1.039	1.849	1.350	0.556	-0.090	0.162	-0.576	-0.284	-0.300	-0.428	-0.377	-0.151	-1.064	-1.263	-0.540	-0.718	0.069	-0.628	0.234	0.498	0.535	66.406
-0.489	-0.089	0.573	-0.195	-0.236	0.097	1.124	1.237	2.069	1.561	0.520	-0.539	0.194	-0.530	-0.235	-0.238	-0.553	-0.421	-0.235	-1.032	-1.269	-0.602	-0.762	0.119	-0.718	0.229	0.558	0.410	70.312
-0.361	-0.103	0.635	-0.201	-0.221	0.166	1.316	1.536	2.394	1.809	0.498	-1.071	0.199	-0.521	-0.265	-0.219	-0.704	-0.510	-0.357	-1.055	-1.318	-0.694	-0.817	0.157	-0.764	0.260	0.611	0.271	74.219
-0.236	-0.159	0.674	-0.262	-0.251	0.218	1.505	1.959	2.856	2.092	0.522	-1.632	0.166	-0.572	-0.393	-0.265	-0.877	-0.649	-0.523	-1.160	-1.433	-0.823	-0.890	0.185	-0.730	0.371	0.678	0.154	78.125
-0.168	-0.278	0.660	-0.399	-0.352	0.232	1.676	2.521	3.485	2.408	0.625	-2.154	0.089	-0.705	-0.624	-0.402	-1.074	-0.835	-0.741	-1.374	-1.637	-0.995	-0.987	0.220	-0.573	0.615	0.792	0.101	82.031
-0.219	-0.478	0.560	-0.631	-0.543	0.186	1.818	3.222	4.292	2.759	0.838	-2.560	-0.029	-0.929	-0.948	-0.653	-1.302	-1.058	-1.015	-1.717	-1.947	-1.212	-1.107	0.284	-0.249	1.046	0.995	0.164	85.938
-0.444	-0.772	0.344	-0.972	-0.838	0.064	1.933	4.042	5.262	3.146	1.183	-2.775	-0.169	-1.243	-1.340	-1.032	-1.572	-1.303	-1.350	-2.199	-2.368	-1.468	-1.246	0.407	0.278	1.704	1.329	0.386	89.844
-0.875	-1.167	-0.004	-1.423	-1.237	-0.143	2.030	4.936	6.353	3.574	1.666	-2.742	-0.302	-1.628	-1.771	-1.539	-1.896	-1.552	-1.741	-2.815	-2.891	-1.755	-1.398	0.616	1.016	2.602	1.828	0.797	93.750
-1.507	-1.663	-0.485	-1.975	-1.726	-0.437	2.128	5.835	7.490	4.046	2.278	-2.424	-0.387	-2.049	-2.208	-2.157	-2.283	-1.788	-2.176	-3.536	-3.484	-2.054	-1.554	0.930	1.938	3.716	2.507	1.407	97.656
-2.294	-2.245	-1.079	-2.600	-2.272	-0.808	2.251	6.650	8.578	4.561	2.992	-1.821	-0.382	-2.456	-2.619	-2.848	-2.732	-1.996	-2.636	-4.314	-4.096	-2.344	-1.706	1.355	2.974	4.977	3.359	2.197	101.562
-3.151	-2.884	-1.743	-3.256	-2.828	-1.232	2.416	7.279	9.502	5.110	3.763	-0.966	-0.244	-2.789	-2.982	-3.558	-3.227	-2.164	-3.088	-5.079	-4.662	-2.600	-1.849	1.876	4.016	6.277	4.343	3.119	105.469
-3.969	-3.534	-2.417	-3.883	-3.331	-1.677	2.635	7.622	10.146	5.667	4.529	0.069	0.053	-2.987	-3.284	-4.215	-3.732	-2.285	-3.493	-5.749	-5.105	-2.794	-1.980	2.459	4.927	7.475	5.391	4.092	109.375
-4.629	-4.133	-3.026	-4.412	-3.716	-2.096	2.903	7.592	10.401	6.190	5.210	1.182	0.518	-2.995	-3.512	-4.742	-4.192	-2.350	-3.804	-6.234	-5.349	-2.898	-2.096	3.054	5.563	8.415	6.408	5.015	113.281
-5.027	-4.604	-3.495	-4.768	-3.917	-2.441	3.199	7.134	10.184	6.621	5.722	2.247	1.133	-2.777	-3.657	-5.058	-4.533	-2.352	-3.969	-6.449	-5.330	-2.886	-2.194	3.597	5.791	8.947	7.280	5.772	117.188
-5.092	-4.865	-3.758	-4.881	-3.884	-2.659	3.485	6.232	9.450	6.892	5.978	3.129	1.854	-2.320	-3.705	-5.096	-4.679	-2.279	-3.943	-6.330	-5.008	-2.743	-2.264	4.019	5.520	8.952	7.891	6.251	121.094
-4.795	-4.843	-3.767	-4.700	-3.590	-2.710	3.715	4.922	8.207	6.936	5.911	3.707	2.611	-1.643	-3.631	-4.809	-4.565	-2.118	-3.692	-5.839	-4.377	-2.461	-2.296	4.257	4.713	8.359	8.142	6.357	125.000
-4.161	-4.492	-3.507	-4.205	-3.039	-2.568	3.841	3.290	6.520	6.701	5.479	3.889	3.319	-0.798	-3.408	-4.185	-4.151	-1.859	-3.206	-4.986	-3.468	-2.050	-2.277	4.261	3.402	7.167	7.962	6.033	128.906
-3.257	-3.802	-2.992	-3.412	-2.272	-2.235	3.822	1.469	4.513	6.163	4.688	3.634	3.888	0.134	-3.009	-3.253	-3.433	-1.499	-2.502	-3.823	-2.355	-1.536	-2.194	4.005	1.689	5.445	7.328	5.270	132.812
-2.189	-2.811	-2.269	-2.383	-1.362	-1.738	3.634	-0.378	2.357	5.339	3.591	2.958	4.235	1.052	-2.422	-2.079	-2.449	-1.046	-1.627	-2.446	-1.144	-0.960	-2.041	3.491	-0.270	3.336	6.269	4.120	136.719
-1.076	-1.604	-1.411	-1.214	-0.407	-1.133	3.275	-2.077	0.257	4.287	2.290	1.939	4.300	1.850	-1.657	-0.767	-1.278	-0.522	-0.653	-0.986	0.044	-0.376	-1.821	2.751	-2.280	1.033	4.871	2.685	140.625
-0.037	-0.305	-0.502	-0.027	0.485	-0.492	2.767	-3.463	-1.580	3.103	0.923	0.700	4.055	2.434	-0.759	0.560	-0.027	0.035	0.330	0.412	1.081	0.161	-1.547	1.846	-4.139	-1.239	3.259	1.111	144.531
0.833	0.941	0.370	1.045	1.213	0.105	2.152	-4.408	-2.971	1.903	-0.357	-0.602	3.510	2.733	0.203	1.769	1.181	0.574	1.225	1.609	1.861	0.595	-1.241	0.857	-5.663	-3.258	1.588	-0.437	148.438
1.471	1.990	1.128	1.883	1.696	0.587	1.488	-4.833	-3.782	0.812	-1.405	-1.810	2.708	2.715	1.140	2.741	2.228	1.041	1.945	2.489	2.307	0.884	-0.935	-0.127	-6.712	-4.835	0.018	-1.800	152.344
1.857	2.724	1.714	2.401	1.888	0.902	0.840	-4.721	-3.949	-0.063	-2.109	-2.791	1.724	2.384	1.961	3.385	3.010	1.388	2.420	2.979	2.386	1.001	-0.662	-1.019	-7.207	-5.838	-1.313	-2.846	156.250
2.007	3.068	2.093	2.553	1.783	1.026	0.269	-4.111	-3.483	-0.642	-2.406	-3.450	0.650	1.787	2.589	3.650	3.459	1.575	2.611	3.053	2.109	0.937	-0.451	-1.748	-7.135	-6.209	-2.298	-3.493	160.156
1.963	3.004	2.252	2.351	1.418	0.967	-0.172	-3.096	-2.466	-0.885	-2.290	-3.750	-0.417	0.995	2.969	3.531	3.544	1.586	2.511	2.735	1.527	0.703	-0.329	-2.265	-6.549	-5.963	-2.882	-3.712	164.062
1.781	2.574	2.200	1.851	0.860	0.764	-0.448	-1.800	-1.034	-0.795	-1.808	-3.705	-1.388	0.098	3.080	3.067	3.283	1.422	2.148	2.093	0.724	0.330	-0.308	-2.550	-5.551	-5.185	-3.059	-3.530	167.969
1.515	1.869	1.963	1.151	0.197	0.471	-0.543	-0.364	0.641	-0.414	-1.051	-3.376	-2.190	-0.810	2.928	2.338	2.731	1.111	1.581	1.225	-0.200	-0.140	-0.390	-2.611	-4.276	-4.010	-2.871	-3.021	171.875
1.208	1.014	1.584	0.366	-0.478	0.155	-0.466	1.073	2.380	0.187	-0.140	-2.858	-2.782	-1.648	2.549	1.444	1.980	0.692	0.889	0.244	-1.143	-0.654	-0.561	-2.476	-2.873	-2.602	-2.395	-2.291	175.781
0.889	0.142	1.120	-0.390	-1.084	-0.125	-0.241	2.393	4.017	0.917	0.800	-2.258	-3.147	-2.351	1.999	0.498	1.136	0.220	0.161	-0.739	-2.016	-1.158	-0.800	-2.190	-1.482	-1.127	-1.732	-1.459	179.688
0.577	-0.631	0.635	-1.024	-1.564	-0.325	0.089	3.505	5.419	1.683	1.651	-1.683	-3.301	-2.884	1.345	-0.396	0.307	-0.254	-0.520	-1.633	-2.751	-1.600	-1.075	-1.805	-0.223	0.264	-0.987	-0.640	183.594
0.280	-1.218	0.197	-1.476	-1.891	-0.422	0.478	4.357	6.500	2.399	2.323	-1.220	-3.283	-3.235	0.662	-1.157	-0.415	-0.681	-1.085	-2.373	-3.310	-1.943	-1.353	-1.373	0.818	1.460	-0.257	0.069	187.500
0.009	-1.578	-0.134	-1.728	-2.070	-0.417	0.874	4.937	7.225	2.999	2.764	-0.927	-3.144	-3.417	0.016	-1.736	-0.969	-1.030	-1.493	-2.929	-3.686	-2.166	-1.604	-0.939	1.595	2.388	0.379	0.603	191.406
-0.228	-1.715	-0.317	-1.796	-2.126	-0.327	1.235	5.267	7.609	3.442	2.957	-0.832	-2.943	-3.463	-0.535	-2.117	-1.326	-1.282	-1.729	-3.302	-3.894	-2.268	-1.806	-0.540	2.095	3.023	0.870	0.930	195.312
-0.420	-1.669	-0.334	-1.727	-2.103	-0.183	1.529	5.397	7.705	3.714	2.924	-0.927	-2.737	-3.411	-0.951	-2.317	-1.488	-1.435	-1.805	-3.520	-3.971	-2.263	-1.945	-0.201	2.343	3.379	1.191	1.051	199.219
-0.555	-1.502	-0.196	-1.578	-2.044	-0.018	1.738	5.394	7.589	3.823	2.714	-1.181	-2.570	-3.307	-1.211	-2.379	-1.487	-1.499	-1.755	-3.624	-3.960	-2.179	-2.016	0.067	2.385	3.500	1.345	0.995	203.125
-0.629	-1.283	0.060	-1.408	-1.989	0.140	1.861	5.329	7.349	3.796	2.390	-1.545	-2.471	-3.188	-1.312	-2.356	-1.369	-1.491	-1.623	-3.663	-3.905	-2.052	-2.026	0.260	2.281	3.447	1.356	0.810	207.031
-0.642	-1.076	0.376	-1.271	-1.966	0.268	1.907	5.267	7.067	3.672	2.020	-1.961	-2.450	-3.082	-1.270	-2.307	-1.189	-1.435	-1.456	-3.682	-3.845	-1.915	-1.985	0.387	2.097	3.287	1.263	0.553	210.938
-0.604	-0.931	0.691	-1.202	-1.985	0.357	1.896	5.256	6.811	3.492	1.664	-2.371	-2.500	-3.006	-1.116	-2.282	-1.001	-1.354	-1.298	-3.716	-3.806	-1.796	-1.909	0.461	1.893	3.088	1.115	0.284	214.844
-0.530	-0.880	0.947	-1.221	-2.048	0.406	1.856	5.325	6.626	3.299	1.370	-2.725	-2.598	-2.961	-0.896	-2.317	-0.853	-1.269	-1.181	-3.787	-3.801	-1.713	-1.815	0.503	1.719	2.907	0.960	0.054	218.750
-0.440	-0.937	1.102	-1.332	-2.142	0.421	1.812	5.483	6.536	3.127	1.165	-2.987	-2.709	-2.939	-0.661	-2.433	-0.777	-1.202	-1.125	-3.901	-3.830	-1.671	-1.716	0.535	1.611	2.789	0.844	-0.096	222.656
-0.357	-1.099	1.134	-1.525	-2.250	0.410	1.790	5.719	6.545	3.004	1.061	-3.137	-2.796	-2.923	-0.465	-2.632	-0.790	-1.165	-1.138	-4.054	-3.881	-1.665	-1.623	0.580	1.588	2.760	0.805	-0.144	226.562
-0.304	-1.351	1.042	-1.782	-2.356	0.383	1.810	6.012	6.644	2.949	1.054	-3.167	-2.823	-2.892	-0.351	-2.899	-0.897	-1.168	-1.215	-4.229	-3.939	-1.683	-1.544	0.657	1.654	2.834	0.866	-0.082	230.469
-0.304	-1.669	0.841	-2.079	-2.444	0.344	1.883	6.334	6.816	2.971	1.130	-3.085	-2.761	-2.828	-0.354	-3.211	-1.087	-1.213	-1.345	-4.408	-3.984	-1.710	-1.483	0.781	1.796	3.005	1.037	0.082	234.375
-0.375	-2.025	0.555	-2.393	-2.506	0.296	2.019	6.659	7.040	3.075	1.271	-2.907	-2.592	-2.717	-0.490	-3.539	-1.341	-1.299	-1.513	-4.570	-3.999	-1.730	-1.442	0.960	1.996	3.260	1.316	0.332	238.281
-0.527	-2.390	0.216	-2.701	-2.537	0.235	2.216	6.966	7.299	3.262	1.459	-2.655	-2.311	-2.554	-0.760	-3.856	-1.636	-1.418	-1.704	-4.700	-3.973	-1.736	-1.420	1.198	2.230	3.576	1.687	0.643	242.188
-0.756	-2.737	-0.149	-2.986	-2.537	0.160	2.473	7.241	7.577	3.526	1.677	-2.357	-1.928	-2.342	-1.151	-4.143	-1.948	-1.563	-1.905	-4.789	-3.901	-1.722	-1.416	1.490	2.475	3.927	2.128	0.992	246.094
-1.050	-3.045	-0.516	-3.234	-2.509	0.069	2.780	7.482	7.863	3.858	1.911	-2.038	-1.464	-2.089	-1.641	-4.389	-2.259	-1.726	-2.108	-4.838	-3.784	-1.692	-1.428	1.826	2.713	4.291	2.614	1.353	250.000
-1.382	-3.304	-0.868	-3.436	-2.456	-0.034	3.126	7.692	8.154	4.244	2.151	-1.724	-0.946	-1.811	-2.197	-4.595	-2.558	-1.897	-2.307	-4.851	-3.631	-1.650	-1.454	2.193	2.935	4.648	3.116	1.706	253.906
-1.724	-3.510	-1.199	-3.587	-2.381	-0.142	3.497	7.883	8.444	4.669	2.388	-1.436	-0.409	-1.523	-2.782	-4.764	-2.842	-2.069	-2.500	-4.840	-3.451	-1.604	-1.487	2.574	3.137	4.987	3.612	2.037	257.812
-2.046	-3.669	-1.506	-3.688	-2.290	-0.244	3.877	8.065	8.732	5.113	2.615	-1.189	0.115	-1.241	-3.355	-4.906	-3.114	-2.236	-2.681	-4.813	-3.255	-1.560	-1.524	2.954	3.322	5.299	4.083	2.337	261.719
-2.326	-3.789	-1.793	-3.742	-2.186	-0.331	4.248	8.245	9.015	5.555	2.826	-0.990	0.596	-0.974	-3.880	-5.027	-3.381	-2.390	-2.848	-4.775	-3.052	-1.520	-1.560	3.316	3.494	5.581	4.512	2.600	265.625
-2.552	-3.881	-2.064	-3.754	-2.075	-0.398	4.591	8.424	9.286	5.973	3.017	-0.842	1.008	-0.731	-4.324	-5.128	-3.645	-2.524	-2.991	-4.726	-2.851	-1.482	-1.590	3.646	3.657	5.831	4.890	2.824	269.531
-2.721	-3.950	-2.325	-3.732	-1.965	-0.443	4.886	8.592	9.533	6.343	3.182	-0.738	1.335	-0.512	-4.663	-5.203	-3.904	-2.632	-3.102	-4.658	-2.654	-1.442	-1.612	3.936	3.813	6.050	5.210	3.011	273.438
-2.840	-3.998	-2.577	-3.683	-1.861	-0.475	5.115	8.731	9.741	6.642	3.315	-0.671	1.569	-0.318	-4.887	-5.243	-4.148	-2.705	-3.168	-4.558	-2.463	-1.390	-1.625	4.179	3.962	6.237	5.468	3.161	277.344
-2.921	-4.022	-2.822	-3.616	-1.772	-0.508	5.262	8.818	9.889	6.853	3.410	-0.628	1.708	-0.143	-4.998	-5.233	-4.357	-2.740	-3.176	-4.414	-2.274	-1.317	-1.627	4.375	4.102	6.392	5.663	3.278	281.250
-2.980	-4.017	-3.059	-3.537	-1.702	-0.557	5.318	8.828	9.961	6.961	3.463	-0.597	1.762	0.016	-5.017	-5.164	-4.506	-2.731	-3.115	-4.213	-2.080	-1.214	-1.618	4.528	4.228	6.518	5.802	3.368	285.156
-3.028	-3.979	-3.285	-3.452	-1.652	-0.638	5.282	8.740	9.940	6.964	3.471	-0.569	1.748	0.166	-4.973	-5.026	-4.571	-2.680	-2.976	-3.948	-1.875	-1.077	-1.598	4.644	4.337	6.615	5.891	3.435	289.062
-3.078	-3.903	-3.495	-3.360	-1.618	-0.756	5.163	8.543	9.819	6.867	3.435	-0.538	1.691	0.315	-4.907	-4.821	-4.529	-2.588	-2.757	-3.618	-1.647	-0.903	-1.565	4.732	4.422	6.686	5.943	3.486	292.969
-3.134	-3.791	-3.683	-3.261	-1.590	-0.908	4.981	8.238	9.596	6.689	3.355	-0.502	1.621	0.471	-4.860	-4.554	-4.370	-2.463	-2.461	-3.226	-1.389	-0.693	-1.517	4.800	4.476	6.731	5.970	3.525	296.875
-3.201	-3.643	-3.841	-3.148	-1.554	-1.082	4.763	7.836	9.274	6.450	3.232	-0.465	1.567	0.642	-4.864	-4.236	-4.094	-2.314	-2.099	-2.781	-1.094	-0.452	-1.454	4.857	4.495	6.750	5.984	3.554	300.781
-3.278	-3.468	-3.964	-3.015	-1.497	-1.260	4.539	7.359	8.867	6.180	3.069	-0.437	1.559	0.837	-4.939	-3.881	-3.720	-2.148	-1.689	-2.296	-0.759	-0.186	-1.373	4.910	4.471	6.742	5.996	3.574	304.688
-3.366	-3.273	-4.051	-2.857	-1.404	-1.421	4.341	6.837	8.390	5.903	2.868	-0.429	1.617	1.063	-5.084	-3.504	-3.278	-1.976	-1.252	-1.785	-0.383	0.097	-1.273	4.967	4.403	6.704	6.013	3.584	308.594
-3.464	-3.069	-4.105	-2.672	-1.267	-1.545	4.195	6.303	7.864	5.643	2.629	-0.450	1.759	1.325	-5.282	-3.120	-2.807	-1.803	-0.815	-1.263	0.028	0.388	-1.152	5.033	4.288	6.634	6.039	3.578	312.500
-3.571	-2.866	-4.134	-2.460	-1.081	-1.617	4.121	5.791	7.312	5.418	2.357	-0.513	1.990	1.626	-5.499	-2.740	-2.349	-1.633	-0.400	-0.741	0.466	0.679	-1.012	5.111	4.128	6.526	6.072	3.549	316.406
-3.685	-2.669	-4.150	-2.224	-0.845	-1.628	4.128	5.328	6.757	5.238	2.056	-0.624	2.307	1.969	-5.697	-2.372	-1.941	-1.468	-0.029	-0.231	0.925	0.961	-0.857	5.199	3.923	6.372	6.105	3.488	320.312
-3.800	-2.481	-4.163	-1.968	-0.561	-1.574	4.218	4.937	6.225	5.107	1.734	-0.788	2.698	2.352	-5.843	-2.021	-1.608	-1.309	0.285	0.261	1.395	1.226	-0.695	5.292	3.672	6.161	6.124	3.382	324.219
-3.909	-2.298	-4.179	-1.692	-0.232	-1.458	4.383	4.629	5.738	5.021	1.400	-1.006	3.145	2.769	-5.915	-1.684	-1.362	-1.159	0.538	0.735	1.871	1.466	-0.537	5.378	3.373	5.880	6.113	3.218	328.125
-4.005	-2.108	-4.199	-1.397	0.137	-1.284	4.608	4.405	5.314	4.972	1.066	-1.274	3.622	3.213	-5.908	-1.359	-1.198	-1.021	0.734	1.191	2.347	1.677	-0.397	5.446	3.027	5.521	6.054	2.987	332.031
-4.080	-1.902	-4.220	-1.081	0.540	-1.064	4.873	4.258	4.962	4.945	0.743	-1.581	4.099	3.671	-5.835	-1.038	-1.097	-0.899	0.885	1.632	2.819	1.855	-0.289	5.480	2.636	5.079	5.933	2.684	335.938
-4.126	-1.668	-4.235	-0.745	0.967	-0.808	5.154	4.173	4.685	4.926	0.439	-1.917	4.547	4.125	-5.717	-0.714	-1.030	-0.795	1.010	2.062	3.281	2.002	-0.224	5.473	2.210	4.564	5.740	2.313	339.844
-4.141	-1.403	-4.241	-0.391	1.406	-0.530	5.426	4.131	4.474	4.899	0.157	-2.265	4.936	4.555	-5.583	-0.382	-0.965	-0.710	1.128	2.481	3.724	2.122	-0.204	5.423	1.765	3.996	5.477	1.889	343.750
-4.126	-1.109	-4.240	-0.027	1.842	-0.243	5.667	4.114	4.315	4.849	-0.105	-2.612	5.246	4.942	-5.459	-0.040	-0.870	-0.639	1.260	2.888	4.142	2.224	-0.225	5.332	1.325	3.408	5.154	1.431	347.656
-4.086	-0.798	-4.237	0.336	2.261	0.040	5.862	4.107	4.188	4.766	-0.354	-2.948	5.460	5.270	-5.360	0.314	-0.725	-0.575	1.420	3.281	4.527	2.319	-0.274	5.214	0.916	2.837	4.789	0.963	351.562
-4.029	-0.485	-4.239	0.686	2.647	0.312	6.000	4.101	4.072	4.646	-0.603	-3.270	5.576	5.529	-5.291	0.673	-0.515	-0.509	1.617	3.655	4.871	2.420	-0.329	5.083	0.564	2.318	4.401	0.504	355.469
-3.965	-0.190	-4.251	1.006	2.992	0.568	6.082	4.091	3.953	4.490	-0.860	-3.581	5.596	5.715	-5.247	1.030	-0.245	-0.432	1.850	4.001	5.168	2.535	-0.367	4.955	0.287	1.880	4.015	0.073	359.375
-3.904	0.068	-4.274	1.283	3.289	0.803	6.112	4.079	3.822	4.306	-1.135	-3.888	5.535	5.832	-5.216	1.373	0.074	-0.336	2.110	4.310	5.413	2.669	-0.368	4.846	0.099	1.546	3.652	-0.320	363.281
-3.852	0.274	-4.303	1.504	3.535	1.016	6.101	4.066	3.682	4.105	-1.426	-4.197	5.412	5.887	-5.184	1.685	0.414	-0.221	2.377	4.571	5.601	2.821	-0.317	4.766	0.005	1.325	3.333	-0.666	367.188
-3.813	0.418	-4.330	1.661	3.727	1.198	6.061	4.056	3.544	3.902	-1.724	-4.514	5.249	5.889	-5.136	1.950	0.741	-0.091	2.629	4.772	5.730	2.982	-0.210	4.723	0.003	1.221	3.076	-0.961	371.094
-3.786	0.497	-4.349	1.749	3.866	1.343	6.002	4.050	3.424	3.711	-2.012	-4.836	5.066	5.848	-5.063	2.151	1.017	0.045	2.837	4.900	5.794	3.137	-0.052	4.719	0.089	1.230	2.897	-1.198	375.000
-3.765	0.514	-4.355	1.766	3.949	1.440	5.933	4.046	3.337	3.546	-2.269	-5.154	4.882	5.768	-4.959	2.272	1.208	0.173	2.977	4.946	5.790	3.268	0.142	4.753	0.253	1.344	2.804	-1.371	378.906
-3.739	0.474	-4.347	1.716	3.974	1.480	5.854	4.039	3.298	3.412	-2.476	-5.449	4.708	5.655	-4.825	2.304	1.283	0.282	3.030	4.904	5.716	3.359	0.352	4.820	0.485	1.548	2.803	-1.473	382.812
-3.697	0.388	-4.327	1.604	3.942	1.456	5.766	4.025	3.310	3.313	-2.615	-5.694	4.550	5.508	-4.666	2.239	1.227	0.357	2.986	4.772	5.574	3.400	0.560	4.910	0.775	1.826	2.888	-1.497	386.719
-3.632	0.264	-4.301	1.439	3.852	1.370	5.666	3.996	3.368	3.248	-2.676	-5.862	4.412	5.331	-4.495	2.080	1.041	0.392	2.849	4.554	5.369	3.386	0.749	5.015	1.106	2.157	3.048	-1.439	390.625
-3.538	0.109	-4.279	1.235	3.713	1.232	5.552	3.946	3.457	3.210	-2.659	-5.924	4.294	5.128	-4.328	1.835	0.743	0.384	2.635	4.262	5.114	3.324	0.907	5.126	1.461	2.516	3.263	-1.299	394.531
-3.418	-0.066	-4.271	1.006	3.535	1.055	5.424	3.868	3.550	3.192	-2.571	-5.863	4.198	4.909	-4.181	1.523	0.368	0.340	2.368	3.919	4.828	3.227	1.030	5.233	1.819	2.872	3.508	-1.089	398.438
-3.278	-0.249	-4.285	0.771	3.337	0.861	5.288	3.753	3.615	3.185	-2.430	-5.674	4.129	4.689	-4.068	1.173	-0.033	0.271	2.086	3.551	4.536	3.116	1.119	5.328	2.154	3.194	3.751	-0.827	402.344
-3.128	-0.426	-4.323	0.549	3.138	0.667	5.147	3.591	3.615	3.178	-2.266	-5.376	4.090	4.486	-3.991	0.820	-0.404	0.198	1.825	3.195	4.269	3.013	1.180	5.402	2.439	3.448	3.962	-0.548	406.250
-2.971	-0.579	-4.380	0.361	2.963	0.494	5.008	3.368	3.513	3.153	-2.117	-5.008	4.087	4.320	-3.943	0.504	-0.688	0.141	1.623	2.889	4.057	2.944	1.224	5.447	2.648	3.599	4.108	-0.294	410.156
-2.807	-0.689	-4.440	0.225	2.831	0.353	4.874	3.072	3.276	3.094	-2.029	-4.630	4.123	4.212	-3.902	0.267	-0.840	0.121	1.513	2.668	3.924	2.927	1.263	5.453	2.756	3.618	4.161	-0.114	414.062
-2.623	-0.737	-4.478	0.157	2.760	0.254	4.741	2.689	2.881	2.977	-2.049	-4.313	4.195	4.176	-3.835	0.140	-0.836	0.157	1.511	2.562	3.890	2.974	1.307	5.411	2.744	3.484	4.097	-0.057	417.969
-2.400	-0.708	-4.462	0.169	2.759	0.202	4.603	2.216	2.322	2.780	-2.213	-4.125	4.292	4.218	-3.704	0.145	-0.674	0.256	1.624	2.588	3.962	3.087	1.365	5.312	2.599	3.183	3.898	-0.161	421.875
-2.116	-0.591	-4.359	0.268	2.834	0.199	4.448	1.660	1.613	2.486	-2.543	-4.120	4.398	4.332	-3.473	0.289	-0.377	0.416	1.838	2.750	4.134	3.255	1.437	5.146	2.320	2.717	3.554	-0.448	425.781
-1.755	-0.379	-4.146	0.459	2.983	0.245	4.261	1.043	0.789	2.085	-3.035	-4.323	4.488	4.502	-3.119	0.564	0.013	0.623	2.127	3.038	4.392	3.459	1.519	4.903	1.913	2.100	3.066	-0.918	429.688
-1.310	-0.074	-3.807	0.738	3.199	0.340	4.030	0.399	-0.097	1.579	-3.661	-4.728	4.532	4.704	-2.642	0.949	0.448	0.855	2.459	3.429	4.711	3.673	1.602	4.577	1.398	1.358	2.441	-1.550	433.594
-0.788	0.316	-3.345	1.099	3.472	0.481	3.745	-0.229	-0.984	0.983	-4.370	-5.295	4.502	4.906	-2.067	1.413	0.885	1.087	2.798	3.894	5.060	3.869	1.673	4.163	0.799	0.527	1.698	-2.301	437.500
-0.212	0.780	-2.781	1.528	3.788	0.662	3.407	-0.801	-1.807	0.325	-5.095	-5.956	4.375	5.079	-1.441	1.923	1.291	1.293	3.114	4.397	5.408	4.023	1.722	3.665	0.149	-0.352	0.865	-3.114	441.406
0.383	1.298	-2.148	2.005	4.129	0.873	3.024	-1.283	-2.512	-0.357	-5.768	-6.632	4.141	5.195	-0.821	2.445	1.648	1.455	3.387	4.900	5.728	4.119	1.741	3.094	-0.518	-1.235	-0.019	-3.923	445.312
0.955	1.845	-1.494	2.504	4.478	1.100	2.614	-1.654	-3.062	-1.022	-6.325	-7.238	3.805	5.236	-0.261	2.945	1.949	1.562	3.604	5.370	5.994	4.148	1.729	2.471	-1.169	-2.080	-0.911	-4.664	449.219
1.460	2.390	-0.869	2.997	4.813	1.325	2.204	-1.908	-3.437	-1.622	-6.717	-7.701	3.387	5.196	0.196	3.392	2.193	1.614	3.759	5.775	6.190	4.110	1.684	1.824	-1.775	-2.844	-1.759	-5.276	453.125
1.861	2.900	-0.323	3.452	5.114	1.527	1.826	-2.052	-3.635	-2.115	-6.910	-7.963	2.924	5.079	0.526	3.760	2.378	1.615	3.849	6.088	6.307	4.013	1.611	1.193	-2.312	-3.492	-2.511	-5.713	457.031
2.131	3.340	0.106	3.838	5.359	1.685	1.510	-2.104	-3.670	-2.465	-6.895	-7.991	2.462	4.898	0.721	4.027	2.500	1.576	3.876	6.292	6.343	3.869	1.514	0.618	-2.763	-3.997	-3.118	-5.941	460.938
2.257	3.682	0.394	4.132	5.532	1.783	1.283	-2.085	-3.569	-2.647	-6.677	-7.777	2.049	4.675	0.783	4.182	2.552	1.502	3.840	6.379	6.302	3.690	1.395	0.136	-3.120	-4.340	-3.542	-5.948	464.844
2.241	3.905	0.535	4.316	5.622	1.811	1.164	-2.014	-3.360	-2.649	-6.277	-7.339	1.727	4.432	0.722	4.220	2.531	1.402	3.746	6.351	6.195	3.489	1.257	-0.222	-3.382	-4.519	-3.761	-5.742	468.750
2.099	4.001	0.539	4.383	5.626	1.769	1.154	-1.908	-3.077	-2.479	-5.731	-6.714	1.523	4.189	0.547	4.148	2.439	1.279	3.600	6.222	6.034	3.277	1.104	-0.442	-3.552	-4.543	-3.774	-5.353	472.656
1.860	3.976	0.428	4.340	5.551	1.663	1.243	-1.778	-2.747	-2.164	-5.083	-5.962	1.445	3.961	0.275	3.983	2.283	1.136	3.410	6.013	5.836	3.061	0.940	-0.525	-3.640	-4.433	-3.604	-4.827	476.562
1.560	3.848	0.232	4.204	5.409	1.511	1.407	-1.629	-2.397	-1.744	-4.385	-5.150	1.477	3.757	-0.071	3.750	2.078	0.977	3.190	5.752	5.616	2.848	0.772	-0.492	-3.655	-4.221	-3.292	-4.224	480.469
1.242	3.650	-0.016	4.003	5.221	1.330	1.609	-1.468	-2.047	-1.275	-3.690	-4.352	1.587	3.576	-0.461	3.482	1.847	0.810	2.956	5.468	5.387	2.644	0.610	-0.376	-3.609	-3.945	-2.897	-3.607	484.375
0.946	3.418	-0.282	3.769	5.009	1.145	1.809	-1.297	-1.714	-0.818	-3.054	-3.640	1.727	3.415	-0.858	3.212	1.617	0.645	2.725	5.190	5.162	2.453	0.465	-0.221	-3.514	-3.644	-2.484	-3.040	488.281
0.708	3.192	-0.535	3.536	4.795	0.974	1.970	-1.122	-1.415	-0.429	-2.529	-3.079	1.848	3.263	-1.221	2.972	1.415	0.495	2.516	4.938	4.947	2.279	0.348	-0.071	-3.381	-3.352	-2.116	-2.577	492.188
0.555	3.007	-0.752	3.332	4.596	0.835	2.060	-0.951	-1.158	-0.156	-2.154	-2.716	1.904	3.112	-1.511	2.787	1.264	0.374	2.345	4.729	4.745	2.127	0.269	0.037	-3.221	-3.096	-1.842	-2.259	496.094
0.501	2.887	-0.911	3.179	4.423	0.737	2.063	-0.790	-0.953	-0.026	-1.957	-2.580	1.866	2.956	-1.695	2.670	1.181	0.291	2.222	4.568	4.559	2.002	0.234	0.080	-3.045	-2.894	-1.696	-2.106	500.000
0.546	2.843	-0.996	3.085	4.284	0.687	1.976	-0.646	-0.802	-0.049	-1.944	-2.673	1.724	2.793	-1.754	2.627	1.171	0.254	2.151	4.454	4.390	1.907	0.245	0.050	-2.864	-2.753	-1.685	-2.122	503.906
0.677	2.875	-0.998	3.053	4.180	0.681	1.813	-0.524	-0.703	-0.210	-2.102	-2.972	1.492	2.629	-1.685	2.648	1.225	0.262	2.124	4.379	4.239	1.841	0.296	-0.042	-2.691	-2.670	-1.796	-2.288	507.812
0.867	2.970	-0.915	3.073	4.113	0.715	1.599	-0.427	-0.648	-0.476	-2.398	-3.433	1.201	2.471	-1.505	2.716	1.326	0.307	2.132	4.333	4.110	1.802	0.381	-0.173	-2.537	-2.635	-1.993	-2.571	511.719
1.083	3.111	-0.753	3.136	4.081	0.780	1.366	-0.352	-0.626	-0.805	-2.784	-3.990	0.895	2.331	-1.243	2.812	1.452	0.379	2.158	4.305	4.006	1.785	0.485	-0.315	-2.414	-2.636	-2.233	-2.926	515.625
1.288	3.277	-0.529	3.229	4.084	0.865	1.147	-0.298	-0.624	-1.148	-3.202	-4.572	0.622	2.223	-0.942	2.914	1.577	0.464	2.187	4.285	3.931	1.783	0.596	-0.438	-2.335	-2.661	-2.470	-3.303	519.531
1.450	3.450	-0.265	3.340	4.121	0.963	0.967	-0.261	-0.630	-1.462	-3.596	-5.104	0.418	2.154	-0.644	3.006	1.685	0.546	2.206	4.266	3.890	1.788	0.701	-0.523	-2.310	-2.703	-2.666	-3.655	523.438
1.547	3.614	0.016	3.459	4.187	1.065	0.844	-0.236	-0.638	-1.712	-3.918	-5.525	0.306	2.129	-0.390	3.077	1.760	0.614	2.208	4.247	3.883	1.792	0.787	-0.565	-2.347	-2.760	-2.798	-3.944	527.344
1.572	3.752	0.291	3.575	4.277	1.167	0.782	-0.220	-0.645	-1.879	-4.132	-5.788	0.289	2.143	-0.208	3.122	1.798	0.658	2.192	4.225	3.904	1.787	0.847	-0.571	-2.447	-2.835	-2.859	-4.142	531.250
1.533	3.853	0.546	3.679	4.380	1.262	0.773	-0.211	-0.653	-1.959	-4.220	-5.869	0.349	2.184	-0.111	3.141	1.797	0.671	2.156	4.200	3.946	1.768	0.877	-0.557	-2.606	-2.930	-2.857	-4.234	535.156
1.454	3.905	0.770	3.761	4.482	1.347	0.800	-0.208	-0.665	-1.961	-4.181	-5.765	0.457	2.233	-0.097	3.135	1.762	0.652	2.107	4.169	3.995	1.730	0.876	-0.547	-2.810	-3.047	-2.813	-4.222	539.062
1.362	3.898	0.958	3.808	4.566	1.416	0.840	-0.215	-0.684	-1.903	-4.028	-5.494	0.573	2.270	-0.147	3.106	1.701	0.607	2.047	4.129	4.034	1.674	0.849	-0.559	-3.035	-3.183	-2.749	-4.115	542.969
1.289	3.827	1.112	3.814	4.615	1.463	0.871	-0.235	-0.712	-1.809	-3.785	-5.090	0.659	2.275	-0.231	3.055	1.623	0.542	1.981	4.071	4.045	1.602	0.804	-0.611	-3.252	-3.328	-2.689	-3.933	546.875
1.261	3.694	1.235	3.772	4.617	1.482	0.869	-0.272	-0.750	-1.704	-3.482	-4.601	0.685	2.230	-0.312	2.985	1.540	0.471	1.911	3.989	4.014	1.518	0.753	-0.710	-3.432	-3.472	-2.656	-3.704	550.781
1.296	3.509	1.339	3.682	4.559	1.470	0.821	-0.329	-0.797	-1.612	-3.156	-4.080	0.628	2.127	-0.351	2.899	1.460	0.406	1.838	3.875	3.927	1.426	0.706	-0.856	-3.551	-3.606	-2.666	-3.462	554.688
1.401	3.290	1.439	3.550	4.441	1.426	0.719	-0.404	-0.852	-1.552	-2.843	-3.584	0.480	1.960	-0.316	2.802	1.393	0.358	1.761	3.724	3.781	1.329	0.670	-1.046	-3.597	-3.727	-2.733	-3.245	558.594
1.575	3.062	1.549	3.390	4.268	1.358	0.564	-0.492	-0.913	-1.532	-2.577	-3.163	0.247	1.735	-0.186	2.703	1.343	0.333	1.679	3.538	3.578	1.226	0.648	-1.270	-3.574	-3.836	-2.864	-3.087	562.500
1.800	2.852	1.679	3.216	4.050	1.273	0.369	-0.582	-0.975	-1.556	-2.383	-2.855	-0.055	1.462	0.045	2.608	1.313	0.334	1.589	3.321	3.324	1.115	0.638	-1.519	-3.497	-3.940	-3.058	-3.014	566.406
2.051	2.686	1.832	3.044	3.806	1.183	0.149	-0.662	-1.034	-1.619	-2.273	-2.682	-0.401	1.157	0.371	2.526	1.305	0.361	1.492	3.080	3.033	0.991	0.636	-1.778	-3.387	-4.047	-3.305	-3.039	570.312
2.299	2.581	1.997	2.889	3.551	1.100	-0.075	-0.720	-1.083	-1.709	-2.249	-2.645	-0.759	0.840	0.769	2.461	1.315	0.410	1.390	2.827	2.722	0.853	0.635	-2.033	-3.267	-4.157	-3.586	-3.157	574.219
2.513	2.545	2.157	2.759	3.301	1.030	-0.283	-0.747	-1.115	-1.815	-2.301	-2.732	-1.099	0.532	1.207	2.416	1.341	0.477	1.287	2.577	2.409	0.702	0.634	-2.267	-3.155	-4.266	-3.874	-3.348	578.125
2.671	2.573	2.291	2.657	3.068	0.973	-0.460	-0.743	-1.126	-1.927	-2.415	-2.915	-1.392	0.255	1.642	2.393	1.382	0.555	1.189	2.342	2.113	0.547	0.632	-2.461	-3.056	-4.362	-4.139	-3.582	582.031
2.763	2.654	2.376	2.582	2.856	0.926	-0.596	-0.712	-1.115	-2.039	-2.573	-3.164	-1.617	0.025	2.028	2.391	1.438	0.638	1.106	2.138	1.852	0.400	0.636	-2.600	-2.965	-4.428	-4.353	-3.824	585.938
2.790	2.768	2.400	2.528	2.667	0.882	-0.688	-0.664	-1.087	-2.148	-2.764	-3.451	-1.764	-0.143	2.328	2.409	1.512	0.721	1.047	1.973	1.640	0.276	0.653	-2.673	-2.869	-4.450	-4.497	-4.044	589.844
2.766	2.895	2.362	2.491	2.498	0.831	-0.741	-0.616	-1.046	-2.260	-2.980	-3.752	-1.832	-0.244	2.516	2.444	1.602	0.800	1.017	1.855	1.484	0.189	0.693	-2.676	-2.751	-4.418	-4.558	-4.222	593.750
2.712	3.015	2.277	2.462	2.345	0.769	-0.766	-0.581	-1.004	-2.379	-3.219	-4.052	-1.830	-0.282	2.585	2.493	1.704	0.869	1.015	1.782	1.385	0.147	0.762	-2.613	-2.601	-4.329	-4.537	-4.349	597.656
2.650	3.113	2.170	2.438	2.201	0.692	-0.776	-0.572	-0.972	-2.511	-3.481	-4.341	-1.778	-0.268	2.550	2.550	1.808	0.927	1.037	1.748	1.335	0.151	0.862	-2.494	-2.413	-4.189	-4.445	-4.425	601.562
2.596	3.181	2.067	2.414	2.064	0.605	-0.787	-0.594	-0.959	-2.659	-3.763	-4.609	-1.695	-0.222	2.440	2.609	1.902	0.970	1.070	1.742	1.318	0.194	0.986	-2.338	-2.191	-4.008	-4.300	-4.457	605.469
2.559	3.218	1.995	2.389	1.930	0.512	-0.812	-0.650	-0.974	-2.821	-4.055	-4.848	-1.603	-0.165	2.292	2.662	1.972	0.999	1.105	1.749	1.318	0.264	1.126	-2.165	-1.950	-3.802	-4.120	-4.452	609.375
2.537	3.225	1.964	2.359	1.798	0.422	-0.859	-0.731	-1.015	-2.987	-4.340	-5.042	-1.518	-0.119	2.136	2.700	2.009	1.012	1.128	1.753	1.315	0.344	1.266	-1.994	-1.705	-3.585	-3.923	-4.413	613.281
2.519	3.204	1.972	2.321	1.670	0.342	-0.931	-0.825	-1.076	-3.141	-4.590	-5.171	-1.452	-0.098	1.995	2.715	2.010	1.011	1.135	1.741	1.296	0.420	1.392	-1.841	-1.474	-3.368	-3.723	-4.341	617.188
2.490	3.157	2.003	2.271	1.545	0.275	-1.023	-0.914	-1.139	-3.263	-4.770	-5.213	-1.407	-0.114	1.877	2.703	1.982	0.997	1.119	1.701	1.249	0.477	1.489	-1.714	-1.273	-3.159	-3.527	-4.231	621.094
2.431	3.083	2.026	2.205	1.425	0.222	-1.124	-0.977	-1.181	-3.333	-4.849	-5.150	-1.383	-0.166	1.780	2.658	1.933	0.973	1.082	1.630	1.171	0.505	1.548	-1.619	-1.110	-2.964	-3.341	-4.078	625.000
2.332	2.979	2.014	2.117	1.310	0.182	-1.220	-0.995	-1.178	-3.336	-4.800	-4.971	-1.377	-0.253	1.699	2.584	1.876	0.942	1.023	1.526	1.064	0.499	1.562	-1.556	-0.990	-2.787	-3.168	-3.886	628.906
2.190	2.847	1.943	2.006	1.201	0.150	-1.302	-0.952	-1.109	-3.266	-4.614	-4.684	-1.387	-0.363	1.631	2.485	1.820	0.907	0.942	1.398	0.935	0.455	1.533	-1.525	-0.910	-2.632	-3.013	-3.662	632.812
2.015	2.689	1.804	1.874	1.098	0.126	-1.362	-0.843	-0.966	-3.129	-4.304	-4.310	-1.414	-0.489	1.577	2.373	1.774	0.872	0.843	1.258	0.793	0.375	1.464	-1.525	-0.866	-2.505	-2.884	-3.424	636.719
1.827	2.517	1.605	1.730	0.999	0.108	-1.401	-0.674	-0.755	-2.944	-3.901	-3.890	-1.463	-0.618	1.540	2.263	1.739	0.837	0.728	1.121	0.651	0.263	1.366	-1.555	-0.853	-2.413	-2.791	-3.197	640.625
1.652	2.349	1.375	1.586	0.904	0.098	-1.424	-0.465	-0.498	-2.738	-3.454	-3.470	-1.537	-0.740	1.524	2.172	1.714	0.804	0.604	1.006	0.521	0.128	1.254	-1.614	-0.860	-2.357	-2.741	-3.003	644.531
1.516	2.207	1.152	1.459	0.814	0.099	-1.442	-0.243	-0.231	-2.544	-3.022	-3.099	-1.638	-0.848	1.527	2.115	1.693	0.772	0.480	0.928	0.413	-0.021	1.140	-1.700	-0.881	-2.341	-2.741	-2.864	648.438
1.441	2.112	0.982	1.366	0.727	0.116	-1.468	-0.046	0.005	-2.392	-2.659	-2.819	-1.761	-0.933	1.547	2.105	1.674	0.739	0.366	0.899	0.337	-0.168	1.041	-1.809	-0.908	-2.361	-2.787	-2.790	652.344
1.438	2.082	0.906	1.319	0.647	0.152	-1.508	0.092	0.169	-2.301	-2.408	-2.654	-1.897	-0.991	1.581	2.147	1.652	0.704	0.273	0.925	0.298	-0.304	0.963	-1.933	-0.940	-2.413	-2.873	-2.782	656.250
1.505	2.121	0.951	1.325	0.577	0.210	-1.564	0.144	0.230	-2.278	-2.290	-2.608	-2.029	-1.016	1.625	2.240	1.626	0.668	0.206	1.004	0.298	-0.418	0.912	-2.066	-0.978	-2.492	-2.987	-2.830	660.156
1.630	2.223	1.125	1.381	0.520	0.288	-1.632	0.093	0.172	-2.316	-2.301	-2.667	-2.140	-1.009	1.682	2.376	1.594	0.634	0.168	1.128	0.335	-0.506	0.883	-2.199	-1.028	-2.594	-3.112	-2.919	664.062
1.796	2.372	1.411	1.480	0.482	0.386	-1.700	-0.060	-0.000	-2.395	-2.418	-2.801	-2.212	-0.971	1.755	2.544	1.556	0.603	0.157	1.286	0.404	-0.569	0.866	-2.326	-1.099	-2.717	-3.235	-3.030	667.969
1.979	2.544	1.773	1.607	0.466	0.498	-1.755	-0.302	-0.264	-2.491	-2.603	-2.971	-2.231	-0.905	1.843	2.727	1.515	0.579	0.165	1.463	0.496	-0.610	0.848	-2.442	-1.198	-2.861	-3.344	-3.146	671.875
2.162	2.714	2.160	1.746	0.475	0.617	-1.785	-0.606	-0.586	-2.578	-2.812	-3.138	-2.191	-0.818	1.944	2.911	1.474	0.562	0.186	1.646	0.604	-0.635	0.819	-2.544	-1.328	-3.021	-3.428	-3.250	675.781
2.326	2.862	2.512	1.879	0.508	0.730	-1.781	-0.939	-0.925	-2.639	-3.006	-3.267	-2.096	-0.718	2.047	3.082	1.436	0.552	0.212	1.824	0.717	-0.648	0.771	-2.626	-1.484	-3.191	-3.482	-3.328	679.688
2.462	2.973	2.773	1.992	0.557	0.827	-1.745	-1.264	-1.241	-2.664	-3.153	-3.334	-1.954	-0.612	2.135	3.227	1.406	0.548	0.236	1.985	0.827	-0.653	0.705	-2.682	-1.652	-3.360	-3.500	-3.373	683.594
2.562	3.040	2.901	2.072	0.613	0.895	-1.681	-1.550	-1.499	-2.651	-3.235	-3.324	-1.779	-0.508	2.189	3.334	1.382	0.547	0.253	2.120	0.927	-0.651	0.627	-2.705	-1.811	-3.510	-3.477	-3.375	687.500
2.620	3.058	2.878	2.112	0.663	0.927	-1.600	-1.774	-1.678	-2.606	-3.245	-3.232	-1.585	-0.410	2.193	3.392	1.360	0.545	0.260	2.219	1.010	-0.642	0.547	-2.687	-1.939	-3.623	-3.410	-3.332	691.406
2.637	3.028	2.713	2.103	0.691	0.917	-1.514	-1.921	-1.764	-2.535	-3.182	-3.061	-1.386	-0.320	2.135	3.388	1.330	0.537	0.250	2.273	1.073	-0.629	0.478	-2.623	-2.015	-3.680	-3.295	-3.240	695.312
2.609	2.950	2.441	2.043	0.683	0.864	-1.433	-1.988	-1.760	-2.448	-3.054	-2.820	-1.192	-0.240	2.016	3.315	1.283	0.518	0.220	2.274	1.111	-0.612	0.429	-2.510	-2.026	-3.668	-3.134	-3.099	699.219
2.541	2.828	2.115	1.928	0.630	0.772	-1.367	-1.984	-1.677	-2.351	-2.868	-2.520	-1.009	-0.169	1.847	3.171	1.208	0.485	0.167	2.220	1.122	-0.598	0.404	-2.353	-1.969	-3.581	-2.929	-2.913	703.125
2.436	2.664	1.794	1.760	0.528	0.647	-1.320	-1.926	-1.538	-2.252	-2.638	-2.177	-0.843	-0.107	1.651	2.962	1.100	0.438	0.089	2.112	1.106	-0.588	0.402	-2.162	-1.851	-3.425	-2.690	-2.689	707.031
2.302	2.466	1.527	1.547	0.381	0.496	-1.295	-1.837	-1.369	-2.155	-2.379	-1.808	-0.696	-0.054	1.456	2.704	0.964	0.380	-0.009	1.962	1.068	-0.586	0.418	-1.950	-1.689	-3.215	-2.429	-2.437	710.938
2.154	2.243	1.343	1.300	0.200	0.330	-1.293	-1.742	-1.201	-2.065	-2.108	-1.435	-0.573	-0.011	1.290	2.422	0.810	0.320	-0.121	1.785	1.011	-0.592	0.445	-1.738	-1.504	-2.973	-2.165	-2.174	714.844
2.006	2.007	1.248	1.036	0.001	0.161	-1.314	-1.664	-1.061	-1.987	-1.841	-1.078	-0.478	0.019	1.179	2.144	0.652	0.266	-0.234	1.601	0.944	-0.603	0.476	-1.541	-1.319	-2.725	-1.916	-1.914	718.750
1.874	1.775	1.229	0.776	-0.198	0.000	-1.357	-1.622	-0.973	-1.925	-1.597	-0.757	-0.412	0.032	1.136	1.897	0.507	0.229	-0.337	1.430	0.872	-0.613	0.508	-1.376	-1.154	-2.496	-1.696	-1.673	722.656
1.772	1.559	1.259	0.538	-0.380	-0.143	-1.419	-1.625	-0.947	-1.880	-1.388	-0.486	-0.378	0.025	1.165	1.703	0.388	0.214	-0.417	1.286	0.801	-0.618	0.540	-1.253	-1.022	-2.307	-1.517	-1.461	726.562
1.709	1.370	1.309	0.336	-0.535	-0.263	-1.497	-1.675	-0.983	-1.854	-1.222	-0.272	-0.373	-0.004	1.256	1.571	0.298	0.223	-0.469	1.176	0.732	-0.611	0.574	-1.171	-0.929	-2.166	-1.380	-1.282	730.469
1.686	1.213	1.356	0.176	-0.660	-0.357	-1.584	-1.763	-1.069	-1.841	-1.100	-0.113	-0.391	-0.056	1.386	1.497	0.234	0.252	-0.495	1.096	0.665	-0.591	0.612	-1.123	-0.872	-2.073	-1.279	-1.134	734.375
1.698	1.088	1.387	0.058	-0.758	-0.426	-1.668	-1.872	-1.182	-1.835	-1.017	0.001	-0.421	-0.125	1.525	1.466	0.182	0.288	-0.501	1.036	0.596	-0.559	0.653	-1.095	-0.842	-2.017	-1.200	-1.009	738.281
1.736	0.988	1.396	-0.028	-0.839	-0.474	-1.735	-1.979	-1.291	-1.820	-0.959	0.087	-0.449	-0.203	1.634	1.454	0.127	0.317	-0.501	0.982	0.523	-0.523	0.693	-1.069	-0.826	-1.982	-1.126	-0.893	742.188
1.783	0.904	1.384	-0.092	-0.911	-0.505	-1.766	-2.060	-1.361	-1.781	-0.909	0.165	-0.456	-0.276	1.677	1.436	0.054	0.320	-0.513	0.917	0.445	-0.491	0.726	-1.028	-0.815	-1.949	-1.042	-0.775	746.094
1.822	0.828	1.353	-0.148	-0.982	-0.520	-1.747	-2.092	-1.363	-1.702	-0.849	0.255	-0.426	-0.333	1.621	1.391	-0.050	0.284	-0.550	0.832	0.364	-0.476	0.741	-0.962	-0.800	-1.903	-0.935	-0.642	750.000
1.837	0.754	1.307	-0.203	-1.053	-0.522	-1.665	-2.060	-1.276	-1.571	-0.763	0.374	-0.349	-0.359	1.448	1.304	-0.186	0.201	-0.624	0.719	0.285	-0.486	0.731	-0.864	-0.779	-1.838	-0.800	-0.489	753.906
1.817	0.680	1.249	-0.261	-1.123	-0.511	-1.517	-1.960	-1.096	-1.384	-0.641	0.528	-0.220	-0.349	1.160	1.171	-0.349	0.071	-0.738	0.582	0.212	-0.527	0.692	-0.739	-0.753	-1.752	-0.641	-0.313	757.812
1.756	0.607	1.183	-0.322	-1.184	-0.492	-1.314	-1.804	-0.839	-1.148	-0.483	0.713	-0.046	-0.302	0.782	0.999	-0.528	-0.094	-0.886	0.426	0.151	-0.598	0.625	-0.598	-0.728	-1.651	-0.467	-0.124	761.719
1.654	0.540	1.113	-0.381	-1.234	-0.470	-1.074	-1.614	-0.535	-0.885	-0.299	0.913	0.159	-0.224	0.362	0.803	-0.702	-0.272	-1.051	0.263	0.105	-0.689	0.539	-0.453	-0.708	-1.549	-0.295	0.064	765.625
1.519	0.485	1.048	-0.435	-1.269	-0.455	-0.829	-1.425	-0.231	-0.621	-0.111	1.105	0.371	-0.129	-0.041	0.605	-0.851	-0.437	-1.212	0.104	0.072	-0.784	0.448	-0.321	-0.697	-1.458	-0.141	0.230	769.531
1.363	0.449	0.998	-0.479	-1.291	-0.459	-0.612	-1.273	0.026	-0.392	0.055	1.257	0.567	-0.033	-0.365	0.427	-0.955	-0.562	-1.345	-0.040	0.048	-0.866	0.371	-0.215	-0.697	-1.392	-0.023	0.351	773.438
1.200	0.438	0.971	-0.512	-1.306	-0.491	-0.453	-1.190	0.192	-0.228	0.170	1.343	0.723	0.048	-0.561	0.292	-0.996	-0.624	-1.426	-0.160	0.026	-0.915	0.324	-0.143	-0.705	-1.361	0.046	0.404	777.344
1.046	0.455	0.973	-0.534	-1.320	-0.559	-0.374	-1.198	0.238	-0.150	0.214	1.339	0.824	0.101	-0.605	0.214	-0.966	-0.613	-1.441	-0.252	-0.000	-0.919	0.316	-0.109	-0.721	-1.370	0.062	0.375	781.250
0.910	0.501	1.006	-0.548	-1.339	-0.664	-0.381	-1.302	0.154	-0.168	0.173	1.236	0.864	0.120	-0.497	0.198	-0.864	-0.528	-1.384	-0.316	-0.035	-0.871	0.352	-0.113	-0.742	-1.418	0.026	0.259	785.156
0.798	0.573	1.063	-0.555	-1.368	-0.802	-0.467	-1.494	-0.048	-0.271	0.053	1.042	0.851	0.106	-0.263	0.240	-0.698	-0.381	-1.262	-0.355	-0.081	-0.773	0.430	-0.147	-0.765	-1.499	-0.055	0.064	789.062
0.708	0.664	1.138	-0.559	-1.405	-0.966	-0.611	-1.751	-0.338	-0.439	-0.129	0.777	0.798	0.066	0.060	0.324	-0.487	-0.188	-1.089	-0.378	-0.137	-0.638	0.539	-0.202	-0.789	-1.604	-0.165	-0.191	792.969
0.631	0.763	1.222	-0.563	-1.451	-1.144	-0.784	-2.042	-0.672	-0.641	-0.345	0.476	0.725	0.011	0.423	0.430	-0.254	0.025	-0.891	-0.394	-0.201	-0.482	0.666	-0.264	-0.811	-1.718	-0.287	-0.475	796.875
