FP1	F3	F7	FC3	C3	C5	P3	P7	PO7	PO3	O1	Oz	Pz	CPz	FP2	Fz	F4	F8	FC4	FCz	Cz	C4	C6	P4	P8	PO8	PO4	O2	time
0.970	1.443	0.479	0.854	0.371	0.146	-1.403	-1.332	-1.701	-1.469	-1.625	-1.637	-0.504	0.326	0.133	1.586	1.135	0.302	0.710	1.110	1.004	0.604	0.264	-0.193	-0.401	-0.864	-0.882	-1.797	-199.219
0.865	1.119	0.413	0.642	0.221	0.140	-1.058	-1.009	-1.394	-1.080	-1.256	-1.215	-0.262	0.293	-0.035	1.183	0.560	0.116	0.435	0.791	0.825	0.514	0.270	0.103	-0.223	-0.599	-0.505	-1.338	-195.312
0.759	0.833	0.348	0.459	0.099	0.140	-0.732	-0.713	-1.099	-0.711	-0.905	-0.813	-0.042	0.260	-0.180	0.814	0.025	-0.059	0.161	0.504	0.661	0.404	0.253	0.349	-0.063	-0.346	-0.164	-0.897	-191.406
0.650	0.622	0.297	0.333	0.027	0.153	-0.444	-0.470	-0.831	-0.383	-0.591	-0.453	0.139	0.226	-0.292	0.512	-0.429	-0.212	-0.103	0.279	0.525	0.264	0.201	0.506	0.057	-0.124	0.109	-0.497	-187.500
0.541	0.507	0.272	0.279	0.019	0.182	-0.206	-0.292	-0.603	-0.113	-0.332	-0.158	0.265	0.194	-0.361	0.299	-0.768	-0.336	-0.347	0.131	0.425	0.092	0.111	0.550	0.122	0.050	0.289	-0.162	-183.594
0.440	0.490	0.278	0.300	0.078	0.228	-0.022	-0.182	-0.426	0.087	-0.146	0.056	0.333	0.165	-0.386	0.184	-0.977	-0.426	-0.556	0.067	0.364	-0.103	-0.014	0.477	0.124	0.162	0.367	0.089	-179.688
0.360	0.557	0.318	0.384	0.196	0.290	0.111	-0.130	-0.307	0.212	-0.041	0.179	0.344	0.142	-0.373	0.161	-1.054	-0.479	-0.716	0.078	0.339	-0.302	-0.158	0.299	0.066	0.202	0.345	0.243	-175.781
0.312	0.681	0.386	0.512	0.353	0.360	0.201	-0.121	-0.245	0.264	-0.021	0.209	0.310	0.129	-0.332	0.216	-1.012	-0.497	-0.815	0.146	0.345	-0.482	-0.301	0.050	-0.045	0.167	0.239	0.296	-171.875
0.304	0.830	0.474	0.659	0.528	0.428	0.255	-0.138	-0.239	0.251	-0.078	0.151	0.245	0.130	-0.274	0.324	-0.872	-0.483	-0.844	0.250	0.373	-0.619	-0.418	-0.229	-0.190	0.065	0.075	0.253	-167.969
0.336	0.970	0.570	0.801	0.696	0.484	0.281	-0.170	-0.281	0.184	-0.199	0.020	0.170	0.146	-0.210	0.460	-0.666	-0.439	-0.801	0.367	0.415	-0.692	-0.488	-0.493	-0.350	-0.089	-0.114	0.128	-164.062
0.399	1.078	0.663	0.919	0.834	0.515	0.281	-0.210	-0.361	0.077	-0.362	-0.165	0.102	0.180	-0.143	0.601	-0.426	-0.369	-0.691	0.479	0.463	-0.689	-0.496	-0.703	-0.502	-0.273	-0.297	-0.058	-160.156
0.478	1.137	0.738	1.001	0.929	0.513	0.257	-0.258	-0.466	-0.057	-0.543	-0.381	0.054	0.230	-0.070	0.727	-0.183	-0.275	-0.527	0.574	0.513	-0.607	-0.435	-0.831	-0.624	-0.459	-0.449	-0.277	-156.250
0.553	1.141	0.783	1.042	0.974	0.470	0.207	-0.319	-0.580	-0.207	-0.717	-0.604	0.032	0.294	0.017	0.825	0.037	-0.161	-0.328	0.646	0.562	-0.459	-0.314	-0.866	-0.702	-0.619	-0.552	-0.500	-152.344
0.603	1.093	0.782	1.040	0.970	0.387	0.132	-0.396	-0.689	-0.361	-0.864	-0.811	0.036	0.365	0.129	0.888	0.214	-0.031	-0.116	0.695	0.611	-0.264	-0.150	-0.811	-0.723	-0.729	-0.600	-0.700	-148.438
0.615	1.000	0.723	0.999	0.928	0.269	0.035	-0.488	-0.777	-0.507	-0.968	-0.982	0.061	0.439	0.267	0.912	0.339	0.106	0.088	0.725	0.659	-0.048	0.030	-0.683	-0.684	-0.771	-0.593	-0.851	-144.531
0.581	0.874	0.602	0.927	0.859	0.128	-0.074	-0.589	-0.833	-0.636	-1.021	-1.101	0.096	0.507	0.424	0.897	0.407	0.240	0.264	0.737	0.706	0.162	0.197	-0.507	-0.591	-0.738	-0.539	-0.937	-140.625
0.503	0.726	0.426	0.829	0.778	-0.021	-0.184	-0.686	-0.851	-0.737	-1.024	-1.159	0.132	0.563	0.580	0.844	0.427	0.358	0.401	0.736	0.749	0.341	0.328	-0.310	-0.453	-0.636	-0.450	-0.948	-136.719
0.390	0.570	0.215	0.714	0.694	-0.159	-0.283	-0.766	-0.829	-0.804	-0.982	-1.154	0.159	0.600	0.707	0.755	0.409	0.447	0.492	0.719	0.783	0.474	0.407	-0.116	-0.286	-0.480	-0.340	-0.883	-132.812
0.258	0.414	0.001	0.591	0.617	-0.266	-0.358	-0.813	-0.774	-0.830	-0.906	-1.089	0.173	0.613	0.778	0.636	0.367	0.498	0.538	0.683	0.799	0.557	0.431	0.057	-0.109	-0.295	-0.222	-0.752	-128.906
0.124	0.267	-0.180	0.465	0.549	-0.329	-0.401	-0.817	-0.693	-0.813	-0.807	-0.973	0.171	0.599	0.772	0.491	0.311	0.503	0.546	0.625	0.790	0.592	0.408	0.194	0.059	-0.110	-0.108	-0.573	-125.000
0.004	0.133	-0.298	0.344	0.492	-0.340	-0.408	-0.770	-0.599	-0.754	-0.693	-0.819	0.153	0.558	0.686	0.325	0.247	0.465	0.522	0.541	0.749	0.588	0.355	0.291	0.200	0.046	-0.008	-0.371	-121.094
-0.088	0.014	-0.336	0.235	0.443	-0.299	-0.380	-0.677	-0.501	-0.658	-0.573	-0.641	0.124	0.492	0.533	0.148	0.176	0.389	0.475	0.431	0.672	0.559	0.292	0.347	0.299	0.153	0.071	-0.172	-117.188
-0.145	-0.087	-0.294	0.145	0.402	-0.213	-0.321	-0.547	-0.409	-0.532	-0.449	-0.453	0.089	0.406	0.340	-0.031	0.098	0.290	0.415	0.298	0.559	0.517	0.236	0.368	0.348	0.200	0.122	0.001	-113.281
-0.168	-0.170	-0.190	0.075	0.366	-0.099	-0.241	-0.397	-0.329	-0.387	-0.324	-0.268	0.054	0.309	0.144	-0.199	0.015	0.184	0.350	0.150	0.416	0.472	0.200	0.360	0.347	0.188	0.147	0.131	-109.375
-0.167	-0.235	-0.052	0.026	0.329	0.021	-0.149	-0.246	-0.263	-0.235	-0.201	-0.097	0.025	0.208	-0.020	-0.344	-0.068	0.088	0.288	-0.000	0.254	0.430	0.187	0.335	0.302	0.131	0.148	0.209	-105.469
-0.156	-0.285	0.084	-0.008	0.287	0.125	-0.059	-0.114	-0.208	-0.087	-0.081	0.054	0.005	0.112	-0.125	-0.453	-0.138	0.019	0.238	-0.140	0.085	0.396	0.194	0.304	0.226	0.050	0.134	0.239	-101.562
-0.152	-0.326	0.184	-0.037	0.232	0.193	0.019	-0.014	-0.158	0.043	0.034	0.181	-0.003	0.026	-0.159	-0.519	-0.180	-0.012	0.204	-0.258	-0.075	0.368	0.213	0.279	0.138	-0.032	0.117	0.230	-97.656
-0.166	-0.363	0.224	-0.074	0.158	0.212	0.075	0.044	-0.108	0.148	0.140	0.283	0.001	-0.045	-0.126	-0.540	-0.181	-0.003	0.191	-0.347	-0.216	0.347	0.235	0.268	0.055	-0.094	0.108	0.199	-93.750
-0.208	-0.407	0.191	-0.130	0.059	0.176	0.102	0.062	-0.051	0.222	0.232	0.363	0.015	-0.101	-0.043	-0.520	-0.133	0.043	0.198	-0.405	-0.330	0.330	0.253	0.277	-0.005	-0.119	0.120	0.163	-89.844
-0.279	-0.463	0.088	-0.213	-0.068	0.087	0.099	0.045	0.013	0.261	0.306	0.422	0.037	-0.145	0.066	-0.471	-0.036	0.118	0.224	-0.435	-0.416	0.315	0.261	0.308	-0.030	-0.099	0.160	0.140	-85.938
-0.372	-0.536	-0.075	-0.326	-0.219	-0.044	0.071	0.008	0.083	0.268	0.360	0.467	0.060	-0.182	0.179	-0.409	0.098	0.209	0.262	-0.447	-0.475	0.298	0.261	0.358	-0.012	-0.035	0.229	0.147	-82.031
-0.478	-0.626	-0.277	-0.462	-0.386	-0.200	0.025	-0.037	0.154	0.252	0.393	0.503	0.083	-0.218	0.277	-0.351	0.248	0.302	0.304	-0.450	-0.516	0.275	0.254	0.418	0.048	0.066	0.325	0.192	-78.125
-0.585	-0.724	-0.496	-0.609	-0.556	-0.359	-0.025	-0.075	0.218	0.221	0.411	0.540	0.100	-0.256	0.349	-0.311	0.389	0.385	0.340	-0.454	-0.547	0.243	0.241	0.479	0.142	0.192	0.439	0.280	-74.219
-0.684	-0.817	-0.709	-0.748	-0.713	-0.500	-0.064	-0.095	0.271	0.192	0.422	0.584	0.113	-0.298	0.390	-0.298	0.496	0.447	0.361	-0.466	-0.575	0.197	0.224	0.528	0.253	0.327	0.556	0.406	-70.312
-0.765	-0.891	-0.891	-0.859	-0.838	-0.601	-0.077	-0.087	0.309	0.180	0.435	0.641	0.120	-0.342	0.395	-0.312	0.552	0.479	0.361	-0.487	-0.603	0.134	0.200	0.553	0.361	0.452	0.660	0.558	-66.406
-0.824	-0.926	-1.020	-0.925	-0.919	-0.648	-0.053	-0.047	0.335	0.197	0.463	0.710	0.124	-0.380	0.360	-0.348	0.554	0.475	0.337	-0.513	-0.630	0.055	0.166	0.542	0.440	0.546	0.733	0.712	-62.500
-0.857	-0.913	-1.078	-0.936	-0.945	-0.634	0.012	0.028	0.355	0.253	0.515	0.786	0.127	-0.405	0.278	-0.394	0.509	0.431	0.288	-0.538	-0.650	-0.038	0.116	0.489	0.468	0.593	0.758	0.844	-58.594
-0.861	-0.847	-1.057	-0.890	-0.917	-0.562	0.116	0.138	0.382	0.348	0.595	0.859	0.130	-0.410	0.143	-0.437	0.431	0.347	0.221	-0.550	-0.657	-0.140	0.048	0.392	0.433	0.580	0.725	0.929	-54.688
-0.833	-0.735	-0.961	-0.798	-0.843	-0.446	0.248	0.280	0.429	0.474	0.699	0.917	0.131	-0.391	-0.043	-0.465	0.341	0.228	0.139	-0.543	-0.646	-0.242	-0.039	0.255	0.333	0.508	0.630	0.949	-50.781
-0.770	-0.593	-0.806	-0.678	-0.740	-0.305	0.390	0.448	0.509	0.615	0.819	0.948	0.125	-0.352	-0.266	-0.473	0.254	0.084	0.048	-0.512	-0.618	-0.338	-0.140	0.089	0.182	0.387	0.478	0.899	-46.875
-0.672	-0.447	-0.613	-0.554	-0.629	-0.162	0.520	0.633	0.627	0.750	0.937	0.945	0.104	-0.303	-0.498	-0.463	0.175	-0.074	-0.047	-0.461	-0.578	-0.419	-0.246	-0.092	0.008	0.239	0.286	0.787	-42.969
-0.540	-0.325	-0.409	-0.451	-0.530	-0.038	0.615	0.822	0.781	0.855	1.038	0.905	0.060	-0.260	-0.700	-0.444	0.100	-0.229	-0.146	-0.400	-0.538	-0.483	-0.346	-0.269	-0.156	0.091	0.074	0.631	-39.062
-0.382	-0.252	-0.214	-0.387	-0.462	0.053	0.657	0.997	0.960	0.911	1.105	0.831	-0.013	-0.239	-0.833	-0.428	0.024	-0.365	-0.246	-0.342	-0.513	-0.527	-0.429	-0.424	-0.274	-0.026	-0.132	0.458	-35.156
-0.212	-0.242	-0.048	-0.373	-0.433	0.106	0.638	1.143	1.147	0.908	1.128	0.734	-0.114	-0.252	-0.868	-0.431	-0.060	-0.469	-0.343	-0.303	-0.514	-0.551	-0.485	-0.543	-0.321	-0.089	-0.308	0.296	-31.250
-0.051	-0.297	0.073	-0.408	-0.443	0.122	0.561	1.245	1.318	0.845	1.107	0.625	-0.237	-0.301	-0.796	-0.462	-0.148	-0.528	-0.429	-0.296	-0.548	-0.554	-0.508	-0.613	-0.283	-0.084	-0.434	0.171	-27.344
0.076	-0.401	0.134	-0.478	-0.482	0.113	0.440	1.291	1.450	0.736	1.045	0.517	-0.367	-0.381	-0.632	-0.521	-0.226	-0.535	-0.491	-0.323	-0.612	-0.538	-0.497	-0.629	-0.166	-0.012	-0.499	0.096	-23.438
0.145	-0.531	0.123	-0.563	-0.532	0.091	0.300	1.276	1.522	0.598	0.954	0.423	-0.486	-0.472	-0.412	-0.600	-0.271	-0.490	-0.517	-0.378	-0.692	-0.501	-0.456	-0.591	0.007	0.114	-0.500	0.075	-19.531
0.142	-0.655	0.034	-0.638	-0.573	0.068	0.167	1.200	1.522	0.456	0.848	0.353	-0.571	-0.550	-0.180	-0.683	-0.263	-0.397	-0.495	-0.448	-0.771	-0.444	-0.395	-0.508	0.199	0.264	-0.448	0.101	-15.625
0.065	-0.747	-0.124	-0.684	-0.586	0.054	0.066	1.069	1.445	0.331	0.739	0.308	-0.603	-0.592	0.023	-0.750	-0.191	-0.269	-0.423	-0.514	-0.827	-0.367	-0.325	-0.393	0.370	0.405	-0.359	0.157	-11.719
-0.074	-0.789	-0.329	-0.688	-0.559	0.053	0.015	0.896	1.301	0.239	0.638	0.288	-0.573	-0.578	0.165	-0.782	-0.058	-0.124	-0.305	-0.556	-0.843	-0.276	-0.261	-0.262	0.477	0.502	-0.256	0.221	-7.812
-0.251	-0.776	-0.545	-0.646	-0.489	0.066	0.022	0.699	1.107	0.189	0.550	0.287	-0.477	-0.500	0.229	-0.767	0.121	0.017	-0.157	-0.562	-0.811	-0.176	-0.216	-0.133	0.495	0.529	-0.160	0.271	-3.906
-0.436	-0.714	-0.728	-0.566	-0.382	0.090	0.083	0.497	0.888	0.184	0.479	0.298	-0.328	-0.365	0.216	-0.703	0.319	0.136	0.003	-0.524	-0.730	-0.077	-0.198	-0.023	0.410	0.470	-0.088	0.290	0.000
-0.599	-0.617	-0.841	-0.462	-0.251	0.120	0.186	0.311	0.672	0.217	0.424	0.312	-0.144	-0.189	0.140	-0.597	0.509	0.216	0.153	-0.445	-0.612	0.012	-0.213	0.055	0.232	0.325	-0.052	0.267	3.906
-0.715	-0.507	-0.863	-0.352	-0.112	0.153	0.311	0.160	0.484	0.279	0.381	0.320	0.050	0.003	0.027	-0.465	0.665	0.252	0.274	-0.338	-0.475	0.082	-0.257	0.095	-0.016	0.109	-0.056	0.200	7.812
-0.771	-0.401	-0.790	-0.253	0.016	0.188	0.439	0.059	0.344	0.361	0.348	0.319	0.226	0.184	-0.093	-0.331	0.772	0.246	0.353	-0.220	-0.341	0.124	-0.323	0.094	-0.299	-0.154	-0.100	0.092	11.719
-0.763	-0.314	-0.639	-0.178	0.116	0.225	0.551	0.019	0.269	0.452	0.325	0.304	0.360	0.328	-0.188	-0.218	0.818	0.205	0.382	-0.112	-0.235	0.134	-0.399	0.055	-0.579	-0.436	-0.178	-0.046	15.625
-0.696	-0.255	-0.440	-0.136	0.177	0.267	0.638	0.046	0.266	0.547	0.317	0.278	0.438	0.418	-0.235	-0.147	0.804	0.142	0.358	-0.033	-0.178	0.106	-0.474	-0.016	-0.820	-0.707	-0.283	-0.201	19.531
-0.586	-0.225	-0.228	-0.127	0.192	0.317	0.697	0.141	0.337	0.646	0.331	0.245	0.451	0.444	-0.225	-0.130	0.735	0.070	0.285	-0.001	-0.184	0.041	-0.538	-0.110	-0.997	-0.941	-0.409	-0.357	23.438
-0.452	-0.220	-0.032	-0.148	0.159	0.373	0.733	0.295	0.475	0.751	0.375	0.211	0.406	0.408	-0.163	-0.169	0.621	-0.003	0.172	-0.024	-0.257	-0.061	-0.587	-0.218	-1.095	-1.120	-0.546	-0.500	27.344
-0.316	-0.231	0.127	-0.191	0.084	0.434	0.758	0.496	0.669	0.866	0.457	0.183	0.315	0.321	-0.071	-0.256	0.477	-0.074	0.030	-0.101	-0.394	-0.196	-0.621	-0.332	-1.111	-1.233	-0.685	-0.617	31.250
-0.198	-0.248	0.240	-0.246	-0.021	0.494	0.781	0.724	0.899	0.994	0.577	0.169	0.199	0.201	0.019	-0.373	0.320	-0.141	-0.125	-0.225	-0.581	-0.356	-0.647	-0.445	-1.053	-1.276	-0.817	-0.698	35.156
-0.114	-0.259	0.306	-0.301	-0.141	0.550	0.813	0.956	1.142	1.133	0.728	0.169	0.081	0.069	0.076	-0.500	0.168	-0.208	-0.279	-0.378	-0.796	-0.533	-0.673	-0.548	-0.936	-1.254	-0.928	-0.736	39.062
-0.075	-0.259	0.329	-0.349	-0.262	0.596	0.857	1.167	1.372	1.277	0.895	0.181	-0.019	-0.054	0.076	-0.614	0.036	-0.276	-0.417	-0.540	-1.014	-0.712	-0.705	-0.632	-0.777	-1.172	-1.005	-0.730	42.969
-0.082	-0.245	0.318	-0.384	-0.369	0.630	0.913	1.336	1.560	1.414	1.054	0.196	-0.086	-0.152	0.014	-0.697	-0.070	-0.343	-0.526	-0.690	-1.210	-0.880	-0.750	-0.689	-0.597	-1.041	-1.038	-0.681	46.875
-0.130	-0.221	0.280	-0.406	-0.451	0.650	0.973	1.450	1.686	1.529	1.178	0.201	-0.115	-0.215	-0.097	-0.742	-0.148	-0.406	-0.601	-0.814	-1.363	-1.021	-0.807	-0.711	-0.410	-0.868	-1.014	-0.596	50.781
-0.206	-0.193	0.221	-0.418	-0.507	0.660	1.028	1.501	1.736	1.609	1.243	0.179	-0.109	-0.241	-0.225	-0.748	-0.204	-0.457	-0.637	-0.903	-1.463	-1.120	-0.868	-0.689	-0.228	-0.659	-0.929	-0.480	54.688
-0.296	-0.174	0.149	-0.428	-0.538	0.659	1.067	1.495	1.709	1.645	1.228	0.112	-0.080	-0.236	-0.335	-0.726	-0.250	-0.490	-0.637	-0.956	-1.507	-1.165	-0.924	-0.619	-0.055	-0.419	-0.781	-0.340	58.594
-0.383	-0.173	0.068	-0.446	-0.553	0.654	1.080	1.447	1.618	1.636	1.131	-0.014	-0.046	-0.210	-0.397	-0.690	-0.295	-0.499	-0.607	-0.982	-1.501	-1.153	-0.962	-0.501	0.108	-0.150	-0.574	-0.183	62.500
-0.455	-0.200	-0.014	-0.482	-0.565	0.647	1.065	1.382	1.493	1.590	0.960	-0.211	-0.023	-0.179	-0.397	-0.659	-0.347	-0.486	-0.555	-0.996	-1.463	-1.087	-0.976	-0.340	0.265	0.147	-0.319	-0.016	66.406
-0.503	-0.259	-0.092	-0.542	-0.584	0.644	1.025	1.335	1.379	1.528	0.745	-0.477	-0.029	-0.160	-0.347	-0.654	-0.410	-0.458	-0.496	-1.017	-1.414	-0.980	-0.964	-0.148	0.422	0.472	-0.028	0.159	70.312
-0.532	-0.355	-0.160	-0.632	-0.622	0.650	0.974	1.346	1.332	1.480	0.531	-0.804	-0.070	-0.167	-0.278	-0.692	-0.487	-0.431	-0.445	-1.065	-1.381	-0.856	-0.934	0.060	0.585	0.825	0.287	0.338	74.219
-0.552	-0.491	-0.223	-0.755	-0.685	0.669	0.932	1.459	1.413	1.484	0.372	-1.169	-0.145	-0.212	-0.234	-0.791	-0.584	-0.425	-0.424	-1.160	-1.387	-0.745	-0.902	0.269	0.763	1.207	0.616	0.522	78.125
-0.585	-0.671	-0.293	-0.911	-0.777	0.700	0.927	1.714	1.682	1.584	0.328	-1.535	-0.243	-0.305	-0.265	-0.966	-0.710	-0.461	-0.452	-1.319	-1.455	-0.676	-0.891	0.471	0.962	1.623	0.957	0.718	82.031
-0.663	-0.901	-0.389	-1.104	-0.901	0.736	0.989	2.142	2.186	1.821	0.455	-1.856	-0.344	-0.447	-0.412	-1.232	-0.878	-0.558	-0.550	-1.556	-1.603	-0.679	-0.921	0.660	1.193	2.084	1.318	0.938	85.938
-0.819	-1.192	-0.542	-1.340	-1.061	0.767	1.145	2.763	2.957	2.229	0.800	-2.077	-0.424	-0.639	-0.700	-1.600	-1.107	-0.726	-0.734	-1.885	-1.843	-0.772	-1.012	0.844	1.466	2.602	1.714	1.202	89.844
-1.087	-1.552	-0.777	-1.628	-1.261	0.776	1.414	3.576	4.002	2.831	1.390	-2.142	-0.456	-0.877	-1.132	-2.079	-1.417	-0.968	-1.017	-2.311	-2.180	-0.966	-1.174	1.033	1.789	3.189	2.163	1.532	93.750
-1.490	-1.990	-1.113	-1.974	-1.504	0.746	1.803	4.562	5.302	3.631	2.229	-2.009	-0.419	-1.150	-1.689	-2.666	-1.824	-1.278	-1.403	-2.836	-2.610	-1.259	-1.409	1.242	2.164	3.853	2.687	1.945	97.656
-2.032	-2.507	-1.554	-2.382	-1.789	0.662	2.306	5.679	6.807	4.612	3.295	-1.651	-0.295	-1.447	-2.335	-3.349	-2.340	-1.643	-1.890	-3.450	-3.118	-1.641	-1.713	1.484	2.585	4.588	3.294	2.451	101.562
-2.698	-3.089	-2.085	-2.844	-2.110	0.519	2.902	6.863	8.438	5.736	4.533	-1.072	-0.078	-1.748	-3.020	-4.099	-2.960	-2.044	-2.461	-4.125	-3.677	-2.088	-2.073	1.765	3.035	5.374	3.985	3.043	105.469
-3.446	-3.709	-2.675	-3.339	-2.449	0.318	3.552	8.033	10.089	6.937	5.857	-0.309	0.227	-2.028	-3.693	-4.868	-3.658	-2.455	-3.087	-4.821	-4.246	-2.567	-2.466	2.082	3.488	6.172	4.736	3.694	109.375
-4.213	-4.325	-3.278	-3.833	-2.782	0.071	4.208	9.097	11.635	8.129	7.158	0.565	0.605	-2.257	-4.306	-5.595	-4.385	-2.846	-3.718	-5.477	-4.772	-3.033	-2.862	2.424	3.910	6.926	5.507	4.351	113.281
-4.923	-4.881	-3.841	-4.281	-3.078	-0.200	4.812	9.958	12.940	9.210	8.309	1.448	1.032	-2.405	-4.816	-6.204	-5.066	-3.182	-4.293	-6.022	-5.198	-3.436	-3.223	2.771	4.261	7.569	6.240	4.944	117.188
-5.501	-5.316	-4.310	-4.631	-3.305	-0.472	5.305	10.530	13.878	10.076	9.182	2.218	1.475	-2.445	-5.187	-6.623	-5.613	-3.424	-4.742	-6.382	-5.467	-3.725	-3.507	3.096	4.505	8.028	6.863	5.388	121.094
-5.881	-5.573	-4.641	-4.836	-3.436	-0.720	5.634	10.746	14.346	10.631	9.667	2.760	1.896	-2.359	-5.388	-6.786	-5.939	-3.537	-4.996	-6.495	-5.535	-3.854	-3.673	3.372	4.609	8.241	7.307	5.603	125.000
-6.023	-5.609	-4.806	-4.859	-3.453	-0.922	5.758	10.573	14.282	10.804	9.689	2.977	2.255	-2.142	-5.394	-6.654	-5.973	-3.492	-5.003	-6.319	-5.379	-3.788	-3.686	3.569	4.557	8.164	7.512	5.526	128.906
-5.915	-5.405	-4.799	-4.686	-3.354	-1.065	5.654	10.019	13.681	10.561	9.224	2.818	2.516	-1.810	-5.192	-6.219	-5.681	-3.273	-4.734	-5.849	-5.000	-3.518	-3.528	3.667	4.349	7.784	7.439	5.130	132.812
-5.574	-4.972	-4.638	-4.327	-3.155	-1.142	5.322	9.139	12.603	9.916	8.313	2.284	2.647	-1.394	-4.783	-5.514	-5.071	-2.886	-4.200	-5.117	-4.435	-3.057	-3.199	3.649	4.003	7.126	7.083	4.432	136.719
-5.047	-4.353	-4.357	-3.818	-2.886	-1.159	4.784	8.026	11.165	8.930	7.053	1.437	2.627	-0.945	-4.189	-4.608	-4.198	-2.357	-3.444	-4.195	-3.745	-2.449	-2.720	3.511	3.560	6.254	6.471	3.494	140.625
-4.399	-3.618	-4.004	-3.221	-2.593	-1.128	4.082	6.807	9.531	7.707	5.594	0.388	2.442	-0.526	-3.455	-3.601	-3.155	-1.735	-2.546	-3.188	-3.018	-1.761	-2.137	3.258	3.075	5.262	5.666	2.424	144.531
-3.706	-2.856	-3.629	-2.614	-2.327	-1.072	3.274	5.622	7.892	6.377	4.115	-0.715	2.091	-0.205	-2.648	-2.608	-2.061	-1.085	-1.605	-2.214	-2.349	-1.076	-1.511	2.908	2.613	4.270	4.753	1.356	148.438
-3.045	-2.162	-3.280	-2.076	-2.138	-1.014	2.425	4.606	6.439	5.087	2.798	-1.714	1.586	-0.044	-1.848	-1.746	-1.043	-0.481	-0.735	-1.396	-1.837	-0.483	-0.911	2.485	2.241	3.400	3.836	0.433	152.344
-2.483	-1.623	-2.995	-1.681	-2.065	-0.980	1.606	3.877	5.343	3.973	1.807	-2.465	0.950	-0.091	-1.142	-1.116	-0.216	0.008	-0.041	-0.837	-1.559	-0.061	-0.405	2.023	2.017	2.766	3.017	-0.215	156.250
-2.074	-1.303	-2.798	-1.479	-2.135	-0.985	0.880	3.515	4.724	3.147	1.258	-2.860	0.217	-0.371	-0.608	-0.790	0.329	0.321	0.393	-0.606	-1.567	0.128	-0.053	1.557	1.986	2.455	2.386	-0.492	160.156
-1.852	-1.237	-2.703	-1.497	-2.353	-1.040	0.299	3.556	4.648	2.682	1.209	-2.842	-0.571	-0.883	-0.304	-0.804	0.539	0.423	0.514	-0.736	-1.877	0.055	0.108	1.123	2.171	2.518	2.005	-0.348	164.062
-1.830	-1.425	-2.709	-1.728	-2.707	-1.142	-0.102	3.990	5.108	2.605	1.649	-2.414	-1.369	-1.596	-0.260	-1.154	0.402	0.305	0.307	-1.214	-2.467	-0.277	0.066	0.753	2.573	2.964	1.907	0.212	167.969
-2.001	-1.833	-2.807	-2.141	-3.167	-1.282	-0.307	4.761	6.039	2.894	2.508	-1.635	-2.134	-2.459	-0.465	-1.798	-0.053	-0.015	-0.201	-1.990	-3.283	-0.833	-0.168	0.471	3.170	3.760	2.086	1.135	171.875
-2.338	-2.402	-2.975	-2.683	-3.694	-1.441	-0.326	5.778	7.321	3.484	3.669	-0.607	-2.830	-3.404	-0.878	-2.669	-0.764	-0.494	-0.951	-2.984	-4.251	-1.552	-0.555	0.291	3.921	4.837	2.508	2.327	175.781
-2.798	-3.059	-3.189	-3.290	-4.243	-1.601	-0.184	6.931	8.806	4.285	4.987	0.545	-3.429	-4.359	-1.431	-3.679	-1.647	-1.071	-1.858	-4.105	-5.284	-2.357	-1.042	0.216	4.769	6.101	3.112	3.669	179.688
-3.326	-3.729	-3.419	-3.899	-4.772	-1.747	0.081	8.103	10.336	5.189	6.317	1.693	-3.916	-5.256	-2.048	-4.735	-2.606	-1.680	-2.825	-5.254	-6.298	-3.166	-1.565	0.239	5.649	7.446	3.821	5.037	183.594
-3.861	-4.346	-3.639	-4.457	-5.247	-1.865	0.421	9.190	11.763	6.090	7.526	2.723	-4.287	-6.038	-2.654	-5.752	-3.544	-2.258	-3.755	-6.346	-7.221	-3.905	-2.064	0.344	6.495	8.761	4.559	6.316	187.500
-4.344	-4.867	-3.827	-4.926	-5.640	-1.947	0.792	10.108	12.971	6.899	8.515	3.552	-4.548	-6.666	-3.188	-6.656	-4.377	-2.752	-4.563	-7.310	-8.000	-4.514	-2.486	0.510	7.247	9.951	5.255	7.416	191.406
-4.730	-5.268	-3.969	-5.288	-5.938	-1.992	1.153	10.804	13.881	7.549	9.224	4.135	-4.710	-7.118	-3.610	-7.397	-5.041	-3.128	-5.188	-8.102	-8.604	-4.954	-2.795	0.716	7.863	10.940	5.852	8.276	195.312
-4.987	-5.550	-4.056	-5.540	-6.136	-1.997	1.475	11.259	14.457	8.004	9.631	4.459	-4.787	-7.392	-3.898	-7.951	-5.501	-3.368	-5.597	-8.698	-9.021	-5.208	-2.972	0.941	8.314	11.680	6.314	8.870	199.219
-5.101	-5.731	-4.087	-5.694	-6.239	-1.964	1.741	11.479	14.700	8.254	9.747	4.544	-4.795	-7.500	-4.048	-8.313	-5.751	-3.475	-5.788	-9.099	-9.261	-5.283	-3.019	1.168	8.591	12.154	6.625	9.198	203.125
-5.078	-5.835	-4.066	-5.768	-6.257	-1.893	1.944	11.494	14.642	8.316	9.607	4.427	-4.745	-7.466	-4.066	-8.502	-5.808	-3.463	-5.787	-9.323	-9.344	-5.206	-2.954	1.383	8.704	12.370	6.789	9.285	207.031
-4.937	-5.887	-3.999	-5.784	-6.206	-1.785	2.090	11.343	14.333	8.220	9.261	4.158	-4.649	-7.321	-3.967	-8.545	-5.711	-3.358	-5.639	-9.397	-9.301	-5.015	-2.804	1.579	8.673	12.361	6.823	9.170	210.938
-4.708	-5.903	-3.896	-5.759	-6.102	-1.645	2.189	11.073	13.836	8.010	8.763	3.783	-4.516	-7.095	-3.773	-8.476	-5.504	-3.187	-5.397	-9.356	-9.163	-4.756	-2.604	1.750	8.529	12.172	6.756	8.900	214.844
-4.424	-5.893	-3.764	-5.707	-5.965	-1.481	2.255	10.726	13.213	7.730	8.166	3.346	-4.352	-6.819	-3.509	-8.332	-5.234	-2.979	-5.113	-9.236	-8.961	-4.471	-2.383	1.896	8.304	11.855	6.619	8.523	218.750
-4.119	-5.857	-3.613	-5.639	-5.813	-1.305	2.303	10.340	12.527	7.422	7.518	2.882	-4.161	-6.517	-3.205	-8.143	-4.937	-2.759	-4.833	-9.070	-8.722	-4.197	-2.171	2.020	8.029	11.461	6.447	8.083	222.656
-3.820	-5.792	-3.452	-5.561	-5.660	-1.132	2.347	9.947	11.834	7.123	6.865	2.416	-3.946	-6.207	-2.892	-7.936	-4.644	-2.547	-4.587	-8.882	-8.467	-3.957	-1.986	2.128	7.728	11.034	6.269	7.618	226.562
-3.551	-5.700	-3.291	-5.479	-5.520	-0.978	2.400	9.570	11.181	6.863	6.244	1.971	-3.709	-5.901	-2.602	-7.731	-4.377	-2.358	-4.393	-8.694	-8.211	-3.765	-1.839	2.229	7.419	10.605	6.112	7.157	230.469
-3.326	-5.587	-3.137	-5.400	-5.400	-0.856	2.472	9.229	10.606	6.662	5.692	1.566	-3.448	-5.603	-2.360	-7.546	-4.151	-2.204	-4.258	-8.517	-7.964	-3.622	-1.737	2.335	7.113	10.199	5.999	6.724	234.375
-3.157	-5.464	-3.001	-5.330	-5.304	-0.774	2.573	8.937	10.138	6.536	5.237	1.218	-3.158	-5.313	-2.186	-7.391	-3.976	-2.090	-4.179	-8.359	-7.727	-3.524	-1.680	2.456	6.818	9.827	5.944	6.335	238.281
-3.054	-5.350	-2.894	-5.275	-5.229	-0.735	2.710	8.702	9.791	6.492	4.900	0.939	-2.832	-5.024	-2.092	-7.275	-3.858	-2.018	-4.147	-8.220	-7.500	-3.459	-1.664	2.604	6.534	9.498	5.958	6.001	242.188
-3.021	-5.263	-2.829	-5.238	-5.167	-0.733	2.887	8.528	9.568	6.531	4.692	0.740	-2.465	-4.728	-2.076	-7.201	-3.796	-1.985	-4.148	-8.094	-7.276	-3.413	-1.686	2.783	6.262	9.214	6.043	5.728	246.094
-3.056	-5.218	-2.815	-5.220	-5.109	-0.759	3.106	8.415	9.463	6.647	4.609	0.619	-2.055	-4.418	-2.133	-7.168	-3.784	-1.983	-4.169	-7.972	-7.048	-3.376	-1.741	2.995	6.003	8.977	6.192	5.516	250.000
-3.154	-5.221	-2.858	-5.216	-5.042	-0.799	3.363	8.357	9.460	6.828	4.636	0.568	-1.607	-4.090	-2.248	-7.166	-3.813	-2.005	-4.194	-7.843	-6.808	-3.338	-1.823	3.232	5.760	8.786	6.393	5.358	253.906
-3.299	-5.268	-2.956	-5.220	-4.958	-0.841	3.647	8.349	9.538	7.056	4.746	0.567	-1.137	-3.744	-2.407	-7.184	-3.867	-2.041	-4.211	-7.693	-6.550	-3.290	-1.925	3.482	5.536	8.640	6.622	5.244	257.812
-3.473	-5.347	-3.100	-5.217	-4.851	-0.875	3.941	8.379	9.673	7.305	4.903	0.591	-0.670	-3.388	-2.592	-7.200	-3.930	-2.083	-4.208	-7.509	-6.272	-3.229	-2.038	3.728	5.340	8.538	6.850	5.159	261.719
-3.652	-5.431	-3.274	-5.191	-4.720	-0.895	4.223	8.436	9.839	7.547	5.067	0.608	-0.235	-3.034	-2.786	-7.191	-3.984	-2.123	-4.175	-7.276	-5.974	-3.151	-2.151	3.952	5.183	8.476	7.049	5.086	265.625
-3.814	-5.491	-3.461	-5.125	-4.567	-0.900	4.468	8.503	10.010	7.753	5.198	0.589	0.131	-2.698	-2.978	-7.131	-4.010	-2.153	-4.104	-6.984	-5.655	-3.051	-2.250	4.139	5.075	8.447	7.189	5.008	269.531
-3.943	-5.497	-3.641	-5.001	-4.398	-0.894	4.652	8.565	10.161	7.893	5.264	0.512	0.399	-2.395	-3.158	-6.995	-3.989	-2.166	-3.984	-6.621	-5.317	-2.926	-2.323	4.276	5.020	8.443	7.248	4.909	273.438
-4.031	-5.426	-3.801	-4.813	-4.223	-0.887	4.756	8.605	10.273	7.948	5.243	0.365	0.549	-2.136	-3.324	-6.763	-3.906	-2.156	-3.809	-6.182	-4.962	-2.772	-2.358	4.360	5.021	8.452	7.213	4.779	277.344
-4.078	-5.266	-3.926	-4.560	-4.052	-0.888	4.770	8.610	10.329	7.904	5.129	0.153	0.573	-1.931	-3.475	-6.430	-3.753	-2.121	-3.576	-5.667	-4.593	-2.585	-2.346	4.393	5.069	8.462	7.088	4.615	281.250
-4.092	-5.027	-4.008	-4.261	-3.899	-0.911	4.694	8.571	10.319	7.764	4.931	-0.105	0.482	-1.779	-3.612	-6.002	-3.530	-2.060	-3.286	-5.085	-4.216	-2.366	-2.287	4.384	5.153	8.463	6.887	4.423	285.156
-4.082	-4.732	-4.047	-3.940	-3.774	-0.967	4.538	8.483	10.240	7.540	4.674	-0.380	0.301	-1.676	-3.732	-5.503	-3.248	-1.974	-2.947	-4.454	-3.838	-2.120	-2.182	4.347	5.255	8.450	6.639	4.220	289.062
-4.065	-4.418	-4.045	-3.632	-3.690	-1.065	4.318	8.346	10.095	7.254	4.388	-0.634	0.064	-1.613	-3.829	-4.966	-2.924	-1.866	-2.572	-3.799	-3.468	-1.853	-2.040	4.299	5.358	8.423	6.382	4.027	292.969
-4.056	-4.125	-4.017	-3.370	-3.650	-1.210	4.058	8.161	9.890	6.934	4.105	-0.834	-0.187	-1.576	-3.897	-4.429	-2.583	-1.740	-2.175	-3.147	-3.115	-1.574	-1.875	4.259	5.450	8.387	6.154	3.870	296.875
-4.068	-3.885	-3.982	-3.179	-3.656	-1.403	3.784	7.934	9.635	6.610	3.851	-0.956	-0.409	-1.548	-3.928	-3.928	-2.245	-1.597	-1.775	-2.524	-2.786	-1.295	-1.699	4.243	5.523	8.351	5.993	3.772	300.781
-4.113	-3.718	-3.963	-3.069	-3.698	-1.636	3.523	7.674	9.345	6.311	3.643	-0.989	-0.567	-1.512	-3.921	-3.490	-1.930	-1.442	-1.386	-1.950	-2.485	-1.026	-1.528	4.264	5.572	8.326	5.924	3.747	304.688
-4.198	-3.630	-3.981	-3.038	-3.759	-1.895	3.302	7.393	9.036	6.062	3.490	-0.939	-0.634	-1.452	-3.887	-3.131	-1.648	-1.280	-1.021	-1.439	-2.212	-0.776	-1.378	4.326	5.595	8.317	5.957	3.798	308.594
-4.321	-3.611	-4.047	-3.068	-3.818	-2.160	3.145	7.107	8.732	5.881	3.393	-0.821	-0.593	-1.354	-3.845	-2.853	-1.408	-1.121	-0.691	-0.995	-1.963	-0.554	-1.262	4.427	5.593	8.323	6.088	3.914	312.500
-4.475	-3.641	-4.165	-3.134	-3.851	-2.407	3.070	6.839	8.457	5.784	3.348	-0.660	-0.440	-1.208	-3.828	-2.650	-1.210	-0.981	-0.405	-0.616	-1.731	-0.367	-1.193	4.558	5.561	8.337	6.294	4.074	316.406
-4.646	-3.696	-4.327	-3.205	-3.834	-2.612	3.092	6.610	8.237	5.777	3.352	-0.482	-0.181	-1.010	-3.866	-2.510	-1.058	-0.873	-0.170	-0.296	-1.505	-0.220	-1.177	4.704	5.498	8.344	6.547	4.248	320.312
-4.820	-3.752	-4.517	-3.255	-3.751	-2.754	3.215	6.439	8.093	5.861	3.399	-0.309	0.171	-0.759	-3.985	-2.421	-0.956	-0.812	0.006	-0.026	-1.279	-0.116	-1.217	4.852	5.400	8.330	6.809	4.405	324.219
-4.985	-3.791	-4.721	-3.264	-3.595	-2.818	3.435	6.344	8.038	6.033	3.488	-0.159	0.595	-0.463	-4.194	-2.373	-0.908	-0.806	0.116	0.203	-1.045	-0.053	-1.308	4.989	5.268	8.282	7.047	4.516	328.125
-5.133	-3.804	-4.924	-3.224	-3.368	-2.796	3.741	6.331	8.075	6.281	3.613	-0.041	1.068	-0.133	-4.484	-2.359	-0.923	-0.857	0.157	0.395	-0.802	-0.026	-1.438	5.107	5.108	8.195	7.233	4.561	332.031
-5.264	-3.788	-5.115	-3.135	-3.086	-2.688	4.113	6.401	8.197	6.590	3.770	0.043	1.564	0.214	-4.828	-2.378	-1.006	-0.957	0.129	0.550	-0.556	-0.026	-1.587	5.203	4.928	8.067	7.348	4.528	335.938
-5.383	-3.747	-5.285	-3.009	-2.769	-2.500	4.528	6.547	8.387	6.938	3.950	0.096	2.054	0.560	-5.192	-2.430	-1.154	-1.092	0.039	0.667	-0.313	-0.042	-1.735	5.281	4.742	7.908	7.386	4.419	339.844
-5.499	-3.688	-5.426	-2.859	-2.440	-2.247	4.959	6.752	8.618	7.297	4.137	0.120	2.514	0.889	-5.536	-2.511	-1.354	-1.241	-0.093	0.745	-0.083	-0.058	-1.859	5.345	4.567	7.730	7.346	4.242	343.750
-5.622	-3.618	-5.526	-2.700	-2.120	-1.946	5.379	6.991	8.858	7.638	4.308	0.116	2.920	1.186	-5.826	-2.612	-1.580	-1.383	-0.245	0.787	0.127	-0.063	-1.941	5.400	4.415	7.546	7.237	4.010	347.656
-5.756	-3.541	-5.573	-2.545	-1.823	-1.618	5.765	7.237	9.066	7.927	4.435	0.079	3.254	1.444	-6.041	-2.718	-1.800	-1.496	-0.385	0.801	0.313	-0.043	-1.965	5.451	4.300	7.368	7.071	3.740	351.562
-5.896	-3.457	-5.557	-2.395	-1.555	-1.281	6.097	7.456	9.205	8.134	4.484	-0.001	3.505	1.664	-6.171	-2.805	-1.973	-1.564	-0.483	0.803	0.480	0.011	-1.928	5.498	4.226	7.206	6.863	3.446	355.469
-6.030	-3.359	-5.476	-2.250	-1.312	-0.955	6.359	7.620	9.238	8.235	4.425	-0.141	3.669	1.852	-6.222	-2.846	-2.067	-1.578	-0.516	0.816	0.636	0.104	-1.830	5.540	4.195	7.064	6.629	3.138	359.375
-6.142	-3.242	-5.340	-2.102	-1.085	-0.655	6.544	7.703	9.144	8.216	4.235	-0.360	3.754	2.020	-6.211	-2.818	-2.056	-1.535	-0.468	0.861	0.795	0.241	-1.679	5.579	4.203	6.945	6.387	2.824	363.281
-6.212	-3.099	-5.171	-1.941	-0.863	-0.391	6.654	7.693	8.917	8.077	3.908	-0.673	3.775	2.183	-6.166	-2.705	-1.935	-1.442	-0.336	0.957	0.971	0.420	-1.485	5.616	4.244	6.851	6.156	2.506	367.188
-6.228	-2.929	-4.996	-1.762	-0.635	-0.169	6.695	7.591	8.570	7.837	3.456	-1.087	3.753	2.353	-6.116	-2.506	-1.715	-1.309	-0.132	1.112	1.173	0.639	-1.260	5.656	4.310	6.779	5.954	2.186	371.094
-6.186	-2.734	-4.844	-1.566	-0.394	0.009	6.684	7.415	8.140	7.527	2.911	-1.598	3.713	2.540	-6.086	-2.234	-1.425	-1.155	0.123	1.323	1.405	0.890	-1.019	5.705	4.395	6.728	5.800	1.868	375.000
-6.097	-2.527	-4.737	-1.361	-0.141	0.147	6.642	7.194	7.676	7.189	2.323	-2.182	3.678	2.742	-6.092	-1.919	-1.109	-0.997	0.397	1.574	1.659	1.163	-0.774	5.771	4.490	6.697	5.705	1.557	378.906
-5.980	-2.327	-4.685	-1.162	0.120	0.249	6.590	6.963	7.235	6.868	1.751	-2.802	3.665	2.953	-6.137	-1.604	-0.815	-0.853	0.657	1.835	1.921	1.442	-0.538	5.856	4.587	6.682	5.677	1.266	382.812
-5.859	-2.154	-4.685	-0.989	0.378	0.325	6.550	6.757	6.869	6.603	1.252	-3.405	3.686	3.160	-6.211	-1.333	-0.592	-0.739	0.867	2.073	2.169	1.711	-0.326	5.961	4.683	6.682	5.712	1.007	386.719
-5.756	-2.030	-4.724	-0.859	0.624	0.382	6.537	6.602	6.614	6.421	0.872	-3.936	3.741	3.346	-6.297	-1.148	-0.476	-0.666	1.001	2.254	2.381	1.949	-0.146	6.079	4.773	6.693	5.799	0.794	390.625
-5.685	-1.967	-4.783	-0.781	0.849	0.430	6.557	6.510	6.481	6.327	0.629	-4.347	3.828	3.498	-6.373	-1.074	-0.486	-0.635	1.045	2.356	2.537	2.141	-0.004	6.204	4.854	6.708	5.916	0.635	394.531
-5.644	-1.967	-4.838	-0.756	1.048	0.476	6.606	6.474	6.455	6.308	0.514	-4.611	3.937	3.608	-6.418	-1.118	-0.615	-0.643	1.003	2.369	2.633	2.280	0.101	6.324	4.927	6.717	6.035	0.524	398.438
-5.621	-2.020	-4.872	-0.773	1.223	0.525	6.672	6.470	6.491	6.329	0.486	-4.726	4.059	3.678	-6.420	-1.260	-0.832	-0.675	0.897	2.304	2.673	2.371	0.179	6.432	4.990	6.706	6.124	0.443	402.344
-5.594	-2.100	-4.869	-0.808	1.380	0.578	6.734	6.463	6.528	6.345	0.480	-4.726	4.184	3.722	-6.369	-1.460	-1.084	-0.713	0.765	2.189	2.680	2.432	0.248	6.524	5.043	6.657	6.153	0.360	406.250
-5.538	-2.175	-4.828	-0.834	1.530	0.635	6.772	6.412	6.498	6.303	0.418	-4.672	4.304	3.759	-6.268	-1.665	-1.306	-0.732	0.653	2.063	2.684	2.491	0.330	6.600	5.086	6.552	6.098	0.236	410.156
-5.434	-2.208	-4.752	-0.821	1.686	0.694	6.767	6.281	6.345	6.161	0.228	-4.641	4.416	3.812	-6.122	-1.819	-1.437	-0.707	0.611	1.971	2.718	2.581	0.447	6.664	5.119	6.378	5.943	0.027	414.062
-5.271	-2.168	-4.654	-0.746	1.860	0.752	6.707	6.047	6.033	5.892	-0.144	-4.714	4.517	3.903	-5.937	-1.874	-1.428	-0.621	0.674	1.953	2.812	2.731	0.616	6.717	5.140	6.125	5.684	-0.299	417.969
-5.046	-2.033	-4.544	-0.596	2.058	0.808	6.589	5.710	5.560	5.493	-0.719	-4.953	4.605	4.044	-5.721	-1.800	-1.258	-0.466	0.863	2.036	2.986	2.959	0.844	6.758	5.143	5.793	5.326	-0.763	421.875
-4.771	-1.797	-4.434	-0.368	2.283	0.863	6.421	5.289	4.954	4.983	-1.478	-5.388	4.679	4.239	-5.479	-1.592	-0.937	-0.246	1.173	2.228	3.241	3.264	1.121	6.780	5.120	5.392	4.883	-1.359	425.781
-4.462	-1.470	-4.330	-0.076	2.535	0.921	6.219	4.823	4.271	4.403	-2.361	-6.005	4.736	4.476	-5.214	-1.269	-0.503	0.021	1.575	2.518	3.566	3.627	1.426	6.766	5.060	4.934	4.374	-2.062	429.688
-4.141	-1.077	-4.230	0.259	2.805	0.988	6.004	4.362	3.581	3.806	-3.285	-6.752	4.774	4.737	-4.931	-0.867	-0.012	0.306	2.023	2.878	3.935	4.013	1.728	6.697	4.951	4.440	3.819	-2.822	433.594
-3.827	-0.654	-4.128	0.609	3.082	1.072	5.796	3.955	2.953	3.251	-4.152	-7.543	4.790	4.997	-4.635	-0.435	0.469	0.578	2.461	3.269	4.314	4.376	1.989	6.552	4.784	3.930	3.241	-3.580	437.500
-3.535	-0.241	-4.011	0.945	3.352	1.176	5.614	3.638	2.439	2.784	-4.871	-8.279	4.782	5.229	-4.337	-0.023	0.885	0.807	2.839	3.650	4.671	4.676	2.182	6.317	4.555	3.422	2.659	-4.275	441.406
-3.271	0.126	-3.870	1.240	3.601	1.299	5.467	3.426	2.070	2.438	-5.377	-8.869	4.751	5.415	-4.046	0.328	1.193	0.970	3.119	3.983	4.977	4.880	2.287	5.989	4.265	2.933	2.095	-4.854	445.312
-3.034	0.419	-3.699	1.476	3.812	1.435	5.356	3.313	1.844	2.225	-5.637	-9.242	4.697	5.542	-3.779	0.589	1.377	1.058	3.284	4.245	5.214	4.975	2.302	5.579	3.927	2.477	1.565	-5.279	449.219
-2.818	0.626	-3.499	1.646	3.974	1.572	5.272	3.272	1.736	2.135	-5.657	-9.362	4.622	5.607	-3.549	0.751	1.441	1.073	3.337	4.425	5.375	4.966	2.239	5.112	3.559	2.063	1.086	-5.536	453.125
-2.615	0.750	-3.286	1.753	4.076	1.690	5.199	3.266	1.706	2.141	-5.472	-9.228	4.527	5.616	-3.370	0.820	1.413	1.029	3.303	4.527	5.463	4.876	2.123	4.622	3.185	1.699	0.673	-5.626	457.031
-2.419	0.804	-3.081	1.804	4.114	1.773	5.117	3.253	1.705	2.204	-5.138	-8.870	4.413	5.577	-3.246	0.814	1.327	0.949	3.217	4.563	5.488	4.738	1.985	4.145	2.828	1.392	0.335	-5.570	460.938
-2.230	0.808	-2.909	1.813	4.085	1.805	5.005	3.203	1.693	2.281	-4.719	-8.342	4.275	5.503	-3.173	0.756	1.223	0.857	3.115	4.551	5.462	4.587	1.856	3.717	2.508	1.143	0.078	-5.395	464.844
-2.053	0.782	-2.789	1.792	3.993	1.777	4.842	3.097	1.644	2.333	-4.278	-7.707	4.109	5.398	-3.136	0.669	1.136	0.778	3.032	4.506	5.395	4.457	1.760	3.360	2.241	0.951	-0.103	-5.138	468.750
-1.893	0.743	-2.724	1.748	3.842	1.689	4.616	2.934	1.545	2.327	-3.863	-7.036	3.906	5.265	-3.110	0.571	1.089	0.730	2.988	4.439	5.294	4.369	1.714	3.087	2.035	0.812	-0.218	-4.836	472.656
-1.754	0.699	-2.701	1.686	3.642	1.550	4.321	2.725	1.403	2.245	-3.510	-6.390	3.657	5.099	-3.068	0.475	1.089	0.720	2.992	4.354	5.159	4.333	1.724	2.894	1.890	0.719	-0.288	-4.520	476.562
-1.635	0.652	-2.692	1.608	3.405	1.378	3.962	2.496	1.235	2.079	-3.240	-5.824	3.356	4.895	-2.983	0.387	1.132	0.748	3.038	4.250	4.992	4.344	1.784	2.769	1.802	0.663	-0.332	-4.221	480.469
-1.529	0.600	-2.660	1.514	3.147	1.197	3.552	2.277	1.066	1.835	-3.060	-5.376	3.002	4.644	-2.840	0.309	1.200	0.803	3.112	4.124	4.789	4.389	1.882	2.688	1.766	0.637	-0.372	-3.961	484.375
-1.425	0.538	-2.577	1.407	2.887	1.034	3.115	2.098	0.919	1.530	-2.969	-5.074	2.598	4.346	-2.636	0.243	1.272	0.872	3.192	3.975	4.554	4.446	2.001	2.628	1.772	0.633	-0.428	-3.757	488.281
-1.309	0.465	-2.426	1.291	2.642	0.912	2.680	1.985	0.815	1.189	-2.959	-4.930	2.158	4.003	-2.377	0.188	1.328	0.936	3.258	3.804	4.292	4.495	2.123	2.563	1.813	0.645	-0.510	-3.617	492.188
-1.173	0.383	-2.209	1.175	2.428	0.847	2.274	1.953	0.765	0.839	-3.018	-4.942	1.698	3.624	-2.081	0.147	1.353	0.983	3.296	3.618	4.012	4.515	2.229	2.475	1.882	0.666	-0.623	-3.544	496.094
-1.012	0.299	-1.947	1.070	2.256	0.845	1.919	2.006	0.773	0.508	-3.130	-5.094	1.238	3.225	-1.769	0.122	1.341	1.006	3.296	3.428	3.725	4.493	2.307	2.353	1.972	0.693	-0.762	-3.532	500.000
-0.832	0.224	-1.671	0.984	2.127	0.902	1.630	2.134	0.830	0.217	-3.273	-5.353	0.798	2.821	-1.462	0.113	1.294	1.003	3.257	3.246	3.443	4.423	2.350	2.195	2.077	0.723	-0.917	-3.567	503.906
-0.646	0.164	-1.413	0.923	2.034	1.002	1.405	2.316	0.923	-0.017	-3.421	-5.671	0.395	2.428	-1.176	0.120	1.220	0.980	3.182	3.082	3.175	4.309	2.357	2.004	2.188	0.754	-1.071	-3.625	507.812
-0.470	0.125	-1.200	0.886	1.960	1.121	1.234	2.521	1.031	-0.188	-3.544	-5.988	0.041	2.058	-0.919	0.138	1.128	0.944	3.081	2.942	2.928	4.162	2.333	1.793	2.298	0.785	-1.207	-3.679	511.719
-0.317	0.104	-1.046	0.868	1.887	1.232	1.093	2.709	1.130	-0.300	-3.614	-6.241	-0.259	1.721	-0.694	0.163	1.030	0.905	2.963	2.829	2.705	3.998	2.291	1.574	2.398	0.815	-1.310	-3.701	515.625
-0.196	0.099	-0.951	0.859	1.797	1.307	0.955	2.841	1.194	-0.366	-3.611	-6.374	-0.503	1.422	-0.496	0.187	0.935	0.875	2.843	2.740	2.506	3.836	2.243	1.361	2.481	0.843	-1.371	-3.668	519.531
-0.105	0.102	-0.902	0.850	1.675	1.325	0.796	2.879	1.195	-0.406	-3.526	-6.345	-0.695	1.162	-0.318	0.205	0.854	0.861	2.730	2.672	2.331	3.692	2.202	1.164	2.536	0.865	-1.388	-3.568	523.438
-0.035	0.111	-0.877	0.833	1.520	1.276	0.596	2.798	1.114	-0.442	-3.365	-6.141	-0.842	0.941	-0.153	0.217	0.798	0.866	2.635	2.618	2.178	3.575	2.177	0.989	2.556	0.875	-1.369	-3.405	527.344
0.029	0.126	-0.852	0.810	1.339	1.164	0.350	2.590	0.938	-0.496	-3.153	-5.780	-0.952	0.758	0.001	0.226	0.779	0.892	2.565	2.574	2.047	3.485	2.168	0.833	2.532	0.860	-1.334	-3.199	531.250
0.105	0.158	-0.802	0.789	1.154	1.010	0.066	2.264	0.664	-0.582	-2.924	-5.307	-1.034	0.612	0.147	0.241	0.808	0.935	2.523	2.540	1.938	3.416	2.167	0.686	2.454	0.805	-1.307	-2.988	535.156
0.205	0.224	-0.712	0.788	0.993	0.847	-0.237	1.849	0.306	-0.711	-2.724	-4.795	-1.096	0.503	0.286	0.275	0.895	0.990	2.508	2.520	1.855	3.354	2.163	0.538	2.315	0.691	-1.317	-2.816	539.062
0.336	0.346	-0.577	0.833	0.889	0.717	-0.531	1.387	-0.115	-0.881	-2.598	-4.326	-1.144	0.430	0.419	0.344	1.043	1.051	2.517	2.521	1.804	3.285	2.140	0.376	2.110	0.501	-1.394	-2.735	542.969
0.495	0.544	-0.400	0.946	0.868	0.657	-0.790	0.927	-0.566	-1.086	-2.584	-3.983	-1.185	0.394	0.554	0.463	1.251	1.114	2.547	2.554	1.791	3.198	2.086	0.192	1.843	0.225	-1.556	-2.786	546.875
0.675	0.826	-0.195	1.142	0.948	0.694	-0.989	0.519	-1.007	-1.313	-2.704	-3.830	-1.224	0.394	0.699	0.642	1.506	1.176	2.592	2.630	1.824	3.091	1.993	-0.019	1.526	-0.137	-1.816	-2.996	550.781
0.866	1.189	0.019	1.423	1.131	0.835	-1.116	0.206	-1.397	-1.546	-2.957	-3.902	-1.269	0.427	0.863	0.881	1.792	1.237	2.648	2.752	1.902	2.965	1.864	-0.254	1.177	-0.574	-2.171	-3.371	554.688
1.060	1.609	0.225	1.773	1.398	1.067	-1.168	0.019	-1.695	-1.763	-3.319	-4.201	-1.327	0.485	1.054	1.168	2.086	1.296	2.708	2.915	2.023	2.830	1.706	-0.508	0.821	-1.063	-2.608	-3.889	558.594
1.251	2.050	0.407	2.160	1.717	1.359	-1.154	-0.026	-1.868	-1.948	-3.744	-4.691	-1.405	0.554	1.273	1.482	2.361	1.349	2.764	3.105	2.171	2.693	1.535	-0.775	0.484	-1.570	-3.102	-4.509	562.500
1.439	2.463	0.554	2.540	2.044	1.668	-1.090	0.068	-1.895	-2.082	-4.170	-5.307	-1.513	0.616	1.514	1.791	2.592	1.392	2.804	3.297	2.326	2.561	1.366	-1.047	0.192	-2.058	-3.622	-5.170	566.406
1.627	2.802	0.665	2.864	2.333	1.947	-0.996	0.284	-1.771	-2.154	-4.533	-5.963	-1.656	0.654	1.762	2.059	2.757	1.419	2.815	3.463	2.461	2.435	1.212	-1.321	-0.036	-2.488	-4.134	-5.802	570.312
1.814	3.029	0.742	3.092	2.542	2.158	-0.895	0.592	-1.509	-2.159	-4.777	-6.568	-1.834	0.647	1.994	2.253	2.841	1.421	2.784	3.572	2.548	2.312	1.084	-1.591	-0.185	-2.826	-4.605	-6.338	574.219
1.997	3.123	0.793	3.196	2.644	2.277	-0.803	0.950	-1.140	-2.101	-4.864	-7.042	-2.044	0.583	2.186	2.346	2.837	1.393	2.702	3.601	2.567	2.187	0.989	-1.851	-0.245	-3.043	-5.004	-6.720	578.125
2.168	3.082	0.828	3.165	2.628	2.298	-0.737	1.316	-0.710	-1.994	-4.786	-7.326	-2.275	0.458	2.318	2.323	2.751	1.331	2.566	3.537	2.503	2.056	0.929	-2.091	-0.212	-3.127	-5.306	-6.910	582.031
2.317	2.921	0.853	3.010	2.502	2.228	-0.705	1.644	-0.277	-1.858	-4.560	-7.395	-2.511	0.277	2.377	2.185	2.595	1.242	2.383	3.380	2.357	1.921	0.906	-2.296	-0.091	-3.074	-5.495	-6.897	585.938
2.432	2.668	0.871	2.756	2.287	2.089	-0.713	1.894	0.096	-1.721	-4.234	-7.256	-2.731	0.057	2.364	1.944	2.393	1.138	2.170	3.145	2.144	1.788	0.925	-2.448	0.110	-2.897	-5.560	-6.693	589.844
2.501	2.360	0.880	2.439	2.012	1.906	-0.762	2.035	0.353	-1.613	-3.871	-6.947	-2.911	-0.179	2.294	1.630	2.171	1.036	1.952	2.856	1.887	1.671	0.989	-2.526	0.376	-2.618	-5.500	-6.334	593.750
2.517	2.032	0.875	2.099	1.712	1.704	-0.852	2.045	0.452	-1.562	-3.541	-6.528	-3.032	-0.400	2.195	1.278	1.954	0.957	1.755	2.548	1.621	1.586	1.100	-2.512	0.688	-2.265	-5.320	-5.868	597.656
2.478	1.716	0.850	1.771	1.419	1.503	-0.978	1.922	0.371	-1.587	-3.309	-6.069	-3.077	-0.580	2.100	0.928	1.766	0.920	1.603	2.255	1.377	1.547	1.256	-2.392	1.022	-1.872	-5.032	-5.354	601.562
2.385	1.437	0.802	1.486	1.157	1.316	-1.135	1.676	0.113	-1.700	-3.219	-5.637	-3.042	-0.698	2.038	0.618	1.622	0.936	1.515	2.010	1.183	1.565	1.450	-2.167	1.356	-1.467	-4.654	-4.846	605.469
2.249	1.213	0.734	1.264	0.941	1.152	-1.318	1.334	-0.293	-1.899	-3.292	-5.287	-2.935	-0.743	2.030	0.382	1.534	1.008	1.496	1.837	1.056	1.639	1.669	-1.849	1.669	-1.078	-4.216	-4.391	609.375
2.082	1.055	0.657	1.113	0.775	1.010	-1.521	0.936	-0.797	-2.169	-3.521	-5.054	-2.778	-0.722	2.083	0.240	1.505	1.126	1.542	1.748	0.997	1.759	1.893	-1.468	1.943	-0.726	-3.750	-4.023	613.281
1.903	0.968	0.588	1.033	0.650	0.887	-1.737	0.534	-1.332	-2.487	-3.868	-4.948	-2.603	-0.654	2.186	0.200	1.534	1.274	1.638	1.738	0.993	1.902	2.098	-1.065	2.164	-0.428	-3.295	-3.760	617.188
1.730	0.949	0.548	1.012	0.551	0.778	-1.957	0.178	-1.825	-2.816	-4.276	-4.956	-2.446	-0.571	2.317	0.252	1.611	1.424	1.760	1.790	1.021	2.041	2.262	-0.687	2.327	-0.193	-2.890	-3.605	621.094
1.580	0.986	0.552	1.034	0.459	0.676	-2.172	-0.082	-2.208	-3.119	-4.677	-5.046	-2.343	-0.507	2.446	0.376	1.721	1.553	1.881	1.875	1.050	2.144	2.365	-0.379	2.429	-0.024	-2.567	-3.545	625.000
1.464	1.064	0.603	1.075	0.356	0.575	-2.368	-0.213	-2.426	-3.354	-4.999	-5.170	-2.316	-0.496	2.548	0.538	1.842	1.635	1.972	1.961	1.050	2.184	2.397	-0.177	2.477	0.080	-2.350	-3.557	628.906
1.388	1.160	0.693	1.113	0.227	0.472	-2.534	-0.196	-2.450	-3.488	-5.183	-5.277	-2.377	-0.558	2.601	0.700	1.949	1.658	2.009	2.015	0.999	2.144	2.355	-0.101	2.480	0.130	-2.250	-3.609	632.812
1.349	1.248	0.799	1.126	0.066	0.366	-2.657	-0.035	-2.275	-3.500	-5.188	-5.320	-2.518	-0.703	2.598	0.823	2.017	1.616	1.977	2.010	0.884	2.019	2.247	-0.153	2.451	0.137	-2.262	-3.666	636.719
1.342	1.307	0.893	1.097	-0.128	0.261	-2.728	0.244	-1.926	-3.384	-5.003	-5.262	-2.720	-0.924	2.542	0.880	2.029	1.516	1.873	1.931	0.706	1.819	2.091	-0.316	2.405	0.119	-2.368	-3.699	640.625
1.358	1.317	0.951	1.020	-0.346	0.161	-2.748	0.600	-1.455	-3.152	-4.642	-5.083	-2.955	-1.201	2.448	0.854	1.973	1.372	1.703	1.777	0.478	1.566	1.909	-0.562	2.354	0.091	-2.540	-3.682	644.531
1.388	1.268	0.956	0.893	-0.577	0.071	-2.720	0.979	-0.927	-2.834	-4.145	-4.783	-3.189	-1.506	2.335	0.743	1.850	1.205	1.484	1.558	0.217	1.287	1.725	-0.851	2.310	0.068	-2.745	-3.600	648.438
1.423	1.157	0.907	0.725	-0.805	-0.004	-2.658	1.326	-0.415	-2.469	-3.570	-4.379	-3.395	-1.809	2.225	0.561	1.670	1.037	1.241	1.296	-0.052	1.012	1.561	-1.143	2.279	0.060	-2.948	-3.449	652.344
1.457	0.994	0.814	0.532	-1.017	-0.063	-2.578	1.593	0.015	-2.102	-2.981	-3.903	-3.549	-2.079	2.134	0.332	1.452	0.885	0.997	1.017	-0.305	0.768	1.434	-1.400	2.265	0.074	-3.119	-3.235	656.250
1.481	0.801	0.700	0.333	-1.200	-0.105	-2.497	1.742	0.309	-1.776	-2.443	-3.395	-3.637	-2.294	2.070	0.087	1.222	0.766	0.776	0.752	-0.525	0.573	1.351	-1.593	2.270	0.111	-3.235	-2.971	660.156
1.487	0.606	0.593	0.152	-1.344	-0.130	-2.431	1.753	0.436	-1.525	-2.009	-2.898	-3.653	-2.437	2.033	-0.143	1.008	0.686	0.597	0.527	-0.695	0.436	1.315	-1.702	2.290	0.169	-3.280	-2.677	664.062
1.465	0.441	0.516	0.010	-1.443	-0.140	-2.389	1.627	0.389	-1.373	-1.717	-2.452	-3.599	-2.499	2.018	-0.329	0.838	0.648	0.467	0.363	-0.806	0.353	1.319	-1.722	2.320	0.241	-3.252	-2.375	667.969
1.413	0.335	0.486	-0.075	-1.493	-0.135	-2.376	1.378	0.181	-1.330	-1.586	-2.091	-3.484	-2.483	2.014	-0.450	0.730	0.650	0.387	0.274	-0.857	0.316	1.354	-1.659	2.355	0.322	-3.155	-2.091	671.875
1.333	0.309	0.510	-0.090	-1.494	-0.113	-2.390	1.038	-0.156	-1.393	-1.618	-1.838	-3.324	-2.396	2.014	-0.494	0.692	0.684	0.352	0.262	-0.849	0.306	1.404	-1.530	2.390	0.401	-3.003	-1.845	675.781
1.236	0.374	0.581	-0.031	-1.447	-0.074	-2.425	0.649	-0.577	-1.551	-1.796	-1.708	-3.137	-2.254	2.012	-0.460	0.722	0.739	0.350	0.320	-0.791	0.306	1.456	-1.359	2.421	0.474	-2.816	-1.658	679.688
1.140	0.527	0.685	0.096	-1.357	-0.014	-2.472	0.255	-1.031	-1.783	-2.089	-1.704	-2.944	-2.076	2.004	-0.354	0.802	0.802	0.365	0.433	-0.696	0.298	1.497	-1.176	2.444	0.531	-2.621	-1.546	683.594
1.065	0.755	0.805	0.281	-1.231	0.070	-2.523	-0.098	-1.469	-2.062	-2.458	-1.818	-2.763	-1.882	1.989	-0.192	0.912	0.858	0.385	0.580	-0.579	0.271	1.515	-1.011	2.454	0.567	-2.443	-1.515	687.500
1.029	1.034	0.922	0.505	-1.077	0.177	-2.567	-0.374	-1.844	-2.357	-2.856	-2.029	-2.610	-1.693	1.963	0.005	1.028	0.895	0.398	0.737	-0.455	0.220	1.503	-0.889	2.448	0.573	-2.308	-1.570	691.406
1.042	1.333	1.028	0.742	-0.910	0.308	-2.597	-0.548	-2.122	-2.635	-3.235	-2.308	-2.495	-1.522	1.922	0.212	1.129	0.904	0.399	0.881	-0.339	0.146	1.460	-0.828	2.418	0.545	-2.232	-1.702	695.312
1.107	1.617	1.121	0.964	-0.751	0.455	-2.605	-0.611	-2.284	-2.866	-3.551	-2.618	-2.418	-1.380	1.864	0.403	1.204	0.879	0.387	0.992	-0.244	0.060	1.389	-0.835	2.362	0.477	-2.226	-1.897	699.219
1.210	1.853	1.206	1.140	-0.618	0.607	-2.590	-0.571	-2.324	-3.023	-3.773	-2.919	-2.374	-1.273	1.794	0.555	1.248	0.825	0.365	1.055	-0.178	-0.028	1.299	-0.907	2.276	0.369	-2.287	-2.132	703.125
1.334	2.014	1.297	1.248	-0.534	0.751	-2.552	-0.447	-2.253	-3.090	-3.880	-3.172	-2.350	-1.200	1.719	0.649	1.263	0.750	0.336	1.065	-0.146	-0.103	1.202	-1.031	2.164	0.224	-2.402	-2.380	707.031
1.450	2.082	1.403	1.274	-0.514	0.873	-2.492	-0.266	-2.092	-3.059	-3.868	-3.349	-2.332	-1.160	1.656	0.677	1.250	0.667	0.304	1.022	-0.148	-0.156	1.112	-1.186	2.031	0.050	-2.549	-2.614	710.938
1.534	2.054	1.529	1.215	-0.562	0.960	-2.415	-0.057	-1.873	-2.934	-3.748	-3.429	-2.303	-1.145	1.620	0.638	1.210	0.588	0.270	0.936	-0.184	-0.182	1.042	-1.343	1.889	-0.139	-2.699	-2.809	714.844
1.565	1.943	1.670	1.084	-0.674	1.008	-2.324	0.152	-1.630	-2.728	-3.539	-3.406	-2.248	-1.146	1.621	0.540	1.142	0.524	0.230	0.820	-0.245	-0.182	0.998	-1.476	1.750	-0.327	-2.825	-2.945	718.750
1.528	1.769	1.808	0.903	-0.833	1.020	-2.224	0.343	-1.395	-2.461	-3.267	-3.284	-2.156	-1.152	1.657	0.400	1.044	0.480	0.181	0.689	-0.326	-0.161	0.982	-1.557	1.628	-0.494	-2.898	-3.011	722.656
1.422	1.559	1.916	0.702	-1.017	1.005	-2.113	0.503	-1.195	-2.157	-2.959	-3.078	-2.022	-1.149	1.714	0.233	0.915	0.454	0.119	0.559	-0.416	-0.129	0.992	-1.566	1.536	-0.619	-2.900	-3.005	726.562
1.251	1.337	1.965	0.507	-1.198	0.976	-1.991	0.625	-1.045	-1.839	-2.641	-2.809	-1.844	-1.126	1.766	0.057	0.755	0.441	0.040	0.442	-0.505	-0.093	1.018	-1.490	1.484	-0.684	-2.819	-2.929	730.469
1.033	1.126	1.932	0.339	-1.356	0.946	-1.856	0.708	-0.952	-1.527	-2.332	-2.498	-1.629	-1.072	1.786	-0.119	0.571	0.431	-0.056	0.342	-0.585	-0.060	1.051	-1.326	1.482	-0.674	-2.653	-2.791	734.375
0.787	0.936	1.802	0.211	-1.472	0.924	-1.708	0.754	-0.911	-1.239	-2.048	-2.169	-1.386	-0.982	1.745	-0.286	0.368	0.415	-0.171	0.261	-0.647	-0.036	1.081	-1.081	1.533	-0.584	-2.415	-2.603	738.281
0.538	0.773	1.579	0.123	-1.543	0.915	-1.549	0.769	-0.912	-0.987	-1.798	-1.844	-1.132	-0.855	1.630	-0.443	0.158	0.385	-0.301	0.191	-0.688	-0.023	1.100	-0.774	1.635	-0.417	-2.125	-2.378	742.188
0.309	0.637	1.286	0.071	-1.570	0.917	-1.390	0.758	-0.938	-0.780	-1.588	-1.539	-0.887	-0.702	1.441	-0.591	-0.048	0.338	-0.444	0.124	-0.710	-0.021	1.103	-0.434	1.780	-0.186	-1.812	-2.129	746.094
0.118	0.524	0.957	0.042	-1.566	0.924	-1.243	0.730	-0.973	-0.626	-1.420	-1.268	-0.675	-0.539	1.197	-0.731	-0.234	0.272	-0.594	0.051	-0.717	-0.032	1.087	-0.093	1.952	0.087	-1.508	-1.872	750.000
-0.025	0.431	0.639	0.022	-1.551	0.927	-1.125	0.694	-1.001	-0.526	-1.292	-1.041	-0.516	-0.385	0.929	-0.863	-0.388	0.195	-0.746	-0.034	-0.718	-0.057	1.053	0.216	2.132	0.372	-1.244	-1.622	753.906
-0.117	0.355	0.376	0.000	-1.545	0.917	-1.051	0.657	-1.012	-0.481	-1.202	-0.863	-0.426	-0.261	0.675	-0.981	-0.497	0.114	-0.891	-0.134	-0.722	-0.095	1.006	0.463	2.301	0.640	-1.044	-1.393	757.812
-0.162	0.293	0.204	-0.032	-1.564	0.884	-1.035	0.625	-1.001	-0.489	-1.150	-0.738	-0.413	-0.184	0.472	-1.080	-0.554	0.040	-1.019	-0.240	-0.736	-0.145	0.954	0.632	2.442	0.868	-0.919	-1.197	761.719
-0.166	0.243	0.140	-0.079	-1.619	0.824	-1.078	0.601	-0.970	-0.543	-1.135	-0.668	-0.470	-0.160	0.344	-1.150	-0.558	-0.016	-1.118	-0.342	-0.761	-0.203	0.907	0.719	2.548	1.043	-0.869	-1.043	765.625
-0.138	0.202	0.177	-0.141	-1.710	0.740	-1.174	0.586	-0.925	-0.633	-1.157	-0.652	-0.580	-0.184	0.299	-1.185	-0.518	-0.047	-1.179	-0.420	-0.795	-0.262	0.877	0.733	2.619	1.163	-0.878	-0.932	769.531
-0.086	0.165	0.293	-0.215	-1.830	0.638	-1.304	0.576	-0.875	-0.746	-1.218	-0.691	-0.714	-0.243	0.324	-1.179	-0.445	-0.052	-1.191	-0.458	-0.830	-0.310	0.874	0.696	2.666	1.239	-0.923	-0.862	773.438
-0.014	0.127	0.451	-0.297	-1.965	0.529	-1.446	0.567	-0.827	-0.867	-1.318	-0.780	-0.843	-0.316	0.388	-1.132	-0.355	-0.033	-1.146	-0.438	-0.854	-0.337	0.906	0.636	2.708	1.293	-0.973	-0.827	777.344
0.072	0.086	0.616	-0.380	-2.099	0.429	-1.576	0.557	-0.789	-0.982	-1.457	-0.915	-0.938	-0.381	0.451	-1.049	-0.262	0.003	-1.041	-0.352	-0.858	-0.333	0.977	0.577	2.761	1.346	-1.002	-0.816	781.250
0.172	0.038	0.759	-0.461	-2.220	0.346	-1.675	0.544	-0.764	-1.082	-1.632	-1.089	-0.980	-0.423	0.474	-0.937	-0.175	0.048	-0.878	-0.200	-0.836	-0.292	1.089	0.543	2.842	1.420	-0.991	-0.817	785.156
0.283	-0.018	0.864	-0.539	-2.321	0.288	-1.733	0.525	-0.753	-1.162	-1.836	-1.292	-0.964	-0.434	0.432	-0.803	-0.100	0.094	-0.664	0.012	-0.786	-0.215	1.236	0.543	2.959	1.527	-0.932	-0.822	789.062
0.403	-0.082	0.929	-0.611	-2.400	0.253	-1.754	0.502	-0.753	-1.225	-2.061	-1.514	-0.897	-0.413	0.322	-0.658	-0.038	0.135	-0.413	0.266	-0.713	-0.111	1.408	0.578	3.110	1.669	-0.827	-0.823	792.969
0.526	-0.150	0.961	-0.680	-2.464	0.233	-1.749	0.476	-0.760	-1.275	-2.296	-1.742	-0.798	-0.369	0.161	-0.510	0.014	0.171	-0.146	0.541	-0.625	0.010	1.592	0.640	3.286	1.839	-0.693	-0.817	796.875
