FP1	F3	F7	FC3	C3	C5	P3	P7	PO7	PO3	O1	Oz	Pz	CPz	FP2	Fz	F4	F8	FC4	FCz	Cz	C4	C6	P4	P8	PO8	PO4	O2	time
0.554	-1.101	-0.452	-0.653	-0.367	-1.222	-0.599	-0.824	-0.976	-0.282	-0.252	-0.044	0.522	0.694	-1.066	-0.620	-0.177	-0.081	0.327	0.208	0.720	1.026	0.691	1.373	1.006	1.147	1.056	0.751	-199.219
0.285	-0.820	-0.599	-0.462	-0.229	-0.911	-0.357	-0.392	-0.549	-0.166	-0.100	-0.024	0.436	0.611	-0.971	-0.608	-0.190	-0.096	0.218	0.170	0.623	0.865	0.542	1.213	0.722	0.920	0.917	0.643	-195.312
0.063	-0.583	-0.708	-0.297	-0.110	-0.619	-0.138	-0.004	-0.165	-0.058	0.032	-0.007	0.356	0.528	-0.858	-0.606	-0.218	-0.113	0.111	0.130	0.527	0.706	0.398	1.058	0.457	0.700	0.782	0.544	-191.406
-0.075	-0.412	-0.747	-0.171	-0.023	-0.366	0.037	0.298	0.135	0.027	0.128	0.002	0.283	0.447	-0.716	-0.613	-0.264	-0.132	0.016	0.092	0.437	0.552	0.264	0.908	0.223	0.488	0.652	0.458	-187.500
-0.107	-0.316	-0.699	-0.087	0.026	-0.165	0.148	0.483	0.321	0.076	0.171	-0.000	0.217	0.372	-0.539	-0.622	-0.326	-0.149	-0.060	0.067	0.360	0.410	0.146	0.766	0.027	0.284	0.524	0.383	-183.594
-0.036	-0.280	-0.567	-0.038	0.039	-0.024	0.184	0.535	0.378	0.078	0.155	-0.018	0.156	0.307	-0.329	-0.617	-0.388	-0.157	-0.106	0.071	0.308	0.290	0.053	0.630	-0.132	0.090	0.398	0.315	-179.688
0.118	-0.274	-0.371	-0.007	0.027	0.054	0.140	0.456	0.309	0.021	0.078	-0.053	0.097	0.258	-0.098	-0.578	-0.428	-0.149	-0.112	0.119	0.291	0.203	-0.010	0.500	-0.259	-0.095	0.269	0.245	-175.781
0.325	-0.259	-0.140	0.031	0.006	0.077	0.022	0.262	0.131	-0.096	-0.054	-0.109	0.035	0.230	0.136	-0.486	-0.424	-0.120	-0.069	0.225	0.319	0.157	-0.037	0.372	-0.365	-0.274	0.130	0.161	-171.875
0.545	-0.197	0.095	0.099	-0.006	0.054	-0.152	-0.016	-0.126	-0.267	-0.227	-0.190	-0.033	0.225	0.348	-0.328	-0.358	-0.066	0.024	0.395	0.395	0.159	-0.029	0.246	-0.463	-0.451	-0.023	0.052	-167.969
0.747	-0.061	0.306	0.212	0.009	0.002	-0.360	-0.338	-0.420	-0.478	-0.424	-0.294	-0.109	0.243	0.518	-0.102	-0.222	0.010	0.163	0.624	0.516	0.207	0.009	0.119	-0.563	-0.631	-0.194	-0.092	-164.062
0.904	0.153	0.479	0.375	0.063	-0.061	-0.570	-0.658	-0.711	-0.702	-0.622	-0.419	-0.191	0.277	0.627	0.179	-0.026	0.097	0.332	0.893	0.668	0.292	0.066	-0.007	-0.669	-0.815	-0.382	-0.274	-160.156
1.001	0.428	0.606	0.578	0.160	-0.118	-0.751	-0.933	-0.955	-0.908	-0.797	-0.555	-0.274	0.321	0.666	0.488	0.208	0.182	0.510	1.173	0.834	0.398	0.127	-0.129	-0.782	-0.998	-0.578	-0.485	-156.250
1.035	0.729	0.687	0.798	0.291	-0.155	-0.876	-1.124	-1.117	-1.064	-0.925	-0.689	-0.352	0.362	0.634	0.789	0.446	0.251	0.669	1.428	0.989	0.505	0.178	-0.239	-0.892	-1.167	-0.768	-0.711	-152.344
1.009	1.008	0.727	1.006	0.441	-0.166	-0.927	-1.205	-1.171	-1.143	-0.988	-0.804	-0.415	0.392	0.540	1.043	0.651	0.290	0.785	1.624	1.111	0.591	0.203	-0.331	-0.985	-1.304	-0.931	-0.926	-148.438
0.932	1.219	0.728	1.171	0.590	-0.149	-0.893	-1.163	-1.106	-1.129	-0.976	-0.882	-0.455	0.405	0.401	1.216	0.791	0.291	0.835	1.733	1.183	0.638	0.194	-0.393	-1.046	-1.387	-1.045	-1.103	-144.531
0.816	1.326	0.689	1.266	0.715	-0.109	-0.779	-1.004	-0.926	-1.018	-0.889	-0.911	-0.465	0.398	0.238	1.289	0.844	0.252	0.810	1.741	1.196	0.633	0.146	-0.419	-1.060	-1.396	-1.094	-1.216	-140.625
0.674	1.313	0.609	1.277	0.799	-0.053	-0.596	-0.749	-0.649	-0.823	-0.737	-0.883	-0.441	0.372	0.072	1.258	0.803	0.178	0.708	1.649	1.149	0.571	0.060	-0.407	-1.015	-1.317	-1.069	-1.246	-136.719
0.515	1.185	0.491	1.202	0.828	0.006	-0.367	-0.429	-0.308	-0.567	-0.538	-0.797	-0.382	0.335	-0.076	1.135	0.675	0.079	0.539	1.474	1.050	0.456	-0.055	-0.358	-0.912	-1.151	-0.972	-1.186	-132.812
0.352	0.964	0.341	1.051	0.800	0.060	-0.115	-0.085	0.058	-0.280	-0.316	-0.660	-0.291	0.293	-0.191	0.945	0.480	-0.032	0.322	1.240	0.913	0.297	-0.190	-0.285	-0.758	-0.909	-0.817	-1.040	-128.906
0.198	0.684	0.172	0.842	0.716	0.098	0.135	0.244	0.409	0.007	-0.095	-0.485	-0.175	0.253	-0.264	0.716	0.245	-0.142	0.079	0.976	0.754	0.111	-0.329	-0.201	-0.567	-0.616	-0.627	-0.823	-125.000
0.066	0.379	0.007	0.595	0.588	0.118	0.360	0.523	0.707	0.266	0.105	-0.286	-0.043	0.220	-0.293	0.476	0.000	-0.241	-0.166	0.708	0.590	-0.085	-0.459	-0.124	-0.361	-0.303	-0.427	-0.559	-121.094
-0.031	0.082	-0.134	0.333	0.429	0.118	0.543	0.727	0.923	0.477	0.270	-0.080	0.093	0.195	-0.282	0.249	-0.230	-0.321	-0.390	0.456	0.433	-0.272	-0.569	-0.071	-0.162	-0.004	-0.244	-0.275	-117.188
-0.083	-0.182	-0.229	0.077	0.255	0.102	0.671	0.843	1.041	0.626	0.393	0.118	0.221	0.176	-0.241	0.049	-0.426	-0.380	-0.576	0.233	0.293	-0.433	-0.647	-0.054	0.011	0.250	-0.099	0.001	-113.281
-0.087	-0.395	-0.265	-0.155	0.083	0.075	0.739	0.870	1.058	0.708	0.472	0.291	0.329	0.160	-0.179	-0.114	-0.575	-0.416	-0.710	0.044	0.173	-0.556	-0.690	-0.078	0.143	0.434	-0.004	0.243	-109.375
-0.052	-0.546	-0.242	-0.346	-0.072	0.046	0.744	0.818	0.982	0.727	0.512	0.431	0.409	0.139	-0.108	-0.236	-0.671	-0.429	-0.787	-0.110	0.074	-0.633	-0.693	-0.139	0.225	0.534	0.039	0.431	-105.469
0.003	-0.628	-0.173	-0.485	-0.197	0.019	0.695	0.707	0.835	0.692	0.519	0.528	0.458	0.109	-0.037	-0.317	-0.712	-0.422	-0.805	-0.235	-0.007	-0.661	-0.661	-0.225	0.256	0.547	0.038	0.551	-101.562
0.055	-0.642	-0.080	-0.566	-0.288	0.000	0.602	0.564	0.646	0.618	0.506	0.582	0.474	0.069	0.023	-0.362	-0.701	-0.395	-0.771	-0.336	-0.077	-0.644	-0.599	-0.316	0.244	0.486	0.008	0.603	-97.656
0.075	-0.595	0.012	-0.593	-0.343	-0.011	0.484	0.416	0.450	0.525	0.486	0.598	0.464	0.019	0.061	-0.378	-0.647	-0.354	-0.698	-0.422	-0.143	-0.592	-0.517	-0.391	0.203	0.375	-0.031	0.594	-93.750
0.044	-0.503	0.077	-0.577	-0.369	-0.017	0.361	0.291	0.279	0.433	0.474	0.587	0.437	-0.040	0.067	-0.379	-0.561	-0.303	-0.602	-0.506	-0.213	-0.518	-0.424	-0.432	0.153	0.246	-0.056	0.542	-89.844
-0.048	-0.387	0.098	-0.538	-0.375	-0.022	0.255	0.209	0.162	0.364	0.480	0.564	0.402	-0.103	0.035	-0.377	-0.457	-0.249	-0.502	-0.598	-0.292	-0.435	-0.329	-0.424	0.115	0.133	-0.049	0.469	-85.938
-0.196	-0.276	0.067	-0.498	-0.372	-0.033	0.182	0.182	0.116	0.332	0.510	0.541	0.368	-0.165	-0.036	-0.388	-0.351	-0.198	-0.414	-0.708	-0.382	-0.359	-0.241	-0.362	0.110	0.069	0.001	0.400	-82.031
-0.385	-0.192	-0.013	-0.476	-0.369	-0.051	0.155	0.212	0.141	0.345	0.563	0.526	0.342	-0.221	-0.139	-0.421	-0.256	-0.155	-0.348	-0.837	-0.482	-0.297	-0.165	-0.250	0.151	0.077	0.097	0.355	-78.125
-0.589	-0.153	-0.130	-0.485	-0.372	-0.074	0.176	0.287	0.225	0.399	0.625	0.523	0.326	-0.264	-0.261	-0.479	-0.181	-0.122	-0.307	-0.981	-0.586	-0.254	-0.103	-0.100	0.246	0.167	0.231	0.344	-74.219
-0.780	-0.165	-0.266	-0.525	-0.381	-0.100	0.237	0.387	0.339	0.482	0.679	0.526	0.320	-0.292	-0.384	-0.557	-0.130	-0.097	-0.286	-1.126	-0.684	-0.228	-0.053	0.071	0.388	0.334	0.391	0.371	-70.312
-0.935	-0.220	-0.400	-0.589	-0.393	-0.122	0.322	0.484	0.450	0.574	0.703	0.527	0.318	-0.301	-0.488	-0.645	-0.102	-0.075	-0.276	-1.255	-0.767	-0.213	-0.011	0.242	0.568	0.558	0.557	0.429	-66.406
-1.034	-0.304	-0.508	-0.662	-0.406	-0.134	0.408	0.548	0.520	0.651	0.679	0.515	0.312	-0.295	-0.553	-0.726	-0.094	-0.053	-0.266	-1.348	-0.827	-0.202	0.028	0.393	0.765	0.812	0.709	0.505	-62.500
-1.065	-0.395	-0.570	-0.726	-0.417	-0.132	0.469	0.554	0.521	0.691	0.594	0.483	0.293	-0.281	-0.565	-0.785	-0.097	-0.023	-0.245	-1.391	-0.861	-0.188	0.073	0.508	0.956	1.059	0.829	0.582	-58.594
-1.025	-0.470	-0.567	-0.764	-0.424	-0.115	0.484	0.487	0.438	0.677	0.450	0.425	0.253	-0.268	-0.517	-0.806	-0.104	0.015	-0.209	-1.375	-0.869	-0.166	0.130	0.574	1.117	1.263	0.902	0.641	-54.688
-0.914	-0.512	-0.494	-0.764	-0.425	-0.082	0.440	0.345	0.273	0.599	0.256	0.344	0.185	-0.268	-0.412	-0.781	-0.108	0.063	-0.156	-1.300	-0.858	-0.132	0.201	0.582	1.227	1.392	0.921	0.668	-50.781
-0.745	-0.510	-0.353	-0.720	-0.419	-0.035	0.335	0.141	0.046	0.461	0.035	0.244	0.089	-0.289	-0.260	-0.706	-0.101	0.118	-0.089	-1.173	-0.833	-0.090	0.287	0.531	1.268	1.422	0.880	0.651	-46.875
-0.534	-0.459	-0.163	-0.633	-0.401	0.025	0.179	-0.101	-0.210	0.277	-0.187	0.138	-0.033	-0.334	-0.076	-0.582	-0.078	0.176	-0.012	-1.007	-0.802	-0.045	0.378	0.423	1.229	1.341	0.782	0.587	-42.969
-0.305	-0.365	0.049	-0.507	-0.367	0.096	-0.004	-0.344	-0.454	0.070	-0.377	0.036	-0.171	-0.400	0.121	-0.415	-0.031	0.235	0.070	-0.819	-0.772	-0.005	0.464	0.267	1.107	1.148	0.634	0.475	-39.062
-0.088	-0.235	0.253	-0.353	-0.313	0.175	-0.186	-0.552	-0.647	-0.132	-0.512	-0.049	-0.310	-0.478	0.309	-0.213	0.045	0.289	0.152	-0.623	-0.743	0.021	0.528	0.075	0.904	0.858	0.446	0.322	-35.156
0.090	-0.080	0.418	-0.181	-0.236	0.261	-0.336	-0.695	-0.758	-0.302	-0.575	-0.111	-0.437	-0.552	0.470	0.011	0.152	0.336	0.229	-0.435	-0.718	0.023	0.557	-0.137	0.635	0.495	0.230	0.136	-31.250
0.205	0.086	0.526	-0.005	-0.139	0.348	-0.432	-0.752	-0.773	-0.418	-0.561	-0.148	-0.536	-0.608	0.587	0.245	0.287	0.371	0.299	-0.268	-0.695	-0.002	0.538	-0.348	0.320	0.095	0.003	-0.068	-27.344
0.246	0.247	0.570	0.162	-0.028	0.429	-0.461	-0.720	-0.691	-0.467	-0.479	-0.162	-0.596	-0.635	0.650	0.471	0.441	0.391	0.356	-0.135	-0.676	-0.057	0.468	-0.540	-0.011	-0.302	-0.218	-0.276	-23.438
0.216	0.385	0.557	0.299	0.083	0.494	-0.420	-0.609	-0.527	-0.447	-0.344	-0.158	-0.610	-0.629	0.654	0.671	0.595	0.391	0.393	-0.049	-0.664	-0.140	0.352	-0.692	-0.326	-0.652	-0.412	-0.468	-19.531
0.131	0.479	0.501	0.389	0.175	0.530	-0.321	-0.438	-0.302	-0.363	-0.174	-0.141	-0.578	-0.593	0.600	0.824	0.725	0.367	0.403	-0.022	-0.667	-0.245	0.201	-0.789	-0.588	-0.916	-0.562	-0.624	-15.625
0.017	0.511	0.419	0.413	0.229	0.526	-0.181	-0.232	-0.040	-0.225	0.015	-0.109	-0.505	-0.538	0.495	0.909	0.803	0.315	0.378	-0.066	-0.692	-0.365	0.029	-0.823	-0.765	-1.062	-0.650	-0.725	-11.719
-0.101	0.466	0.328	0.356	0.227	0.474	-0.020	-0.010	0.239	-0.047	0.214	-0.058	-0.400	-0.483	0.351	0.912	0.806	0.233	0.312	-0.186	-0.749	-0.493	-0.146	-0.793	-0.832	-1.070	-0.665	-0.752	-7.812
-0.204	0.336	0.239	0.212	0.156	0.371	0.142	0.213	0.521	0.159	0.421	0.020	-0.278	-0.446	0.184	0.823	0.721	0.123	0.201	-0.385	-0.846	-0.624	-0.310	-0.704	-0.778	-0.937	-0.603	-0.693	-3.906
-0.282	0.125	0.153	-0.018	0.011	0.222	0.287	0.428	0.797	0.381	0.638	0.135	-0.152	-0.444	0.013	0.645	0.547	-0.007	0.046	-0.654	-0.987	-0.753	-0.451	-0.571	-0.606	-0.673	-0.465	-0.542	0.000
-0.339	-0.153	0.069	-0.317	-0.204	0.037	0.401	0.628	1.061	0.609	0.866	0.294	-0.038	-0.490	-0.142	0.389	0.299	-0.146	-0.143	-0.979	-1.169	-0.876	-0.563	-0.414	-0.332	-0.306	-0.263	-0.303	3.906
-0.388	-0.474	-0.021	-0.661	-0.476	-0.171	0.477	0.810	1.308	0.831	1.105	0.497	0.051	-0.586	-0.265	0.080	0.008	-0.280	-0.353	-1.334	-1.386	-0.987	-0.643	-0.253	0.010	0.130	-0.012	0.008	7.812
-0.443	-0.807	-0.122	-1.019	-0.785	-0.384	0.508	0.968	1.527	1.034	1.349	0.735	0.106	-0.730	-0.345	-0.249	-0.285	-0.393	-0.560	-1.689	-1.623	-1.081	-0.690	-0.109	0.380	0.589	0.266	0.367	11.719
-0.515	-1.120	-0.236	-1.357	-1.104	-0.588	0.493	1.094	1.705	1.204	1.585	0.992	0.121	-0.908	-0.382	-0.562	-0.538	-0.471	-0.740	-2.011	-1.860	-1.149	-0.707	0.003	0.736	1.029	0.544	0.744	15.625
-0.603	-1.383	-0.357	-1.642	-1.405	-0.766	0.434	1.180	1.826	1.328	1.795	1.247	0.096	-1.101	-0.384	-0.823	-0.711	-0.507	-0.869	-2.271	-2.077	-1.184	-0.696	0.072	1.036	1.409	0.798	1.101	19.531
-0.701	-1.573	-0.477	-1.851	-1.662	-0.910	0.339	1.220	1.875	1.394	1.961	1.474	0.036	-1.287	-0.362	-1.005	-0.780	-0.499	-0.927	-2.450	-2.254	-1.178	-0.662	0.094	1.250	1.696	1.003	1.408	23.438
-0.791	-1.678	-0.586	-1.969	-1.853	-1.010	0.216	1.213	1.843	1.394	2.066	1.654	-0.051	-1.446	-0.328	-1.091	-0.738	-0.451	-0.904	-2.534	-2.373	-1.129	-0.608	0.070	1.359	1.869	1.142	1.637	27.344
-0.857	-1.695	-0.673	-1.991	-1.963	-1.064	0.078	1.159	1.730	1.329	2.104	1.773	-0.152	-1.560	-0.290	-1.082	-0.597	-0.372	-0.803	-2.528	-2.425	-1.041	-0.544	0.008	1.359	1.919	1.206	1.771	31.250
-0.888	-1.631	-0.732	-1.925	-1.988	-1.075	-0.063	1.065	1.546	1.203	2.072	1.823	-0.254	-1.616	-0.245	-0.989	-0.387	-0.274	-0.638	-2.441	-2.407	-0.922	-0.477	-0.083	1.258	1.851	1.195	1.806	35.156
-0.877	-1.498	-0.759	-1.784	-1.934	-1.046	-0.195	0.943	1.313	1.031	1.977	1.805	-0.343	-1.611	-0.191	-0.838	-0.148	-0.170	-0.436	-2.294	-2.323	-0.788	-0.419	-0.191	1.078	1.680	1.119	1.747	39.062
-0.825	-1.318	-0.751	-1.590	-1.813	-0.984	-0.307	0.806	1.057	0.832	1.830	1.723	-0.410	-1.546	-0.122	-0.657	0.075	-0.074	-0.226	-2.111	-2.187	-0.656	-0.379	-0.301	0.850	1.431	0.994	1.609	42.969
-0.735	-1.113	-0.709	-1.367	-1.646	-0.895	-0.390	0.672	0.811	0.627	1.645	1.583	-0.447	-1.431	-0.039	-0.478	0.243	-0.002	-0.040	-1.915	-2.017	-0.545	-0.364	-0.402	0.607	1.141	0.842	1.413	46.875
-0.617	-0.908	-0.636	-1.137	-1.455	-0.785	-0.438	0.562	0.608	0.442	1.438	1.389	-0.453	-1.281	0.051	-0.325	0.329	0.037	0.095	-1.727	-1.833	-0.467	-0.381	-0.482	0.387	0.846	0.688	1.185	50.781
-0.484	-0.726	-0.539	-0.924	-1.261	-0.659	-0.443	0.494	0.475	0.300	1.224	1.150	-0.432	-1.112	0.131	-0.215	0.319	0.034	0.161	-1.563	-1.656	-0.434	-0.430	-0.530	0.220	0.589	0.556	0.952	54.688
-0.354	-0.588	-0.427	-0.747	-1.083	-0.522	-0.398	0.490	0.436	0.223	1.021	0.870	-0.390	-0.944	0.179	-0.156	0.219	-0.016	0.151	-1.436	-1.507	-0.448	-0.511	-0.541	0.131	0.406	0.470	0.743	58.594
-0.247	-0.509	-0.315	-0.620	-0.937	-0.381	-0.298	0.565	0.508	0.233	0.848	0.562	-0.336	-0.795	0.169	-0.148	0.043	-0.111	0.067	-1.356	-1.405	-0.508	-0.621	-0.510	0.134	0.329	0.448	0.587	62.500
-0.183	-0.500	-0.225	-0.556	-0.832	-0.243	-0.138	0.736	0.705	0.348	0.730	0.240	-0.280	-0.684	0.076	-0.190	-0.186	-0.249	-0.086	-1.331	-1.365	-0.609	-0.755	-0.436	0.233	0.384	0.509	0.513	66.406
-0.187	-0.568	-0.181	-0.562	-0.776	-0.117	0.086	1.011	1.039	0.584	0.699	-0.074	-0.230	-0.629	-0.115	-0.284	-0.447	-0.425	-0.296	-1.373	-1.399	-0.745	-0.912	-0.320	0.421	0.589	0.668	0.545	70.312
-0.279	-0.715	-0.210	-0.645	-0.774	-0.012	0.373	1.397	1.521	0.955	0.784	-0.357	-0.189	-0.644	-0.412	-0.436	-0.727	-0.633	-0.558	-1.495	-1.516	-0.912	-1.092	-0.162	0.686	0.953	0.937	0.703	74.219
-0.476	-0.940	-0.334	-0.807	-0.826	0.063	0.720	1.897	2.163	1.466	1.016	-0.583	-0.160	-0.738	-0.809	-0.660	-1.021	-0.866	-0.868	-1.711	-1.722	-1.109	-1.296	0.037	1.014	1.479	1.322	0.997	78.125
-0.788	-1.240	-0.566	-1.048	-0.935	0.099	1.121	2.512	2.975	2.117	1.417	-0.724	-0.137	-0.915	-1.288	-0.971	-1.334	-1.119	-1.226	-2.033	-2.020	-1.338	-1.524	0.275	1.389	2.162	1.828	1.427	82.031
-1.217	-1.614	-0.908	-1.366	-1.105	0.088	1.565	3.241	3.962	2.899	2.000	-0.754	-0.114	-1.174	-1.823	-1.388	-1.679	-1.388	-1.635	-2.473	-2.409	-1.604	-1.779	0.551	1.802	2.987	2.449	1.986	85.938
-1.752	-2.059	-1.347	-1.761	-1.339	0.026	2.040	4.081	5.123	3.796	2.767	-0.647	-0.082	-1.504	-2.386	-1.922	-2.075	-1.675	-2.100	-3.034	-2.884	-1.912	-2.060	0.861	2.245	3.933	3.176	2.655	89.844
-2.373	-2.576	-1.859	-2.230	-1.641	-0.094	2.535	5.027	6.446	4.782	3.705	-0.381	-0.031	-1.891	-2.955	-2.577	-2.540	-1.980	-2.622	-3.712	-3.437	-2.267	-2.366	1.200	2.715	4.971	3.990	3.414	93.750
-3.049	-3.163	-2.417	-2.767	-2.011	-0.275	3.034	6.061	7.901	5.828	4.789	0.061	0.050	-2.314	-3.514	-3.343	-3.086	-2.307	-3.200	-4.491	-4.052	-2.667	-2.693	1.562	3.208	6.062	4.867	4.237	97.656
-3.740	-3.812	-2.988	-3.364	-2.444	-0.519	3.526	7.154	9.440	6.897	5.979	0.677	0.168	-2.747	-4.056	-4.192	-3.711	-2.656	-3.819	-5.343	-4.705	-3.102	-3.031	1.938	3.719	7.162	5.775	5.095	101.562
-4.403	-4.509	-3.542	-4.002	-2.926	-0.821	3.996	8.260	10.992	7.946	7.217	1.448	0.327	-3.161	-4.578	-5.079	-4.395	-3.021	-4.454	-6.221	-5.365	-3.551	-3.366	2.317	4.233	8.215	6.676	5.949	105.469
-4.995	-5.223	-4.056	-4.656	-3.433	-1.174	4.426	9.317	12.469	8.927	8.432	2.324	0.528	-3.524	-5.076	-5.945	-5.097	-3.389	-5.068	-7.070	-5.990	-3.984	-3.679	2.683	4.726	9.159	7.522	6.750	109.375
-5.477	-5.914	-4.509	-5.289	-3.931	-1.561	4.799	10.249	13.770	9.786	9.543	3.232	0.766	-3.804	-5.531	-6.718	-5.760	-3.733	-5.614	-7.822	-6.533	-4.366	-3.948	3.020	5.163	9.930	8.264	7.444	113.281
-5.821	-6.531	-4.885	-5.855	-4.381	-1.958	5.093	10.979	14.794	10.469	10.464	4.079	1.033	-3.971	-5.916	-7.327	-6.317	-4.019	-6.044	-8.408	-6.943	-4.657	-4.148	3.308	5.504	10.467	8.850	7.967	117.188
-6.012	-7.016	-5.173	-6.306	-4.738	-2.337	5.290	11.439	15.457	10.927	11.116	4.769	1.313	-4.004	-6.191	-7.708	-6.698	-4.212	-6.311	-8.766	-7.176	-4.824	-4.261	3.526	5.707	10.717	9.233	8.263	121.094
-6.047	-7.316	-5.364	-6.594	-4.966	-2.667	5.374	11.583	15.701	11.123	11.439	5.217	1.589	-3.891	-6.316	-7.814	-6.849	-4.279	-6.383	-8.851	-7.197	-4.842	-4.274	3.654	5.736	10.650	9.375	8.287	125.000
-5.934	-7.388	-5.452	-6.682	-5.037	-2.917	5.336	11.401	15.509	11.040	11.403	5.363	1.839	-3.637	-6.259	-7.626	-6.738	-4.201	-6.248	-8.641	-6.992	-4.705	-4.185	3.677	5.574	10.263	9.257	8.020	128.906
-5.692	-7.213	-5.438	-6.549	-4.940	-3.066	5.180	10.920	14.911	10.688	11.016	5.190	2.039	-3.262	-6.011	-7.157	-6.364	-3.978	-5.918	-8.149	-6.572	-4.427	-4.006	3.582	5.223	9.585	8.879	7.474	132.812
-5.345	-6.800	-5.326	-6.202	-4.686	-3.102	4.919	10.207	13.986	10.105	10.326	4.722	2.165	-2.806	-5.590	-6.454	-5.761	-3.634	-5.429	-7.420	-5.978	-4.041	-3.761	3.367	4.713	8.677	8.272	6.694	136.719
-4.925	-6.194	-5.128	-5.674	-4.307	-3.026	4.575	9.362	12.854	9.354	9.420	4.029	2.195	-2.323	-5.042	-5.597	-4.996	-3.210	-4.843	-6.532	-5.275	-3.598	-3.486	3.042	4.098	7.633	7.491	5.763	140.625
-4.464	-5.470	-4.864	-5.030	-3.857	-2.858	4.181	8.504	11.664	8.521	8.415	3.215	2.114	-1.877	-4.439	-4.689	-4.162	-2.767	-4.233	-5.590	-4.549	-3.161	-3.220	2.630	3.452	6.568	6.615	4.787	144.531
-4.001	-4.727	-4.565	-4.353	-3.403	-2.629	3.769	7.758	10.572	7.700	7.441	2.399	1.913	-1.532	-3.861	-3.845	-3.365	-2.367	-3.682	-4.706	-3.898	-2.794	-3.001	2.164	2.864	5.606	5.743	3.889	148.438
-3.574	-4.072	-4.265	-3.740	-3.016	-2.381	3.375	7.233	9.726	6.982	6.628	1.707	1.589	-1.348	-3.387	-3.173	-2.710	-2.071	-3.264	-3.993	-3.413	-2.551	-2.859	1.690	2.421	4.873	4.975	3.190	152.344
-3.224	-3.604	-4.002	-3.280	-2.763	-2.157	3.025	7.007	9.237	6.441	6.081	1.243	1.152	-1.370	-3.076	-2.763	-2.285	-1.921	-3.038	-3.542	-3.170	-2.472	-2.814	1.255	2.202	4.470	4.406	2.793	156.250
-2.987	-3.394	-3.812	-3.044	-2.692	-1.995	2.739	7.119	9.168	6.127	5.871	1.079	0.618	-1.620	-2.959	-2.670	-2.147	-1.939	-3.039	-3.412	-3.215	-2.576	-2.869	0.907	2.262	4.470	4.106	2.769	160.156
-2.892	-3.476	-3.725	-3.066	-2.823	-1.919	2.528	7.558	9.528	6.057	6.022	1.243	0.013	-2.096	-3.037	-2.907	-2.320	-2.121	-3.272	-3.620	-3.558	-2.857	-3.014	0.682	2.627	4.899	4.113	3.143	164.062
-2.958	-3.835	-3.758	-3.340	-3.148	-1.933	2.395	8.273	10.268	6.221	6.509	1.715	-0.629	-2.766	-3.279	-3.444	-2.782	-2.440	-3.715	-4.138	-4.173	-3.286	-3.226	0.600	3.285	5.733	4.426	3.892	167.969
-3.190	-4.416	-3.917	-3.821	-3.628	-2.025	2.335	9.184	11.297	6.579	7.266	2.435	-1.273	-3.577	-3.638	-4.216	-3.479	-2.851	-4.320	-4.901	-4.998	-3.817	-3.476	0.664	4.188	6.900	5.006	4.946	171.875
-3.574	-5.130	-4.192	-4.432	-4.203	-2.167	2.340	10.191	12.496	7.075	8.197	3.312	-1.880	-4.459	-4.058	-5.131	-4.327	-3.300	-5.022	-5.814	-5.946	-4.396	-3.732	0.858	5.259	8.293	5.781	6.198	175.781
-4.079	-5.877	-4.561	-5.084	-4.802	-2.323	2.402	11.199	13.739	7.646	9.192	4.239	-2.419	-5.335	-4.487	-6.090	-5.228	-3.734	-5.747	-6.776	-6.924	-4.961	-3.963	1.149	6.404	9.782	6.661	7.524	179.688
-4.656	-6.564	-4.990	-5.692	-5.357	-2.457	2.508	12.126	14.910	8.228	10.140	5.111	-2.866	-6.135	-4.884	-7.000	-6.086	-4.110	-6.423	-7.690	-7.842	-5.460	-4.146	1.498	7.524	11.235	7.546	8.796	183.594
-5.244	-7.122	-5.431	-6.190	-5.815	-2.539	2.651	12.912	15.917	8.766	10.949	5.838	-3.207	-6.805	-5.225	-7.788	-6.823	-4.401	-6.992	-8.479	-8.627	-5.852	-4.267	1.859	8.532	12.536	8.346	9.904	187.500
-5.777	-7.515	-5.835	-6.541	-6.144	-2.554	2.819	13.526	16.702	9.219	11.552	6.354	-3.445	-7.311	-5.502	-8.409	-7.385	-4.597	-7.413	-9.100	-9.234	-6.114	-4.318	2.194	9.361	13.597	8.992	10.766	191.406
-6.194	-7.740	-6.152	-6.737	-6.335	-2.503	3.003	13.959	17.243	9.561	11.913	6.626	-3.589	-7.643	-5.717	-8.847	-7.753	-4.704	-7.670	-9.538	-9.648	-6.240	-4.302	2.471	9.973	14.369	9.438	11.338	195.312
-6.452	-7.823	-6.348	-6.801	-6.400	-2.400	3.196	14.223	17.547	9.783	12.030	6.653	-3.655	-7.810	-5.877	-9.112	-7.932	-4.740	-7.769	-9.809	-9.881	-6.241	-4.228	2.674	10.361	14.842	9.671	11.611	199.219
-6.530	-7.809	-6.405	-6.771	-6.370	-2.268	3.388	14.342	17.646	9.890	11.927	6.462	-3.663	-7.838	-5.991	-9.234	-7.955	-4.724	-7.734	-9.947	-9.961	-6.138	-4.109	2.803	10.546	15.039	9.709	11.615	203.125
-6.439	-7.744	-6.329	-6.692	-6.280	-2.134	3.576	14.347	17.583	9.901	11.649	6.100	-3.626	-7.756	-6.067	-9.249	-7.865	-4.679	-7.599	-9.998	-9.930	-5.957	-3.961	2.873	10.569	15.010	9.591	11.400	207.031
-6.214	-7.671	-6.150	-6.606	-6.167	-2.024	3.756	14.268	17.403	9.840	11.249	5.630	-3.552	-7.594	-6.113	-9.198	-7.706	-4.619	-7.403	-10.002	-9.825	-5.727	-3.794	2.910	10.482	14.821	9.376	11.035	210.938
-5.913	-7.620	-5.916	-6.546	-6.060	-1.952	3.928	14.134	17.148	9.739	10.786	5.115	-3.439	-7.376	-6.138	-9.118	-7.521	-4.553	-7.183	-9.996	-9.682	-5.471	-3.621	2.949	10.337	14.539	9.127	10.592	214.844
-5.604	-7.606	-5.683	-6.531	-5.977	-1.925	4.097	13.970	16.851	9.629	10.311	4.615	-3.280	-7.116	-6.151	-9.039	-7.340	-4.486	-6.970	-10.005	-9.524	-5.207	-3.450	3.023	10.179	14.229	8.909	10.137	218.750
-5.353	-7.631	-5.505	-6.566	-5.926	-1.937	4.267	13.795	16.539	9.540	9.865	4.179	-3.064	-6.824	-6.163	-8.989	-7.189	-4.417	-6.787	-10.045	-9.365	-4.951	-3.286	3.161	10.043	13.940	8.774	9.726	222.656
-5.212	-7.688	-5.420	-6.647	-5.905	-1.973	4.446	13.623	16.231	9.496	9.479	3.842	-2.780	-6.504	-6.181	-8.985	-7.085	-4.347	-6.653	-10.122	-9.215	-4.715	-3.140	3.381	9.948	13.710	8.761	9.398	226.562
-5.208	-7.762	-5.439	-6.760	-5.901	-2.014	4.640	13.469	15.941	9.514	9.172	3.621	-2.425	-6.162	-6.209	-9.043	-7.043	-4.281	-6.584	-10.239	-9.075	-4.513	-3.019	3.684	9.897	13.557	8.883	9.173	230.469
-5.340	-7.841	-5.542	-6.888	-5.901	-2.039	4.856	13.339	15.680	9.603	8.949	3.519	-2.002	-5.806	-6.249	-9.168	-7.079	-4.229	-6.590	-10.394	-8.948	-4.358	-2.935	4.053	9.885	13.481	9.135	9.052	234.375
-5.579	-7.914	-5.686	-7.014	-5.889	-2.031	5.095	13.242	15.461	9.760	8.808	3.519	-1.528	-5.446	-6.297	-9.359	-7.203	-4.202	-6.680	-10.579	-8.833	-4.261	-2.899	4.460	9.894	13.471	9.489	9.020	238.281
-5.873	-7.975	-5.817	-7.123	-5.853	-1.978	5.354	13.179	15.290	9.973	8.734	3.595	-1.026	-5.097	-6.348	-9.603	-7.418	-4.212	-6.851	-10.781	-8.730	-4.230	-2.917	4.865	9.905	13.501	9.898	9.050	242.188
-6.161	-8.020	-5.883	-7.202	-5.786	-1.880	5.625	13.151	15.169	10.220	8.710	3.712	-0.528	-4.773	-6.397	-9.876	-7.711	-4.267	-7.090	-10.981	-8.636	-4.262	-2.990	5.226	9.898	13.541	10.309	9.106	246.094
-6.386	-8.048	-5.851	-7.243	-5.685	-1.742	5.896	13.153	15.097	10.473	8.714	3.834	-0.067	-4.486	-6.445	-10.148	-8.050	-4.366	-7.372	-11.156	-8.544	-4.344	-3.111	5.507	9.857	13.558	10.664	9.150	250.000
-6.505	-8.054	-5.712	-7.241	-5.553	-1.580	6.150	13.175	15.063	10.701	8.720	3.927	0.326	-4.241	-6.494	-10.380	-8.391	-4.498	-7.655	-11.279	-8.446	-4.453	-3.261	5.682	9.771	13.525	10.915	9.150	253.906
-6.497	-8.033	-5.481	-7.195	-5.398	-1.411	6.371	13.207	15.050	10.876	8.706	3.963	0.625	-4.037	-6.552	-10.539	-8.675	-4.644	-7.893	-11.324	-8.328	-4.557	-3.418	5.740	9.634	13.420	11.026	9.083	257.812
-6.365	-7.975	-5.196	-7.107	-5.227	-1.253	6.545	13.231	15.038	10.975	8.654	3.928	0.818	-3.866	-6.623	-10.594	-8.849	-4.780	-8.041	-11.270	-8.177	-4.624	-3.556	5.687	9.447	13.234	10.981	8.939	261.719
-6.134	-7.873	-4.902	-6.977	-5.049	-1.124	6.661	13.232	15.004	10.984	8.552	3.817	0.903	-3.715	-6.705	-10.529	-8.876	-4.879	-8.064	-11.103	-7.979	-4.625	-3.650	5.541	9.214	12.970	10.783	8.719	265.625
-5.844	-7.722	-4.646	-6.812	-4.871	-1.033	6.713	13.192	14.925	10.899	8.394	3.639	0.893	-3.569	-6.789	-10.341	-8.739	-4.920	-7.944	-10.820	-7.724	-4.545	-3.684	5.331	8.947	12.641	10.455	8.439	269.531
-5.538	-7.524	-4.459	-6.616	-4.699	-0.987	6.703	13.094	14.783	10.726	8.182	3.412	0.812	-3.414	-6.857	-10.043	-8.452	-4.891	-7.684	-10.425	-7.410	-4.378	-3.652	5.091	8.656	12.270	10.033	8.124	273.438
-5.261	-7.285	-4.358	-6.397	-4.537	-0.988	6.633	12.921	14.566	10.479	7.926	3.162	0.692	-3.240	-6.889	-9.658	-8.047	-4.789	-7.305	-9.932	-7.037	-4.134	-3.561	4.855	8.352	11.885	9.567	7.804	277.344
-5.048	-7.021	-4.339	-6.166	-4.388	-1.036	6.513	12.665	14.271	10.176	7.639	2.918	0.569	-3.039	-6.868	-9.216	-7.573	-4.621	-6.841	-9.362	-6.613	-3.831	-3.426	4.655	8.048	11.515	9.109	7.508	281.250
-4.921	-6.756	-4.387	-5.934	-4.255	-1.132	6.353	12.321	13.900	9.840	7.340	2.710	0.479	-2.808	-6.785	-8.751	-7.076	-4.401	-6.331	-8.736	-6.149	-3.492	-3.267	4.516	7.754	11.184	8.710	7.263	285.156
-4.888	-6.515	-4.482	-5.716	-4.143	-1.274	6.167	11.894	13.467	9.495	7.044	2.561	0.452	-2.548	-6.648	-8.293	-6.598	-4.147	-5.812	-8.081	-5.661	-3.140	-3.106	4.458	7.479	10.913	8.413	7.087	289.062
-4.940	-6.322	-4.604	-5.524	-4.053	-1.459	5.969	11.397	12.995	9.164	6.769	2.485	0.509	-2.260	-6.476	-7.868	-6.162	-3.881	-5.312	-7.419	-5.161	-2.794	-2.963	4.492	7.229	10.713	8.246	6.989	292.969
-5.057	-6.195	-4.743	-5.369	-3.984	-1.681	5.775	10.855	12.509	8.869	6.528	2.484	0.659	-1.946	-6.306	-7.489	-5.781	-3.622	-4.849	-6.767	-4.662	-2.466	-2.849	4.617	7.009	10.584	8.220	6.965	296.875
-5.207	-6.139	-4.897	-5.254	-3.934	-1.930	5.601	10.299	12.041	8.627	6.330	2.549	0.901	-1.611	-6.178	-7.161	-5.450	-3.388	-4.431	-6.139	-4.174	-2.163	-2.769	4.822	6.821	10.516	8.325	6.998	300.781
-5.360	-6.145	-5.069	-5.176	-3.896	-2.191	5.464	9.769	11.623	8.454	6.180	2.656	1.220	-1.260	-6.133	-6.880	-5.160	-3.191	-4.059	-5.542	-3.701	-1.888	-2.721	5.086	6.661	10.488	8.534	7.064	304.688
-5.490	-6.191	-5.261	-5.125	-3.863	-2.444	5.376	9.304	11.285	8.355	6.079	2.777	1.591	-0.901	-6.197	-6.634	-4.899	-3.041	-3.730	-4.981	-3.251	-1.642	-2.699	5.378	6.524	10.478	8.803	7.134	308.594
-5.583	-6.247	-5.469	-5.084	-3.826	-2.670	5.348	8.941	11.050	8.333	6.027	2.878	1.983	-0.547	-6.372	-6.408	-4.661	-2.939	-3.440	-4.458	-2.827	-1.427	-2.695	5.660	6.403	10.459	9.082	7.177	312.500
-5.636	-6.279	-5.683	-5.037	-3.777	-2.853	5.382	8.706	10.935	8.381	6.020	2.932	2.361	-0.211	-6.638	-6.189	-4.447	-2.883	-3.188	-3.975	-2.437	-1.245	-2.698	5.899	6.286	10.410	9.322	7.168	316.406
-5.658	-6.262	-5.881	-4.966	-3.712	-2.979	5.474	8.612	10.944	8.491	6.054	2.918	2.698	0.094	-6.953	-5.966	-4.268	-2.867	-2.975	-3.536	-2.086	-1.100	-2.704	6.064	6.163	10.314	9.481	7.092	320.312
-5.663	-6.179	-6.040	-4.862	-3.626	-3.042	5.618	8.657	11.070	8.649	6.124	2.830	2.971	0.359	-7.263	-5.739	-4.137	-2.879	-2.806	-3.143	-1.779	-0.996	-2.711	6.139	6.026	10.164	9.533	6.942	324.219
-5.672	-6.030	-6.140	-4.721	-3.522	-3.045	5.801	8.820	11.295	8.842	6.224	2.676	3.171	0.578	-7.515	-5.509	-4.068	-2.911	-2.681	-2.799	-1.518	-0.933	-2.718	6.118	5.868	9.965	9.472	6.724	328.125
-5.701	-5.827	-6.172	-4.548	-3.400	-2.993	6.011	9.071	11.589	9.053	6.346	2.475	3.304	0.756	-7.670	-5.281	-4.061	-2.948	-2.599	-2.504	-1.301	-0.908	-2.730	6.012	5.690	9.725	9.306	6.454	332.031
-5.763	-5.596	-6.140	-4.357	-3.265	-2.899	6.234	9.366	11.915	9.268	6.479	2.255	3.382	0.900	-7.714	-5.064	-4.106	-2.979	-2.550	-2.254	-1.118	-0.911	-2.747	5.845	5.497	9.463	9.061	6.153	335.938
-5.864	-5.364	-6.065	-4.164	-3.119	-2.775	6.459	9.661	12.228	9.469	6.608	2.044	3.428	1.025	-7.659	-4.859	-4.173	-2.993	-2.519	-2.041	-0.960	-0.926	-2.768	5.648	5.301	9.197	8.770	5.842	339.844
-6.000	-5.158	-5.977	-3.985	-2.962	-2.633	6.673	9.914	12.487	9.640	6.714	1.867	3.465	1.147	-7.542	-4.667	-4.225	-2.982	-2.484	-1.855	-0.811	-0.932	-2.784	5.454	5.120	8.946	8.468	5.543	343.750
-6.160	-4.998	-5.906	-3.836	-2.797	-2.486	6.867	10.091	12.652	9.763	6.776	1.735	3.513	1.277	-7.412	-4.488	-4.222	-2.941	-2.422	-1.685	-0.661	-0.909	-2.785	5.295	4.973	8.725	8.189	5.271	347.656
-6.328	-4.894	-5.875	-3.725	-2.624	-2.343	7.031	10.167	12.695	9.825	6.774	1.653	3.586	1.428	-7.321	-4.318	-4.136	-2.869	-2.316	-1.524	-0.499	-0.835	-2.757	5.197	4.876	8.547	7.957	5.040	351.562
-6.488	-4.847	-5.895	-3.654	-2.442	-2.208	7.159	10.133	12.599	9.817	6.690	1.609	3.693	1.604	-7.309	-4.156	-3.959	-2.770	-2.156	-1.368	-0.322	-0.698	-2.684	5.177	4.846	8.420	7.791	4.854	355.469
-6.622	-4.850	-5.964	-3.621	-2.256	-2.087	7.248	9.989	12.362	9.733	6.513	1.584	3.835	1.808	-7.399	-4.006	-3.702	-2.653	-1.945	-1.219	-0.130	-0.488	-2.554	5.243	4.888	8.347	7.702	4.717	359.375
-6.722	-4.886	-6.069	-3.619	-2.067	-1.979	7.298	9.747	11.996	9.577	6.238	1.551	4.009	2.036	-7.587	-3.873	-3.397	-2.525	-1.695	-1.082	0.073	-0.207	-2.359	5.397	5.004	8.328	7.692	4.627	363.281
-6.784	-4.937	-6.194	-3.633	-1.878	-1.881	7.314	9.426	11.527	9.359	5.873	1.479	4.209	2.286	-7.848	-3.765	-3.089	-2.394	-1.424	-0.963	0.281	0.137	-2.097	5.633	5.182	8.358	7.759	4.574	367.188
-6.812	-4.981	-6.321	-3.652	-1.691	-1.789	7.305	9.055	10.989	9.097	5.430	1.341	4.429	2.553	-8.141	-3.687	-2.824	-2.266	-1.157	-0.866	0.488	0.529	-1.773	5.939	5.404	8.427	7.896	4.546	371.094
-6.817	-4.997	-6.435	-3.657	-1.505	-1.691	7.280	8.662	10.424	8.812	4.932	1.112	4.661	2.831	-8.415	-3.641	-2.639	-2.143	-0.917	-0.792	0.689	0.945	-1.404	6.297	5.645	8.518	8.090	4.521	375.000
-6.808	-4.969	-6.523	-3.636	-1.316	-1.578	7.250	8.280	9.872	8.527	4.404	0.776	4.898	3.112	-8.627	-3.624	-2.555	-2.026	-0.722	-0.737	0.884	1.362	-1.012	6.685	5.878	8.612	8.322	4.474	378.906
-6.794	-4.889	-6.573	-3.578	-1.119	-1.438	7.227	7.938	9.368	8.261	3.875	0.333	5.130	3.391	-8.741	-3.626	-2.575	-1.918	-0.585	-0.694	1.070	1.754	-0.623	7.078	6.077	8.686	8.566	4.377	382.812
-6.779	-4.754	-6.572	-3.475	-0.907	-1.265	7.218	7.658	8.937	8.029	3.369	-0.209	5.348	3.657	-8.746	-3.634	-2.681	-1.819	-0.509	-0.655	1.248	2.098	-0.265	7.448	6.223	8.719	8.793	4.205	386.719
-6.758	-4.572	-6.509	-3.326	-0.676	-1.055	7.228	7.455	8.594	7.836	2.909	-0.821	5.545	3.905	-8.648	-3.638	-2.847	-1.735	-0.491	-0.611	1.419	2.379	0.037	7.767	6.305	8.693	8.969	3.942	390.625
-6.722	-4.355	-6.378	-3.137	-0.422	-0.812	7.259	7.334	8.339	7.680	2.507	-1.469	5.710	4.127	-8.473	-3.625	-3.036	-1.671	-0.521	-0.558	1.583	2.585	0.266	8.012	6.319	8.598	9.061	3.580	394.531
-6.657	-4.116	-6.176	-2.913	-0.147	-0.543	7.308	7.287	8.158	7.547	2.165	-2.113	5.839	4.321	-8.257	-3.586	-3.212	-1.632	-0.585	-0.492	1.740	2.718	0.413	8.166	6.272	8.426	9.041	3.125	398.438
-6.548	-3.865	-5.912	-2.664	0.143	-0.259	7.369	7.294	8.026	7.421	1.870	-2.715	5.929	4.488	-8.036	-3.518	-3.346	-1.620	-0.666	-0.411	1.889	2.783	0.483	8.218	6.174	8.180	8.891	2.592	402.344
-6.383	-3.611	-5.601	-2.400	0.443	0.025	7.434	7.324	7.905	7.279	1.599	-3.253	5.983	4.632	-7.840	-3.418	-3.414	-1.630	-0.746	-0.317	2.034	2.795	0.490	8.171	6.040	7.862	8.604	1.998	406.250
-6.154	-3.353	-5.267	-2.127	0.742	0.297	7.491	7.342	7.755	7.099	1.316	-3.721	6.010	4.763	-7.680	-3.282	-3.404	-1.653	-0.808	-0.207	2.178	2.776	0.459	8.037	5.884	7.480	8.187	1.364	410.156
-5.861	-3.088	-4.937	-1.852	1.033	0.543	7.531	7.308	7.536	6.865	0.984	-4.130	6.021	4.894	-7.552	-3.110	-3.311	-1.673	-0.835	-0.079	2.329	2.751	0.417	7.836	5.717	7.043	7.662	0.706	414.062
-5.509	-2.812	-4.633	-1.577	1.311	0.758	7.544	7.192	7.216	6.566	0.568	-4.510	6.029	5.037	-7.437	-2.902	-3.140	-1.670	-0.810	0.073	2.498	2.744	0.393	7.595	5.546	6.560	7.057	0.040	417.969
-5.112	-2.521	-4.373	-1.302	1.575	0.939	7.523	6.976	6.782	6.204	0.050	-4.892	6.043	5.203	-7.310	-2.658	-2.899	-1.629	-0.723	0.255	2.692	2.777	0.407	7.337	5.369	6.041	6.409	-0.624	421.875
-4.692	-2.216	-4.162	-1.029	1.825	1.087	7.466	6.661	6.246	5.788	-0.565	-5.301	6.068	5.395	-7.148	-2.381	-2.607	-1.541	-0.573	0.470	2.915	2.861	0.470	7.082	5.183	5.500	5.752	-1.273	425.781
-4.272	-1.901	-3.993	-0.760	2.064	1.209	7.372	6.271	5.645	5.341	-1.244	-5.744	6.095	5.609	-6.938	-2.083	-2.284	-1.408	-0.368	0.714	3.164	2.997	0.576	6.838	4.982	4.950	5.115	-1.890	429.688
-3.880	-1.588	-3.852	-0.501	2.290	1.307	7.242	5.845	5.034	4.889	-1.932	-6.202	6.111	5.826	-6.675	-1.779	-1.959	-1.242	-0.127	0.978	3.424	3.170	0.710	6.605	4.762	4.410	4.522	-2.450	433.594
-3.543	-1.289	-3.723	-0.259	2.498	1.387	7.080	5.438	4.482	4.465	-2.556	-6.635	6.094	6.024	-6.369	-1.492	-1.662	-1.066	0.123	1.242	3.675	3.357	0.845	6.370	4.522	3.903	3.988	-2.924	437.500
-3.282	-1.022	-3.589	-0.045	2.680	1.449	6.891	5.100	4.053	4.095	-3.044	-6.987	6.025	6.175	-6.041	-1.247	-1.420	-0.904	0.350	1.483	3.891	3.527	0.953	6.120	4.268	3.451	3.521	-3.280	441.406
-3.107	-0.802	-3.441	0.132	2.829	1.492	6.680	4.875	3.793	3.803	-3.333	-7.201	5.887	6.255	-5.715	-1.066	-1.260	-0.782	0.525	1.678	4.050	3.651	1.010	5.839	4.012	3.076	3.124	-3.491	445.312
-3.019	-0.641	-3.281	0.267	2.937	1.512	6.456	4.785	3.723	3.599	-3.390	-7.229	5.676	6.248	-5.419	-0.966	-1.196	-0.719	0.629	1.813	4.137	3.707	0.999	5.521	3.763	2.789	2.798	-3.543	449.219
-3.005	-0.544	-3.120	0.358	3.001	1.507	6.225	4.831	3.833	3.484	-3.209	-7.049	5.399	6.151	-5.176	-0.950	-1.227	-0.722	0.655	1.882	4.149	3.684	0.915	5.165	3.533	2.594	2.540	-3.435	453.125
-3.043	-0.509	-2.973	0.409	3.022	1.476	5.996	4.989	4.087	3.450	-2.817	-6.662	5.077	5.976	-5.007	-1.008	-1.337	-0.789	0.613	1.891	4.095	3.589	0.766	4.783	3.326	2.482	2.345	-3.187	457.031
-3.112	-0.527	-2.859	0.429	3.008	1.420	5.777	5.219	4.431	3.480	-2.265	-6.100	4.739	5.745	-4.925	-1.117	-1.497	-0.906	0.524	1.859	3.993	3.438	0.570	4.393	3.144	2.434	2.207	-2.833	460.938
-3.190	-0.584	-2.792	0.428	2.966	1.342	5.573	5.474	4.802	3.555	-1.620	-5.411	4.414	5.486	-4.936	-1.251	-1.671	-1.055	0.417	1.803	3.867	3.257	0.351	4.019	2.985	2.427	2.121	-2.417	464.844
-3.265	-0.667	-2.777	0.411	2.906	1.249	5.389	5.705	5.145	3.654	-0.948	-4.656	4.131	5.226	-5.033	-1.379	-1.823	-1.213	0.318	1.745	3.737	3.074	0.135	3.685	2.845	2.439	2.079	-1.984	468.750
-3.331	-0.763	-2.814	0.382	2.835	1.146	5.224	5.877	5.417	3.758	-0.314	-3.898	3.910	4.989	-5.198	-1.480	-1.925	-1.357	0.251	1.696	3.621	2.915	-0.054	3.413	2.724	2.453	2.077	-1.574	472.656
-3.388	-0.865	-2.895	0.341	2.760	1.042	5.076	5.965	5.592	3.849	0.233	-3.192	3.760	4.788	-5.400	-1.541	-1.965	-1.470	0.226	1.659	3.524	2.799	-0.198	3.218	2.624	2.458	2.108	-1.216	476.562
-3.440	-0.970	-3.007	0.284	2.685	0.942	4.940	5.961	5.660	3.914	0.659	-2.584	3.678	4.628	-5.600	-1.562	-1.949	-1.539	0.243	1.632	3.449	2.736	-0.285	3.106	2.551	2.456	2.170	-0.928	480.469
-3.486	-1.077	-3.141	0.208	2.614	0.853	4.812	5.868	5.630	3.940	0.945	-2.104	3.652	4.504	-5.757	-1.552	-1.895	-1.560	0.290	1.604	3.388	2.726	-0.311	3.074	2.516	2.455	2.258	-0.715	484.375
-3.521	-1.185	-3.283	0.114	2.548	0.779	4.688	5.705	5.517	3.921	1.086	-1.770	3.662	4.407	-5.837	-1.529	-1.831	-1.535	0.348	1.561	3.332	2.760	-0.279	3.114	2.527	2.470	2.367	-0.570	488.281
-3.536	-1.293	-3.422	0.007	2.493	0.726	4.565	5.496	5.346	3.854	1.091	-1.588	3.685	4.325	-5.823	-1.513	-1.783	-1.473	0.397	1.494	3.271	2.823	-0.197	3.207	2.593	2.515	2.489	-0.482	492.188
-3.517	-1.396	-3.544	-0.105	2.450	0.698	4.447	5.270	5.144	3.743	0.979	-1.551	3.698	4.242	-5.717	-1.522	-1.774	-1.388	0.420	1.395	3.198	2.899	-0.077	3.333	2.715	2.599	2.614	-0.438	496.094
-3.451	-1.486	-3.636	-0.208	2.424	0.697	4.333	5.054	4.934	3.594	0.774	-1.647	3.682	4.149	-5.539	-1.565	-1.810	-1.298	0.410	1.265	3.106	2.972	0.070	3.467	2.890	2.722	2.725	-0.426	500.000
-3.328	-1.551	-3.683	-0.286	2.416	0.728	4.223	4.869	4.735	3.413	0.506	-1.855	3.619	4.036	-5.321	-1.643	-1.884	-1.214	0.368	1.113	2.997	3.031	0.231	3.582	3.103	2.874	2.803	-0.440	503.906
-3.145	-1.576	-3.673	-0.325	2.425	0.790	4.115	4.726	4.556	3.207	0.203	-2.150	3.498	3.896	-5.093	-1.744	-1.977	-1.146	0.304	0.955	2.874	3.069	0.398	3.653	3.332	3.033	2.827	-0.480	507.812
-2.908	-1.552	-3.601	-0.316	2.447	0.880	3.998	4.625	4.396	2.983	-0.108	-2.501	3.313	3.727	-4.876	-1.847	-2.057	-1.094	0.237	0.810	2.744	3.082	0.563	3.661	3.549	3.168	2.775	-0.549	511.719
-2.631	-1.470	-3.471	-0.253	2.474	0.990	3.863	4.552	4.249	2.743	-0.403	-2.873	3.067	3.529	-4.676	-1.922	-2.093	-1.050	0.187	0.699	2.615	3.073	0.721	3.590	3.725	3.247	2.634	-0.652	515.625
-2.333	-1.333	-3.295	-0.142	2.495	1.107	3.697	4.486	4.098	2.492	-0.662	-3.230	2.766	3.306	-4.481	-1.944	-2.056	-1.001	0.176	0.640	2.494	3.047	0.866	3.436	3.831	3.242	2.401	-0.788	519.531
-2.033	-1.152	-3.095	0.005	2.498	1.211	3.488	4.402	3.926	2.231	-0.871	-3.533	2.426	3.064	-4.266	-1.890	-1.932	-0.931	0.218	0.643	2.388	3.008	0.994	3.204	3.847	3.136	2.084	-0.955	523.438
-1.749	-0.943	-2.895	0.169	2.473	1.284	3.234	4.275	3.715	1.962	-1.026	-3.752	2.070	2.812	-4.004	-1.751	-1.718	-0.827	0.319	0.712	2.301	2.965	1.102	2.911	3.762	2.925	1.705	-1.142	527.344
-1.491	-0.728	-2.717	0.332	2.415	1.308	2.936	4.083	3.453	1.687	-1.131	-3.868	1.720	2.566	-3.673	-1.529	-1.427	-0.680	0.479	0.839	2.237	2.925	1.190	2.580	3.577	2.617	1.294	-1.337	531.250
-1.266	-0.524	-2.572	0.477	2.325	1.276	2.602	3.815	3.130	1.406	-1.197	-3.878	1.404	2.342	-3.266	-1.239	-1.083	-0.492	0.687	1.012	2.198	2.896	1.261	2.242	3.305	2.234	0.886	-1.529	535.156
-1.074	-0.347	-2.459	0.595	2.212	1.188	2.248	3.471	2.748	1.118	-1.247	-3.798	1.142	2.158	-2.798	-0.907	-0.713	-0.270	0.931	1.214	2.188	2.888	1.319	1.924	2.969	1.804	0.512	-1.711	539.062
-0.908	-0.201	-2.366	0.684	2.089	1.055	1.890	3.062	2.316	0.822	-1.306	-3.663	0.951	2.029	-2.303	-0.561	-0.340	-0.030	1.195	1.427	2.210	2.909	1.374	1.653	2.595	1.355	0.196	-1.885	542.969
-0.761	-0.087	-2.277	0.748	1.973	0.896	1.545	2.613	1.853	0.521	-1.397	-3.516	0.835	1.967	-1.824	-0.230	0.013	0.210	1.462	1.636	2.264	2.961	1.434	1.446	2.217	0.918	-0.048	-2.055	546.875
-0.624	0.003	-2.177	0.797	1.878	0.734	1.227	2.157	1.387	0.216	-1.539	-3.402	0.789	1.972	-1.404	0.062	0.333	0.430	1.716	1.830	2.347	3.043	1.503	1.306	1.865	0.516	-0.221	-2.231	550.781
-0.489	0.078	-2.056	0.841	1.818	0.588	0.947	1.731	0.949	-0.084	-1.736	-3.360	0.796	2.036	-1.076	0.296	0.608	0.615	1.940	2.000	2.455	3.145	1.582	1.228	1.564	0.168	-0.337	-2.421	554.688
-0.354	0.147	-1.915	0.889	1.798	0.475	0.712	1.372	0.576	-0.368	-1.981	-3.411	0.832	2.140	-0.849	0.466	0.829	0.753	2.117	2.143	2.575	3.251	1.667	1.191	1.335	-0.113	-0.414	-2.628	558.594
-0.215	0.215	-1.760	0.945	1.818	0.404	0.523	1.110	0.300	-0.621	-2.250	-3.556	0.867	2.256	-0.712	0.570	0.988	0.841	2.234	2.255	2.692	3.340	1.746	1.172	1.186	-0.321	-0.477	-2.847	562.500
-0.070	0.278	-1.602	1.005	1.867	0.375	0.379	0.964	0.146	-0.827	-2.512	-3.775	0.871	2.350	-0.634	0.615	1.076	0.879	2.281	2.333	2.785	3.391	1.808	1.142	1.117	-0.457	-0.546	-3.067	566.406
0.082	0.326	-1.448	1.060	1.928	0.378	0.273	0.939	0.130	-0.969	-2.729	-4.029	0.821	2.391	-0.580	0.608	1.085	0.871	2.251	2.372	2.833	3.384	1.843	1.076	1.117	-0.527	-0.637	-3.266	570.312
0.247	0.344	-1.306	1.094	1.983	0.399	0.198	1.024	0.248	-1.038	-2.865	-4.269	0.704	2.353	-0.517	0.559	1.013	0.825	2.147	2.366	2.819	3.309	1.844	0.958	1.169	-0.538	-0.752	-3.421	574.219
0.425	0.321	-1.176	1.095	2.011	0.420	0.145	1.192	0.478	-1.027	-2.896	-4.448	0.520	2.223	-0.425	0.478	0.866	0.749	1.978	2.311	2.734	3.164	1.809	0.783	1.252	-0.503	-0.886	-3.511	578.125
0.614	0.250	-1.060	1.052	2.001	0.424	0.104	1.408	0.783	-0.942	-2.813	-4.525	0.284	2.004	-0.303	0.373	0.657	0.653	1.761	2.207	2.577	2.958	1.742	0.556	1.344	-0.438	-1.022	-3.520	582.031
0.806	0.139	-0.958	0.967	1.947	0.399	0.069	1.631	1.113	-0.798	-2.627	-4.482	0.022	1.714	-0.164	0.257	0.415	0.545	1.516	2.060	2.362	2.708	1.655	0.298	1.424	-0.359	-1.142	-3.447	585.938
0.985	0.005	-0.872	0.851	1.856	0.341	0.033	1.822	1.414	-0.620	-2.367	-4.322	-0.232	1.386	-0.031	0.143	0.171	0.439	1.273	1.885	2.113	2.442	1.559	0.036	1.480	-0.285	-1.229	-3.303	589.844
1.130	-0.124	-0.804	0.720	1.742	0.255	-0.008	1.951	1.638	-0.439	-2.077	-4.073	-0.445	1.059	0.076	0.045	-0.039	0.347	1.057	1.701	1.863	2.187	1.469	-0.200	1.504	-0.229	-1.271	-3.113	593.750
1.221	-0.222	-0.758	0.596	1.622	0.149	-0.057	2.001	1.750	-0.290	-1.809	-3.782	-0.591	0.773	0.145	-0.020	-0.182	0.282	0.892	1.531	1.642	1.972	1.399	-0.382	1.501	-0.201	-1.263	-2.912	597.656
1.241	-0.264	-0.739	0.500	1.511	0.035	-0.119	1.969	1.732	-0.208	-1.612	-3.505	-0.658	0.559	0.179	-0.042	-0.238	0.258	0.797	1.397	1.477	1.820	1.361	-0.486	1.482	-0.200	-1.209	-2.734	601.562
1.189	-0.240	-0.750	0.442	1.419	-0.076	-0.200	1.865	1.590	-0.221	-1.529	-3.298	-0.648	0.436	0.195	-0.013	-0.203	0.280	0.776	1.314	1.386	1.747	1.362	-0.502	1.466	-0.215	-1.117	-2.610	605.469
1.077	-0.155	-0.790	0.426	1.344	-0.176	-0.309	1.708	1.347	-0.348	-1.586	-3.206	-0.583	0.401	0.218	0.066	-0.088	0.350	0.825	1.287	1.368	1.754	1.404	-0.429	1.477	-0.226	-1.000	-2.557	609.375
0.932	-0.027	-0.854	0.443	1.277	-0.264	-0.451	1.527	1.041	-0.592	-1.786	-3.250	-0.494	0.439	0.267	0.187	0.078	0.456	0.924	1.310	1.413	1.833	1.482	-0.277	1.536	-0.210	-0.870	-2.577	613.281
0.791	0.118	-0.932	0.475	1.202	-0.340	-0.631	1.352	0.719	-0.941	-2.111	-3.430	-0.419	0.518	0.352	0.332	0.261	0.582	1.048	1.366	1.495	1.962	1.590	-0.065	1.661	-0.142	-0.739	-2.655	617.188
0.688	0.252	-1.008	0.502	1.101	-0.410	-0.849	1.213	0.428	-1.367	-2.523	-3.718	-0.392	0.598	0.466	0.479	0.424	0.706	1.168	1.430	1.581	2.115	1.718	0.182	1.861	-0.003	-0.614	-2.764	621.094
0.648	0.349	-1.068	0.503	0.959	-0.480	-1.097	1.132	0.209	-1.831	-2.968	-4.065	-0.440	0.642	0.591	0.604	0.540	0.807	1.257	1.472	1.634	2.261	1.858	0.435	2.135	0.216	-0.498	-2.871	625.000
0.677	0.392	-1.098	0.459	0.765	-0.556	-1.362	1.123	0.090	-2.285	-3.385	-4.410	-0.574	0.616	0.699	0.683	0.592	0.866	1.294	1.462	1.623	2.372	2.000	0.670	2.470	0.512	-0.393	-2.937	628.906
0.766	0.374	-1.092	0.361	0.518	-0.645	-1.627	1.189	0.085	-2.681	-3.713	-4.688	-0.789	0.501	0.766	0.697	0.575	0.874	1.268	1.376	1.526	2.428	2.133	0.862	2.846	0.868	-0.295	-2.933	632.812
0.889	0.294	-1.050	0.205	0.222	-0.750	-1.872	1.322	0.196	-2.973	-3.899	-4.841	-1.066	0.292	0.777	0.634	0.494	0.830	1.174	1.200	1.331	2.413	2.244	0.997	3.231	1.259	-0.203	-2.837	636.719
1.014	0.159	-0.981	-0.007	-0.107	-0.871	-2.075	1.504	0.406	-3.129	-3.906	-4.825	-1.370	0.000	0.731	0.490	0.356	0.738	1.014	0.933	1.044	2.322	2.319	1.064	3.592	1.652	-0.112	-2.638	640.625
1.110	-0.022	-0.899	-0.262	-0.453	-1.006	-2.219	1.712	0.692	-3.127	-3.718	-4.615	-1.661	-0.350	0.636	0.270	0.171	0.608	0.794	0.586	0.683	2.155	2.345	1.064	3.894	2.013	-0.019	-2.343	644.531
1.153	-0.236	-0.820	-0.547	-0.793	-1.154	-2.292	1.919	1.020	-2.967	-3.342	-4.214	-1.898	-0.724	0.508	-0.013	-0.049	0.452	0.524	0.185	0.277	1.922	2.309	1.004	4.110	2.313	0.078	-1.969	648.438
1.129	-0.468	-0.758	-0.841	-1.108	-1.310	-2.291	2.100	1.354	-2.662	-2.809	-3.649	-2.048	-1.085	0.363	-0.335	-0.295	0.281	0.216	-0.238	-0.138	1.635	2.207	0.901	4.224	2.533	0.181	-1.543	652.344
1.038	-0.701	-0.723	-1.125	-1.382	-1.473	-2.221	2.228	1.658	-2.245	-2.168	-2.969	-2.088	-1.397	0.219	-0.671	-0.551	0.109	-0.114	-0.647	-0.524	1.314	2.042	0.774	4.233	2.664	0.291	-1.101	656.250
0.891	-0.917	-0.721	-1.380	-1.603	-1.640	-2.095	2.287	1.899	-1.760	-1.484	-2.235	-2.009	-1.632	0.084	-0.990	-0.804	-0.053	-0.445	-1.006	-0.849	0.981	1.830	0.648	4.150	2.709	0.409	-0.678	660.156
0.705	-1.100	-0.751	-1.589	-1.768	-1.809	-1.933	2.266	2.055	-1.257	-0.823	-1.517	-1.818	-1.770	-0.031	-1.268	-1.036	-0.192	-0.756	-1.289	-1.087	0.660	1.594	0.544	4.000	2.681	0.533	-0.306	664.062
0.502	-1.234	-0.810	-1.742	-1.876	-1.976	-1.753	2.164	2.111	-0.787	-0.246	-0.875	-1.538	-1.807	-0.123	-1.486	-1.233	-0.298	-1.025	-1.478	-1.225	0.373	1.361	0.478	3.815	2.600	0.662	-0.010	667.969
0.304	-1.311	-0.891	-1.832	-1.930	-2.133	-1.574	1.995	2.066	-0.394	0.200	-0.360	-1.199	-1.747	-0.186	-1.632	-1.385	-0.365	-1.236	-1.569	-1.260	0.140	1.156	0.459	3.624	2.489	0.791	0.195	671.875
0.136	-1.327	-0.984	-1.860	-1.936	-2.267	-1.409	1.778	1.930	-0.109	0.484	-0.004	-0.836	-1.607	-0.218	-1.703	-1.487	-0.391	-1.377	-1.570	-1.201	-0.028	0.999	0.484	3.451	2.365	0.908	0.303	675.781
0.016	-1.283	-1.075	-1.827	-1.899	-2.361	-1.266	1.541	1.718	0.052	0.597	0.180	-0.485	-1.407	-0.219	-1.704	-1.543	-0.381	-1.448	-1.496	-1.067	-0.126	0.900	0.540	3.308	2.238	1.001	0.316	679.688
-0.038	-1.185	-1.147	-1.740	-1.823	-2.399	-1.148	1.311	1.455	0.088	0.545	0.194	-0.174	-1.171	-0.194	-1.642	-1.557	-0.346	-1.456	-1.367	-0.880	-0.159	0.856	0.607	3.192	2.108	1.054	0.242	683.594
-0.019	-1.041	-1.182	-1.607	-1.714	-2.367	-1.058	1.108	1.161	0.011	0.352	0.056	0.077	-0.920	-0.155	-1.530	-1.536	-0.300	-1.412	-1.203	-0.663	-0.138	0.858	0.661	3.095	1.969	1.051	0.090	687.500
0.075	-0.861	-1.161	-1.437	-1.579	-2.260	-0.993	0.945	0.859	-0.156	0.048	-0.206	0.259	-0.671	-0.117	-1.376	-1.484	-0.256	-1.333	-1.020	-0.434	-0.075	0.891	0.684	2.999	1.810	0.984	-0.125	691.406
0.235	-0.658	-1.073	-1.241	-1.428	-2.089	-0.953	0.821	0.564	-0.383	-0.328	-0.556	0.376	-0.432	-0.096	-1.192	-1.402	-0.225	-1.234	-0.828	-0.207	0.013	0.938	0.663	2.888	1.624	0.848	-0.389	695.312
0.444	-0.441	-0.917	-1.029	-1.273	-1.872	-0.938	0.726	0.290	-0.641	-0.735	-0.953	0.440	-0.207	-0.102	-0.987	-1.292	-0.211	-1.128	-0.630	0.012	0.113	0.987	0.598	2.751	1.404	0.655	-0.686	699.219
0.677	-0.223	-0.704	-0.812	-1.126	-1.641	-0.949	0.645	0.042	-0.900	-1.136	-1.356	0.466	0.005	-0.136	-0.769	-1.153	-0.213	-1.024	-0.425	0.221	0.214	1.027	0.500	2.581	1.158	0.423	-0.994	703.125
0.902	-0.013	-0.455	-0.602	-1.000	-1.429	-0.985	0.558	-0.175	-1.138	-1.495	-1.724	0.475	0.206	-0.190	-0.546	-0.986	-0.222	-0.928	-0.212	0.420	0.306	1.054	0.386	2.385	0.900	0.180	-1.289	707.031
1.083	0.182	-0.204	-0.409	-0.903	-1.264	-1.043	0.451	-0.360	-1.335	-1.784	-2.019	0.482	0.396	-0.247	-0.323	-0.798	-0.227	-0.845	0.010	0.609	0.379	1.063	0.281	2.175	0.653	-0.041	-1.546	710.938
1.189	0.357	0.014	-0.242	-0.843	-1.166	-1.116	0.317	-0.511	-1.480	-1.982	-2.210	0.500	0.574	-0.287	-0.111	-0.601	-0.217	-0.776	0.233	0.786	0.430	1.053	0.208	1.969	0.446	-0.210	-1.738	714.844
1.195	0.504	0.162	-0.111	-0.823	-1.145	-1.196	0.162	-0.623	-1.565	-2.075	-2.277	0.536	0.732	-0.296	0.081	-0.410	-0.185	-0.722	0.445	0.943	0.455	1.024	0.183	1.791	0.303	-0.300	-1.841	718.750
1.091	0.618	0.214	-0.027	-0.844	-1.193	-1.269	-0.003	-0.693	-1.585	-2.058	-2.211	0.592	0.859	-0.264	0.240	-0.243	-0.129	-0.684	0.625	1.069	0.453	0.977	0.216	1.659	0.246	-0.300	-1.842	722.656
0.888	0.688	0.160	0.002	-0.907	-1.297	-1.321	-0.156	-0.713	-1.542	-1.936	-2.020	0.664	0.944	-0.190	0.351	-0.118	-0.054	-0.666	0.751	1.149	0.424	0.918	0.307	1.588	0.280	-0.208	-1.737	726.562
0.611	0.701	0.013	-0.034	-1.009	-1.435	-1.342	-0.277	-0.680	-1.437	-1.721	-1.725	0.744	0.977	-0.085	0.402	-0.050	0.029	-0.668	0.800	1.169	0.369	0.851	0.441	1.584	0.400	-0.037	-1.535	730.469
0.302	0.646	-0.194	-0.137	-1.146	-1.581	-1.321	-0.345	-0.592	-1.276	-1.431	-1.358	0.822	0.949	0.035	0.383	-0.046	0.107	-0.694	0.758	1.116	0.291	0.781	0.599	1.641	0.587	0.187	-1.259	734.375
0.007	0.518	-0.415	-0.304	-1.312	-1.711	-1.256	-0.346	-0.452	-1.068	-1.093	-0.960	0.888	0.859	0.148	0.290	-0.106	0.162	-0.747	0.621	0.988	0.187	0.714	0.751	1.744	0.811	0.433	-0.940	738.281
-0.230	0.320	-0.603	-0.522	-1.496	-1.804	-1.147	-0.275	-0.268	-0.825	-0.734	-0.570	0.935	0.714	0.231	0.129	-0.221	0.181	-0.830	0.398	0.787	0.057	0.649	0.871	1.869	1.040	0.670	-0.613	742.188
-0.376	0.070	-0.721	-0.768	-1.683	-1.845	-0.999	-0.136	-0.055	-0.559	-0.381	-0.221	0.961	0.528	0.264	-0.085	-0.379	0.153	-0.945	0.113	0.529	-0.103	0.584	0.936	1.988	1.243	0.870	-0.313	746.094
-0.416	-0.207	-0.751	-1.015	-1.855	-1.824	-0.822	0.058	0.173	-0.285	-0.058	0.062	0.969	0.321	0.234	-0.329	-0.563	0.074	-1.095	-0.204	0.239	-0.292	0.516	0.932	2.075	1.396	1.015	-0.065	750.000
-0.354	-0.474	-0.694	-1.230	-1.994	-1.742	-0.628	0.285	0.394	-0.017	0.219	0.270	0.966	0.116	0.137	-0.574	-0.759	-0.052	-1.277	-0.515	-0.054	-0.507	0.439	0.860	2.111	1.487	1.101	0.115	753.906
-0.217	-0.694	-0.574	-1.388	-2.087	-1.605	-0.433	0.520	0.593	0.231	0.440	0.404	0.960	-0.066	-0.020	-0.792	-0.952	-0.214	-1.485	-0.784	-0.317	-0.738	0.351	0.732	2.088	1.517	1.133	0.228	757.812
-0.044	-0.840	-0.420	-1.471	-2.127	-1.432	-0.254	0.735	0.753	0.446	0.600	0.476	0.961	-0.206	-0.218	-0.957	-1.128	-0.394	-1.704	-0.984	-0.524	-0.970	0.254	0.572	2.012	1.497	1.127	0.281	761.719
0.125	-0.897	-0.265	-1.476	-2.118	-1.248	-0.107	0.903	0.864	0.616	0.703	0.503	0.975	-0.297	-0.427	-1.055	-1.279	-0.568	-1.915	-1.099	-0.656	-1.184	0.155	0.408	1.899	1.444	1.102	0.292	765.625
0.254	-0.867	-0.131	-1.413	-2.072	-1.080	-0.008	1.005	0.922	0.732	0.755	0.500	1.003	-0.335	-0.609	-1.079	-1.399	-0.714	-2.098	-1.125	-0.707	-1.357	0.061	0.267	1.774	1.376	1.075	0.275	769.531
0.322	-0.769	-0.025	-1.302	-2.010	-0.956	0.031	1.032	0.931	0.787	0.762	0.478	1.044	-0.327	-0.728	-1.034	-1.483	-0.815	-2.232	-1.071	-0.683	-1.472	-0.018	0.172	1.660	1.304	1.057	0.243	773.438
0.328	-0.635	0.058	-1.170	-1.953	-0.897	0.004	0.983	0.896	0.779	0.734	0.442	1.090	-0.283	-0.751	-0.930	-1.532	-0.858	-2.300	-0.954	-0.598	-1.514	-0.075	0.131	1.578	1.232	1.050	0.200	777.344
0.283	-0.495	0.133	-1.041	-1.919	-0.915	-0.090	0.867	0.829	0.713	0.679	0.391	1.133	-0.216	-0.659	-0.784	-1.547	-0.840	-2.295	-0.796	-0.472	-1.478	-0.108	0.146	1.537	1.157	1.052	0.142	781.250
0.205	-0.378	0.220	-0.936	-1.921	-1.012	-0.244	0.701	0.742	0.596	0.605	0.324	1.166	-0.138	-0.450	-0.612	-1.533	-0.768	-2.218	-0.617	-0.325	-1.367	-0.117	0.207	1.541	1.073	1.055	0.067	785.156
0.115	-0.298	0.330	-0.862	-1.962	-1.174	-0.444	0.503	0.646	0.440	0.519	0.240	1.187	-0.058	-0.139	-0.428	-1.496	-0.651	-2.079	-0.436	-0.175	-1.196	-0.105	0.302	1.582	0.974	1.052	-0.029	789.062
0.027	-0.258	0.467	-0.820	-2.037	-1.384	-0.675	0.290	0.550	0.262	0.429	0.141	1.195	0.017	0.246	-0.242	-1.446	-0.507	-1.897	-0.262	-0.032	-0.983	-0.079	0.415	1.649	0.859	1.040	-0.144	792.969
-0.051	-0.248	0.627	-0.801	-2.133	-1.615	-0.917	0.077	0.458	0.076	0.340	0.034	1.193	0.084	0.666	-0.064	-1.393	-0.353	-1.696	-0.101	0.098	-0.752	-0.047	0.532	1.730	0.734	1.020	-0.270	796.875
