FP1	F3	F7	FC3	C3	C5	P3	P7	PO7	PO3	O1	Oz	Pz	CPz	FP2	Fz	F4	F8	FC4	FCz	Cz	C4	C6	P4	P8	PO8	PO4	O2	time
-0.334	-0.269	-0.261	-0.019	-0.496	0.038	-1.105	-2.045	-1.687	-2.299	-2.356	-1.617	0.710	2.278	0.662	0.968	1.378	1.017	1.345	1.677	2.539	1.649	1.474	0.734	-0.213	-1.996	-1.082	-1.549	-199.219
-0.256	-0.242	-0.263	-0.247	-0.397	-0.155	-0.902	-1.784	-1.293	-2.049	-1.801	-1.315	0.699	2.218	0.422	0.848	1.029	0.876	1.080	1.593	2.416	1.323	1.082	0.554	-0.287	-1.729	-0.931	-1.388	-195.312
-0.219	-0.258	-0.299	-0.501	-0.301	-0.323	-0.687	-1.516	-0.894	-1.771	-1.253	-0.995	0.701	2.153	0.162	0.697	0.675	0.708	0.814	1.486	2.285	1.018	0.720	0.406	-0.330	-1.426	-0.749	-1.183	-191.406
-0.247	-0.343	-0.385	-0.790	-0.217	-0.451	-0.458	-1.244	-0.494	-1.453	-0.727	-0.650	0.720	2.077	-0.124	0.503	0.320	0.501	0.552	1.340	2.142	0.750	0.415	0.315	-0.317	-1.062	-0.519	-0.907	-187.500
-0.350	-0.503	-0.524	-1.108	-0.151	-0.532	-0.225	-0.978	-0.108	-1.095	-0.245	-0.283	0.753	1.979	-0.429	0.266	-0.024	0.257	0.306	1.154	1.981	0.538	0.188	0.291	-0.237	-0.629	-0.236	-0.553	-183.594
-0.512	-0.724	-0.697	-1.435	-0.111	-0.566	-0.009	-0.737	0.236	-0.717	0.164	0.088	0.787	1.852	-0.736	0.002	-0.340	-0.002	0.089	0.937	1.802	0.389	0.051	0.330	-0.090	-0.141	0.088	-0.135	-179.688
-0.703	-0.975	-0.878	-1.737	-0.105	-0.563	0.164	-0.544	0.508	-0.349	0.472	0.436	0.804	1.688	-1.015	-0.257	-0.606	-0.240	-0.081	0.710	1.609	0.309	0.007	0.417	0.113	0.372	0.425	0.310	-175.781
-0.883	-1.213	-1.029	-1.975	-0.135	-0.538	0.267	-0.420	0.675	-0.030	0.653	0.729	0.785	1.487	-1.234	-0.472	-0.793	-0.421	-0.187	0.502	1.410	0.297	0.048	0.523	0.343	0.860	0.736	0.731	-171.875
-1.014	-1.391	-1.120	-2.113	-0.197	-0.507	0.281	-0.376	0.717	0.203	0.690	0.936	0.714	1.255	-1.360	-0.605	-0.878	-0.515	-0.216	0.341	1.215	0.344	0.158	0.621	0.566	1.271	0.980	1.073	-167.969
-1.069	-1.475	-1.129	-2.126	-0.284	-0.484	0.202	-0.409	0.629	0.322	0.581	1.036	0.586	1.003	-1.369	-0.629	-0.844	-0.504	-0.163	0.249	1.035	0.439	0.312	0.681	0.746	1.551	1.121	1.289	-164.062
-1.034	-1.444	-1.048	-2.005	-0.382	-0.479	0.038	-0.501	0.424	0.314	0.338	1.020	0.403	0.747	-1.253	-0.534	-0.688	-0.394	-0.032	0.239	0.879	0.563	0.482	0.684	0.852	1.661	1.132	1.346	-160.156
-0.910	-1.295	-0.887	-1.762	-0.472	-0.491	-0.185	-0.622	0.134	0.189	-0.009	0.895	0.178	0.504	-1.018	-0.331	-0.424	-0.202	0.161	0.304	0.751	0.697	0.642	0.622	0.865	1.582	1.008	1.234	-156.250
-0.710	-1.048	-0.668	-1.426	-0.537	-0.515	-0.429	-0.739	-0.201	-0.030	-0.420	0.680	-0.067	0.290	-0.692	-0.049	-0.083	0.041	0.391	0.430	0.653	0.821	0.770	0.499	0.781	1.314	0.758	0.963	-152.344
-0.458	-0.732	-0.419	-1.039	-0.558	-0.535	-0.655	-0.818	-0.531	-0.303	-0.847	0.404	-0.308	0.120	-0.312	0.271	0.293	0.300	0.628	0.590	0.582	0.917	0.853	0.331	0.608	0.884	0.409	0.564	-148.438
-0.181	-0.384	-0.168	-0.642	-0.522	-0.533	-0.826	-0.834	-0.816	-0.584	-1.242	0.096	-0.519	0.001	0.073	0.586	0.655	0.538	0.844	0.754	0.535	0.972	0.887	0.138	0.371	0.333	-0.004	0.077	-144.531
0.093	-0.037	0.061	-0.272	-0.423	-0.491	-0.914	-0.776	-1.022	-0.833	-1.567	-0.214	-0.678	-0.063	0.416	0.854	0.959	0.729	1.011	0.897	0.510	0.981	0.878	-0.054	0.098	-0.284	-0.440	-0.452	-140.625
0.339	0.283	0.258	0.051	-0.262	-0.394	-0.907	-0.646	-1.132	-1.018	-1.794	-0.505	-0.771	-0.074	0.683	1.051	1.168	0.851	1.113	0.999	0.504	0.944	0.834	-0.226	-0.178	-0.908	-0.863	-0.976	-136.719
0.538	0.561	0.421	0.321	-0.048	-0.239	-0.809	-0.463	-1.142	-1.123	-1.909	-0.763	-0.791	-0.039	0.849	1.163	1.263	0.894	1.142	1.053	0.518	0.868	0.766	-0.363	-0.430	-1.483	-1.241	-1.455	-132.812
0.676	0.792	0.557	0.541	0.200	-0.032	-0.637	-0.249	-1.060	-1.147	-1.913	-0.980	-0.743	0.033	0.912	1.195	1.244	0.856	1.104	1.057	0.550	0.763	0.683	-0.457	-0.637	-1.959	-1.551	-1.856	-128.906
0.750	0.975	0.676	0.721	0.454	0.209	-0.420	-0.034	-0.905	-1.100	-1.817	-1.153	-0.638	0.130	0.884	1.161	1.128	0.741	1.008	1.020	0.597	0.638	0.588	-0.507	-0.788	-2.296	-1.771	-2.151	-125.000
0.763	1.112	0.782	0.868	0.686	0.455	-0.190	0.159	-0.701	-0.999	-1.640	-1.278	-0.492	0.239	0.787	1.080	0.942	0.561	0.870	0.952	0.654	0.504	0.483	-0.516	-0.877	-2.467	-1.886	-2.317	-121.094
0.723	1.204	0.871	0.984	0.864	0.675	0.024	0.312	-0.473	-0.860	-1.408	-1.351	-0.322	0.346	0.651	0.973	0.718	0.333	0.705	0.860	0.709	0.367	0.366	-0.487	-0.909	-2.458	-1.884	-2.338	-117.188
0.644	1.246	0.933	1.064	0.963	0.835	0.201	0.419	-0.244	-0.695	-1.143	-1.364	-0.145	0.439	0.502	0.852	0.488	0.079	0.526	0.752	0.749	0.231	0.234	-0.424	-0.887	-2.270	-1.757	-2.207	-113.281
0.538	1.232	0.948	1.099	0.966	0.911	0.331	0.479	-0.030	-0.507	-0.866	-1.309	0.027	0.503	0.359	0.722	0.273	-0.180	0.342	0.628	0.757	0.096	0.092	-0.331	-0.820	-1.919	-1.505	-1.925	-109.375
0.413	1.155	0.902	1.083	0.871	0.889	0.415	0.503	0.159	-0.296	-0.590	-1.178	0.183	0.527	0.235	0.581	0.085	-0.420	0.158	0.484	0.717	-0.038	-0.056	-0.211	-0.714	-1.429	-1.139	-1.503	-105.469
0.275	1.014	0.782	1.012	0.686	0.772	0.464	0.502	0.324	-0.058	-0.325	-0.969	0.318	0.499	0.129	0.419	-0.074	-0.624	-0.024	0.313	0.614	-0.172	-0.198	-0.068	-0.575	-0.839	-0.679	-0.968	-101.562
0.126	0.811	0.589	0.888	0.434	0.580	0.493	0.493	0.466	0.207	-0.074	-0.688	0.428	0.411	0.034	0.227	-0.215	-0.778	-0.207	0.110	0.439	-0.306	-0.322	0.090	-0.409	-0.191	-0.159	-0.355	-97.656
-0.031	0.558	0.339	0.720	0.144	0.343	0.519	0.489	0.595	0.494	0.165	-0.347	0.511	0.261	-0.060	-0.005	-0.349	-0.877	-0.391	-0.131	0.191	-0.438	-0.416	0.253	-0.222	0.466	0.382	0.291	-93.750
-0.194	0.275	0.056	0.520	-0.148	0.096	0.554	0.500	0.714	0.794	0.393	0.029	0.565	0.051	-0.165	-0.274	-0.493	-0.918	-0.578	-0.407	-0.122	-0.564	-0.473	0.410	-0.024	1.085	0.898	0.917	-89.844
-0.354	-0.013	-0.224	0.308	-0.410	-0.124	0.602	0.533	0.825	1.086	0.609	0.412	0.591	-0.207	-0.285	-0.572	-0.653	-0.910	-0.764	-0.706	-0.482	-0.677	-0.492	0.547	0.174	1.618	1.345	1.473	-85.938
-0.499	-0.277	-0.463	0.105	-0.613	-0.290	0.660	0.585	0.925	1.346	0.811	0.769	0.590	-0.495	-0.417	-0.876	-0.829	-0.861	-0.941	-1.011	-0.860	-0.770	-0.478	0.652	0.355	2.025	1.683	1.911	-82.031
-0.612	-0.488	-0.629	-0.066	-0.740	-0.388	0.720	0.649	1.002	1.546	0.990	1.067	0.563	-0.788	-0.546	-1.156	-1.005	-0.784	-1.095	-1.296	-1.222	-0.833	-0.439	0.713	0.501	2.275	1.883	2.195	-78.125
-0.677	-0.623	-0.699	-0.185	-0.782	-0.415	0.765	0.714	1.042	1.661	1.136	1.280	0.510	-1.060	-0.654	-1.379	-1.157	-0.692	-1.206	-1.532	-1.534	-0.856	-0.388	0.720	0.593	2.350	1.926	2.303	-74.219
-0.679	-0.669	-0.662	-0.237	-0.743	-0.380	0.780	0.769	1.029	1.672	1.239	1.389	0.431	-1.285	-0.715	-1.516	-1.256	-0.591	-1.253	-1.694	-1.765	-0.834	-0.332	0.670	0.619	2.246	1.813	2.228	-70.312
-0.607	-0.623	-0.526	-0.216	-0.636	-0.298	0.751	0.804	0.948	1.571	1.289	1.388	0.328	-1.442	-0.709	-1.545	-1.272	-0.487	-1.218	-1.764	-1.895	-0.766	-0.278	0.562	0.572	1.975	1.555	1.984	-66.406
-0.460	-0.495	-0.312	-0.123	-0.478	-0.185	0.668	0.811	0.795	1.362	1.282	1.280	0.202	-1.521	-0.620	-1.458	-1.189	-0.378	-1.093	-1.734	-1.917	-0.657	-0.231	0.400	0.456	1.564	1.178	1.598	-62.500
-0.245	-0.303	-0.047	0.034	-0.290	-0.056	0.533	0.785	0.571	1.064	1.217	1.081	0.055	-1.520	-0.445	-1.265	-1.001	-0.258	-0.883	-1.611	-1.839	-0.522	-0.191	0.196	0.283	1.051	0.720	1.110	-58.594
0.023	-0.074	0.236	0.241	-0.092	0.080	0.353	0.724	0.289	0.708	1.101	0.816	-0.109	-1.448	-0.196	-0.986	-0.721	-0.120	-0.609	-1.412	-1.683	-0.382	-0.163	-0.039	0.078	0.485	0.225	0.570	-54.688
0.316	0.166	0.505	0.479	0.100	0.215	0.145	0.629	-0.026	0.332	0.947	0.516	-0.282	-1.324	0.106	-0.657	-0.379	0.039	-0.304	-1.166	-1.481	-0.261	-0.150	-0.286	-0.130	-0.079	-0.262	0.033	-50.781
0.604	0.392	0.736	0.728	0.272	0.346	-0.071	0.505	-0.342	-0.021	0.771	0.215	-0.456	-1.174	0.425	-0.315	-0.014	0.214	-0.011	-0.904	-1.268	-0.186	-0.159	-0.526	-0.311	-0.586	-0.693	-0.449	-46.875
0.854	0.583	0.909	0.967	0.416	0.467	-0.269	0.364	-0.620	-0.309	0.596	-0.053	-0.619	-1.025	0.720	-0.003	0.327	0.392	0.229	-0.660	-1.079	-0.171	-0.197	-0.740	-0.439	-0.985	-1.027	-0.828	-42.969
1.033	0.721	1.010	1.171	0.525	0.572	-0.424	0.225	-0.819	-0.494	0.449	-0.260	-0.760	-0.902	0.951	0.246	0.601	0.549	0.379	-0.460	-0.939	-0.226	-0.270	-0.912	-0.496	-1.234	-1.231	-1.065	-39.062
1.118	0.796	1.027	1.316	0.594	0.652	-0.514	0.112	-0.903	-0.549	0.355	-0.383	-0.864	-0.821	1.086	0.405	0.776	0.655	0.418	-0.326	-0.866	-0.342	-0.379	-1.027	-0.477	-1.308	-1.282	-1.138	-35.156
1.093	0.797	0.954	1.375	0.620	0.695	-0.521	0.052	-0.843	-0.458	0.339	-0.410	-0.916	-0.787	1.105	0.463	0.831	0.680	0.340	-0.267	-0.862	-0.501	-0.519	-1.074	-0.388	-1.200	-1.170	-1.035	-31.250
0.956	0.721	0.785	1.328	0.601	0.687	-0.436	0.066	-0.631	-0.222	0.419	-0.341	-0.906	-0.794	1.007	0.418	0.767	0.601	0.162	-0.282	-0.920	-0.677	-0.676	-1.048	-0.244	-0.922	-0.902	-0.766	-27.344
0.717	0.567	0.523	1.161	0.537	0.614	-0.263	0.161	-0.278	0.142	0.597	-0.185	-0.825	-0.826	0.808	0.285	0.598	0.408	-0.086	-0.361	-1.024	-0.837	-0.832	-0.946	-0.065	-0.501	-0.496	-0.351	-23.438
0.398	0.343	0.180	0.873	0.432	0.470	-0.015	0.329	0.180	0.599	0.864	0.039	-0.674	-0.865	0.537	0.087	0.353	0.113	-0.366	-0.485	-1.151	-0.954	-0.963	-0.775	0.132	0.022	0.014	0.174	-19.531
0.031	0.063	-0.224	0.483	0.294	0.255	0.279	0.546	0.686	1.098	1.192	0.304	-0.463	-0.890	0.229	-0.145	0.070	-0.255	-0.637	-0.633	-1.282	-1.008	-1.049	-0.544	0.336	0.604	0.587	0.767	-15.625
-0.343	-0.252	-0.659	0.024	0.135	-0.017	0.584	0.774	1.176	1.581	1.542	0.583	-0.209	-0.889	-0.077	-0.379	-0.216	-0.651	-0.865	-0.783	-1.400	-0.992	-1.071	-0.272	0.539	1.196	1.175	1.380	-11.719
-0.683	-0.570	-1.090	-0.456	-0.029	-0.324	0.863	0.973	1.584	1.988	1.871	0.847	0.059	-0.860	-0.350	-0.586	-0.469	-1.023	-1.029	-0.916	-1.494	-0.914	-1.024	0.017	0.740	1.755	1.730	1.965	-7.812
-0.952	-0.859	-1.480	-0.904	-0.180	-0.634	1.080	1.111	1.857	2.270	2.133	1.074	0.310	-0.812	-0.562	-0.740	-0.664	-1.324	-1.118	-1.019	-1.564	-0.789	-0.912	0.297	0.939	2.240	2.205	2.477	-3.906
-1.122	-1.086	-1.795	-1.269	-0.303	-0.915	1.212	1.167	1.965	2.391	2.295	1.246	0.514	-0.760	-0.695	-0.824	-0.783	-1.517	-1.135	-1.082	-1.612	-0.641	-0.749	0.538	1.133	2.616	2.561	2.879	0.000
-1.179	-1.226	-2.011	-1.510	-0.387	-1.137	1.244	1.135	1.905	2.340	2.341	1.356	0.644	-0.723	-0.741	-0.830	-0.814	-1.586	-1.088	-1.101	-1.644	-0.495	-0.556	0.715	1.315	2.855	2.770	3.140	3.906
-1.126	-1.267	-2.114	-1.606	-0.426	-1.281	1.179	1.029	1.696	2.130	2.273	1.404	0.683	-0.719	-0.701	-0.755	-0.757	-1.529	-0.991	-1.076	-1.667	-0.369	-0.358	0.806	1.474	2.937	2.816	3.243	7.812
-0.984	-1.210	-2.109	-1.555	-0.422	-1.339	1.032	0.872	1.382	1.799	2.116	1.399	0.626	-0.760	-0.583	-0.611	-0.619	-1.365	-0.857	-1.010	-1.684	-0.272	-0.178	0.800	1.596	2.856	2.697	3.185	11.719
-0.783	-1.074	-2.012	-1.374	-0.380	-1.317	0.828	0.694	1.016	1.399	1.913	1.359	0.477	-0.846	-0.405	-0.416	-0.413	-1.125	-0.697	-0.912	-1.696	-0.207	-0.032	0.697	1.668	2.623	2.428	2.980	15.625
-0.560	-0.890	-1.849	-1.094	-0.311	-1.230	0.597	0.527	0.653	0.992	1.712	1.303	0.255	-0.971	-0.189	-0.195	-0.162	-0.848	-0.524	-0.792	-1.703	-0.169	0.071	0.507	1.685	2.264	2.040	2.657	19.531
-0.354	-0.695	-1.655	-0.751	-0.227	-1.098	0.370	0.395	0.337	0.637	1.557	1.247	-0.015	-1.119	0.040	0.019	0.106	-0.572	-0.346	-0.665	-1.703	-0.148	0.128	0.253	1.644	1.825	1.574	2.260	23.438
-0.194	-0.526	-1.464	-0.383	-0.137	-0.943	0.178	0.314	0.099	0.379	1.475	1.204	-0.300	-1.269	0.255	0.197	0.362	-0.332	-0.175	-0.549	-1.696	-0.134	0.144	-0.034	1.555	1.366	1.084	1.843	27.344
-0.104	-0.411	-1.302	-0.021	-0.046	-0.784	0.043	0.284	-0.048	0.243	1.470	1.170	-0.563	-1.396	0.430	0.314	0.576	-0.151	-0.022	-0.456	-1.680	-0.121	0.129	-0.317	1.434	0.951	0.629	1.460	31.250
-0.092	-0.367	-1.187	0.313	0.043	-0.634	-0.016	0.299	-0.109	0.229	1.515	1.129	-0.767	-1.477	0.548	0.357	0.728	-0.041	0.102	-0.398	-1.651	-0.108	0.092	-0.557	1.303	0.646	0.267	1.163	35.156
-0.153	-0.392	-1.128	0.606	0.132	-0.506	0.011	0.343	-0.100	0.313	1.560	1.053	-0.877	-1.491	0.595	0.324	0.803	-0.007	0.187	-0.376	-1.608	-0.099	0.043	-0.721	1.190	0.504	0.050	0.990	39.062
-0.273	-0.472	-1.119	0.853	0.225	-0.407	0.127	0.402	-0.045	0.451	1.535	0.905	-0.865	-1.422	0.565	0.228	0.800	-0.040	0.227	-0.388	-1.545	-0.100	-0.012	-0.781	1.121	0.566	0.018	0.968	42.969
-0.433	-0.585	-1.155	1.054	0.319	-0.345	0.325	0.460	0.035	0.590	1.371	0.651	-0.715	-1.264	0.460	0.087	0.727	-0.130	0.219	-0.426	-1.458	-0.118	-0.065	-0.716	1.122	0.849	0.197	1.107	46.875
-0.613	-0.709	-1.224	1.209	0.408	-0.331	0.586	0.512	0.127	0.676	1.012	0.269	-0.427	-1.020	0.291	-0.077	0.598	-0.261	0.164	-0.482	-1.347	-0.156	-0.112	-0.520	1.209	1.353	0.592	1.402	50.781
-0.798	-0.826	-1.322	1.315	0.480	-0.374	0.884	0.556	0.230	0.664	0.433	-0.241	-0.020	-0.708	0.069	-0.246	0.433	-0.417	0.067	-0.549	-1.217	-0.214	-0.149	-0.196	1.393	2.058	1.190	1.838	54.688
-0.977	-0.931	-1.443	1.366	0.513	-0.483	1.186	0.603	0.354	0.529	-0.352	-0.852	0.470	-0.362	-0.189	-0.411	0.246	-0.582	-0.063	-0.631	-1.084	-0.285	-0.171	0.240	1.674	2.930	1.954	2.393	58.594
-1.149	-1.030	-1.588	1.349	0.484	-0.662	1.455	0.666	0.524	0.268	-1.284	-1.508	0.992	-0.024	-0.468	-0.573	0.050	-0.747	-0.220	-0.738	-0.974	-0.361	-0.177	0.762	2.048	3.928	2.835	3.038	62.500
-1.321	-1.138	-1.761	1.253	0.368	-0.909	1.659	0.765	0.772	-0.094	-2.263	-2.130	1.490	0.252	-0.757	-0.743	-0.153	-0.907	-0.399	-0.890	-0.919	-0.435	-0.166	1.337	2.504	5.013	3.773	3.746	66.406
-1.503	-1.278	-1.966	1.063	0.149	-1.217	1.777	0.912	1.128	-0.508	-3.168	-2.630	1.907	0.418	-1.051	-0.942	-0.367	-1.064	-0.601	-1.108	-0.959	-0.505	-0.143	1.928	3.033	6.154	4.711	4.498	70.312
-1.711	-1.471	-2.209	0.766	-0.185	-1.577	1.802	1.117	1.620	-0.907	-3.871	-2.922	2.207	0.435	-1.352	-1.193	-0.603	-1.227	-0.832	-1.414	-1.129	-0.573	-0.117	2.504	3.629	7.334	5.608	5.283	74.219
-1.963	-1.738	-2.501	0.353	-0.630	-1.978	1.747	1.379	2.261	-1.213	-4.256	-2.935	2.371	0.281	-1.669	-1.516	-0.879	-1.412	-1.101	-1.825	-1.453	-0.651	-0.100	3.043	4.292	8.557	6.441	6.103	78.125
-2.279	-2.091	-2.853	-0.179	-1.174	-2.412	1.647	1.690	3.055	-1.344	-4.242	-2.628	2.410	-0.040	-2.018	-1.931	-1.211	-1.638	-1.423	-2.348	-1.942	-0.756	-0.107	3.532	5.021	9.834	7.216	6.970	82.031
-2.676	-2.535	-3.280	-0.826	-1.788	-2.871	1.553	2.037	3.991	-1.230	-3.791	-1.991	2.361	-0.504	-2.415	-2.445	-1.614	-1.925	-1.806	-2.976	-2.583	-0.904	-0.155	3.971	5.813	11.182	7.956	7.899	85.938
-3.165	-3.067	-3.792	-1.569	-2.433	-3.350	1.525	2.406	5.042	-0.817	-2.919	-1.054	2.276	-1.065	-2.877	-3.057	-2.094	-2.285	-2.256	-3.694	-3.344	-1.110	-0.256	4.368	6.657	12.607	8.695	8.901	89.844
-3.744	-3.668	-4.395	-2.373	-3.066	-3.839	1.622	2.780	6.170	-0.084	-1.691	0.118	2.211	-1.665	-3.406	-3.750	-2.645	-2.721	-2.767	-4.468	-4.175	-1.378	-0.414	4.732	7.525	14.086	9.459	9.970	93.750
-4.398	-4.312	-5.079	-3.190	-3.638	-4.326	1.885	3.140	7.321	0.954	-0.215	1.435	2.216	-2.248	-3.995	-4.492	-3.243	-3.217	-3.319	-5.258	-5.012	-1.701	-0.621	5.069	8.377	15.563	10.256	11.074	97.656
-5.093	-4.960	-5.817	-3.961	-4.106	-4.790	2.327	3.459	8.426	2.243	1.373	2.786	2.318	-2.758	-4.615	-5.235	-3.851	-3.735	-3.881	-6.013	-5.787	-2.055	-0.857	5.375	9.157	16.944	11.063	12.152	101.562
-5.778	-5.565	-6.562	-4.623	-4.435	-5.208	2.933	3.709	9.400	3.688	2.927	4.058	2.522	-3.153	-5.221	-5.920	-4.420	-4.223	-4.409	-6.678	-6.437	-2.406	-1.092	5.638	9.799	18.106	11.825	13.119	105.469
-6.388	-6.078	-7.251	-5.117	-4.603	-5.551	3.653	3.852	10.153	5.172	4.310	5.148	2.808	-3.408	-5.754	-6.486	-4.896	-4.620	-4.854	-7.201	-6.908	-2.713	-1.286	5.841	10.241	18.915	12.465	13.876	109.375
-6.858	-6.452	-7.818	-5.402	-4.603	-5.791	4.418	3.848	10.596	6.565	5.407	5.971	3.138	-3.511	-6.152	-6.874	-5.228	-4.870	-5.169	-7.538	-7.165	-2.930	-1.400	5.960	10.435	19.255	12.897	14.329	113.281
-7.128	-6.649	-8.198	-5.451	-4.441	-5.905	5.148	3.660	10.655	7.743	6.139	6.473	3.468	-3.466	-6.361	-7.040	-5.375	-4.929	-5.312	-7.656	-7.193	-3.021	-1.399	5.976	10.351	19.048	13.042	14.400	117.188
-7.156	-6.645	-8.345	-5.263	-4.138	-5.878	5.766	3.262	10.286	8.602	6.466	6.632	3.753	-3.288	-6.343	-6.960	-5.316	-4.777	-5.258	-7.539	-6.999	-2.959	-1.261	5.878	9.983	18.270	12.844	14.049	121.094
-6.928	-6.434	-8.237	-4.861	-3.721	-5.710	6.210	2.644	9.486	9.079	6.391	6.457	3.957	-3.001	-6.082	-6.630	-5.044	-4.414	-4.997	-7.188	-6.604	-2.737	-0.983	5.659	9.355	16.959	12.281	13.274	125.000
-6.457	-6.028	-7.882	-4.283	-3.223	-5.409	6.447	1.819	8.303	9.155	5.954	5.984	4.058	-2.630	-5.593	-6.070	-4.572	-3.866	-4.539	-6.621	-6.044	-2.366	-0.581	5.326	8.508	15.210	11.369	12.117	128.906
-5.787	-5.457	-7.318	-3.588	-2.678	-5.002	6.470	0.824	6.830	8.860	5.229	5.272	4.049	-2.206	-4.912	-5.319	-3.932	-3.176	-3.912	-5.870	-5.364	-1.878	-0.091	4.889	7.502	13.163	10.162	10.659	132.812
-4.985	-4.770	-6.608	-2.837	-2.122	-4.526	6.307	-0.277	5.204	8.272	4.317	4.395	3.935	-1.758	-4.099	-4.432	-3.166	-2.403	-3.164	-4.984	-4.614	-1.320	0.434	4.369	6.406	10.990	8.747	9.014	136.719
-4.129	-4.020	-5.829	-2.096	-1.588	-4.024	6.006	-1.403	3.585	7.502	3.332	3.437	3.732	-1.316	-3.224	-3.474	-2.329	-1.616	-2.354	-4.020	-3.846	-0.752	0.933	3.787	5.295	8.872	7.232	7.314	140.625
-3.302	-3.266	-5.062	-1.420	-1.103	-3.546	5.630	-2.462	2.136	6.676	2.389	2.485	3.463	-0.907	-2.359	-2.515	-1.481	-0.883	-1.551	-3.047	-3.111	-0.236	1.345	3.173	4.238	6.982	5.735	5.698	144.531
-2.574	-2.559	-4.379	-0.849	-0.691	-3.132	5.245	-3.367	0.995	5.916	1.589	1.615	3.149	-0.557	-1.573	-1.624	-0.682	-0.268	-0.824	-2.135	-2.456	0.171	1.621	2.556	3.300	5.463	4.373	4.294	148.438
-1.998	-1.942	-3.832	-0.408	-0.370	-2.817	4.908	-4.044	0.265	5.326	1.013	0.895	2.816	-0.287	-0.924	-0.863	0.009	0.179	-0.234	-1.353	-1.923	0.426	1.727	1.972	2.533	4.420	3.247	3.206	152.344
-1.605	-1.443	-3.450	-0.102	-0.151	-2.620	4.663	-4.446	-0.007	4.980	0.712	0.370	2.486	-0.117	-0.457	-0.283	0.541	0.428	0.169	-0.762	-1.547	0.507	1.656	1.457	1.976	3.904	2.438	2.505	156.250
-1.405	-1.080	-3.237	0.074	-0.040	-2.545	4.537	-4.553	0.180	4.919	0.704	0.070	2.177	-0.060	-0.201	0.075	0.873	0.473	0.353	-0.412	-1.355	0.412	1.421	1.046	1.651	3.921	1.996	2.226	160.156
-1.391	-0.861	-3.180	0.131	-0.039	-2.585	4.542	-4.374	0.782	5.152	0.982	0.003	1.906	-0.119	-0.174	0.184	0.974	0.325	0.306	-0.338	-1.362	0.162	1.054	0.773	1.566	4.432	1.938	2.367	164.062
-1.547	-0.790	-3.254	0.083	-0.148	-2.717	4.676	-3.934	1.729	5.664	1.513	0.160	1.688	-0.292	-0.383	0.033	0.830	0.015	0.033	-0.556	-1.576	-0.210	0.599	0.662	1.715	5.364	2.250	2.891	167.969
-1.850	-0.867	-3.425	-0.060	-0.361	-2.916	4.929	-3.275	2.932	6.418	2.250	0.517	1.531	-0.566	-0.817	-0.376	0.443	-0.420	-0.440	-1.062	-1.991	-0.659	0.106	0.728	2.079	6.625	2.886	3.738	171.875
-2.274	-1.086	-3.664	-0.292	-0.670	-3.152	5.287	-2.443	4.302	7.362	3.132	1.039	1.442	-0.922	-1.454	-1.025	-0.170	-0.938	-1.079	-1.832	-2.588	-1.143	-0.382	0.974	2.630	8.112	3.782	4.826	175.781
-2.793	-1.440	-3.947	-0.608	-1.060	-3.399	5.732	-1.485	5.754	8.440	4.097	1.682	1.422	-1.335	-2.256	-1.878	-0.972	-1.500	-1.841	-2.821	-3.336	-1.626	-0.829	1.385	3.334	9.723	4.856	6.066	179.688
-3.379	-1.913	-4.259	-1.003	-1.512	-3.638	6.247	-0.449	7.214	9.592	5.083	2.397	1.466	-1.775	-3.172	-2.889	-1.912	-2.070	-2.680	-3.971	-4.195	-2.078	-1.214	1.933	4.148	11.364	6.023	7.363	183.594
-4.003	-2.480	-4.593	-1.469	-2.000	-3.858	6.814	0.618	8.618	10.762	6.038	3.132	1.567	-2.212	-4.139	-3.999	-2.930	-2.621	-3.547	-5.212	-5.110	-2.483	-1.525	2.578	5.027	12.950	7.200	8.627	187.500
-4.634	-3.112	-4.951	-1.991	-2.491	-4.058	7.415	1.668	9.908	11.897	6.917	3.837	1.715	-2.614	-5.089	-5.141	-3.956	-3.129	-4.399	-6.467	-6.024	-2.834	-1.763	3.272	5.924	14.406	8.316	9.779	191.406
-5.244	-3.775	-5.336	-2.549	-2.951	-4.242	8.029	2.653	11.034	12.947	7.684	4.468	1.900	-2.954	-5.955	-6.251	-4.923	-3.578	-5.192	-7.662	-6.875	-3.127	-1.935	3.970	6.792	15.676	9.315	10.756	195.312
-5.809	-4.436	-5.754	-3.118	-3.347	-4.417	8.634	3.524	11.948	13.870	8.313	4.989	2.117	-3.206	-6.681	-7.266	-5.772	-3.951	-5.890	-8.729	-7.608	-3.364	-2.049	4.632	7.589	16.718	10.160	11.516	199.219
-6.306	-5.068	-6.202	-3.672	-3.651	-4.592	9.207	4.233	12.607	14.625	8.782	5.379	2.362	-3.352	-7.224	-8.136	-6.454	-4.237	-6.460	-9.615	-8.173	-3.544	-2.111	5.233	8.281	17.506	10.835	12.044	203.125
-6.723	-5.650	-6.674	-4.181	-3.844	-4.770	9.721	4.736	12.974	15.177	9.076	5.627	2.638	-3.382	-7.561	-8.826	-6.939	-4.427	-6.877	-10.283	-8.539	-3.662	-2.123	5.762	8.848	18.036	11.346	12.345	207.031
-7.050	-6.170	-7.153	-4.622	-3.921	-4.951	10.151	4.996	13.024	15.500	9.184	5.738	2.953	-3.292	-7.690	-9.316	-7.218	-4.518	-7.129	-10.717	-8.691	-3.712	-2.083	6.227	9.282	18.323	11.714	12.448	210.938
-7.280	-6.621	-7.618	-4.970	-3.889	-5.131	10.472	4.987	12.746	15.574	9.098	5.725	3.316	-3.085	-7.630	-9.602	-7.299	-4.514	-7.214	-10.917	-8.633	-3.685	-1.986	6.649	9.593	18.399	11.975	12.394	214.844
-7.412	-6.995	-8.043	-5.210	-3.762	-5.303	10.666	4.698	12.145	15.388	8.816	5.608	3.738	-2.769	-7.411	-9.696	-7.209	-4.427	-7.143	-10.901	-8.384	-3.570	-1.824	7.056	9.803	18.310	12.168	12.231	218.750
-7.445	-7.285	-8.401	-5.328	-3.562	-5.457	10.721	4.136	11.244	14.944	8.344	5.409	4.224	-2.357	-7.076	-9.618	-6.986	-4.276	-6.940	-10.699	-7.979	-3.359	-1.589	7.473	9.941	18.106	12.332	12.004	222.656
-7.385	-7.479	-8.668	-5.316	-3.310	-5.583	10.635	3.330	10.083	14.257	7.696	5.144	4.771	-1.862	-6.670	-9.396	-6.670	-4.082	-6.633	-10.348	-7.454	-3.049	-1.278	7.921	10.039	17.833	12.491	11.747	226.562
-7.239	-7.565	-8.828	-5.174	-3.019	-5.669	10.420	2.327	8.716	13.353	6.893	4.827	5.368	-1.301	-6.232	-9.059	-6.301	-3.869	-6.252	-9.883	-6.849	-2.640	-0.890	8.401	10.119	17.526	12.653	11.477	230.469
-7.021	-7.534	-8.874	-4.908	-2.696	-5.706	10.098	1.195	7.210	12.275	5.968	4.465	5.996	-0.687	-5.794	-8.635	-5.908	-3.660	-5.823	-9.340	-6.196	-2.139	-0.431	8.902	10.192	17.198	12.806	11.195	234.375
-6.749	-7.387	-8.811	-4.530	-2.342	-5.688	9.702	0.010	5.636	11.077	4.960	4.061	6.630	-0.034	-5.379	-8.150	-5.508	-3.473	-5.364	-8.747	-5.519	-1.560	0.086	9.397	10.256	16.851	12.922	10.887	238.281
-6.445	-7.132	-8.657	-4.064	-1.955	-5.612	9.272	-1.145	4.074	9.823	3.917	3.618	7.244	0.643	-5.002	-7.628	-5.107	-3.322	-4.886	-8.129	-4.833	-0.921	0.644	9.853	10.297	16.469	12.964	10.529	242.188
-6.136	-6.791	-8.442	-3.540	-1.532	-5.484	8.852	-2.195	2.599	8.582	2.887	3.144	7.816	1.330	-4.670	-7.093	-4.708	-3.213	-4.397	-7.505	-4.150	-0.242	1.222	10.239	10.301	16.037	12.896	10.101	246.094
-5.851	-6.398	-8.202	-2.997	-1.080	-5.315	8.480	-3.077	1.283	7.425	1.922	2.648	8.326	2.010	-4.392	-6.567	-4.313	-3.150	-3.902	-6.895	-3.477	0.451	1.797	10.533	10.253	15.545	12.696	9.590	250.000
-5.620	-5.990	-7.975	-2.476	-0.612	-5.119	8.192	-3.745	0.189	6.420	1.069	2.146	8.767	2.664	-4.177	-6.076	-3.931	-3.128	-3.412	-6.316	-2.824	1.134	2.346	10.724	10.151	14.996	12.363	8.999	253.906
-5.473	-5.608	-7.797	-2.016	-0.149	-4.913	8.009	-4.176	-0.633	5.621	0.369	1.662	9.136	3.272	-4.035	-5.646	-3.576	-3.142	-2.941	-5.789	-2.207	1.779	2.850	10.818	10.003	14.407	11.918	8.349	257.812
-5.433	-5.290	-7.695	-1.649	0.281	-4.708	7.942	-4.363	-1.153	5.070	-0.151	1.218	9.438	3.811	-3.981	-5.300	-3.273	-3.185	-2.510	-5.330	-1.643	2.361	3.291	10.833	9.827	13.810	11.402	7.673	261.719
-5.518	-5.066	-7.683	-1.392	0.653	-4.512	7.993	-4.317	-1.359	4.788	-0.477	0.838	9.681	4.261	-4.024	-5.058	-3.046	-3.252	-2.141	-4.954	-1.156	2.859	3.656	10.794	9.650	13.243	10.869	7.017	265.625
-5.733	-4.952	-7.763	-1.245	0.948	-4.328	8.154	-4.064	-1.262	4.776	-0.611	0.540	9.878	4.606	-4.174	-4.930	-2.917	-3.338	-1.853	-4.673	-0.765	3.257	3.939	10.730	9.497	12.747	10.372	6.422	269.531
-6.072	-4.955	-7.925	-1.193	1.156	-4.152	8.410	-3.635	-0.891	5.011	-0.575	0.337	10.038	4.837	-4.431	-4.916	-2.898	-3.443	-1.656	-4.487	-0.487	3.544	4.139	10.667	9.389	12.350	9.959	5.927	273.438
-6.516	-5.067	-8.149	-1.211	1.282	-3.981	8.743	-3.070	-0.290	5.454	-0.400	0.230	10.170	4.955	-4.790	-5.007	-2.989	-3.569	-1.550	-4.392	-0.326	3.724	4.261	10.628	9.339	12.070	9.659	5.553	277.344
-7.040	-5.271	-8.410	-1.268	1.341	-3.811	9.136	-2.407	0.487	6.051	-0.130	0.210	10.280	4.972	-5.237	-5.184	-3.176	-3.716	-1.521	-4.372	-0.279	3.806	4.316	10.622	9.350	11.906	9.485	5.308	281.250
-7.613	-5.544	-8.679	-1.338	1.356	-3.641	9.568	-1.682	1.382	6.738	0.192	0.262	10.371	4.909	-5.752	-5.421	-3.434	-3.881	-1.545	-4.410	-0.328	3.809	4.321	10.653	9.415	11.841	9.428	5.183	285.156
-8.204	-5.856	-8.935	-1.402	1.351	-3.474	10.021	-0.927	2.344	7.449	0.527	0.362	10.445	4.791	-6.312	-5.689	-3.729	-4.060	-1.595	-4.483	-0.451	3.757	4.293	10.714	9.520	11.847	9.467	5.157	289.062
-8.785	-6.180	-9.156	-1.455	1.348	-3.315	10.477	-0.170	3.322	8.123	0.843	0.484	10.502	4.650	-6.889	-5.961	-4.028	-4.243	-1.641	-4.569	-0.620	3.676	4.250	10.793	9.646	11.889	9.570	5.199	292.969
-9.335	-6.486	-9.334	-1.501	1.362	-3.171	10.917	0.570	4.278	8.707	1.121	0.604	10.543	4.513	-7.460	-6.211	-4.301	-4.417	-1.664	-4.650	-0.806	3.589	4.207	10.876	9.775	11.936	9.703	5.278	296.875
-9.837	-6.752	-9.468	-1.549	1.400	-3.047	11.324	1.277	5.178	9.164	1.352	0.699	10.575	4.407	-8.002	-6.421	-4.529	-4.574	-1.652	-4.709	-0.982	3.515	4.174	10.951	9.891	11.962	9.838	5.365	300.781
-10.285	-6.960	-9.564	-1.613	1.463	-2.943	11.682	1.938	5.995	9.473	1.537	0.754	10.604	4.350	-8.500	-6.581	-4.704	-4.712	-1.605	-4.736	-1.126	3.469	4.157	11.014	9.983	11.955	9.953	5.439	304.688
-10.675	-7.101	-9.636	-1.699	1.545	-2.858	11.981	2.546	6.709	9.637	1.685	0.765	10.643	4.356	-8.944	-6.687	-4.829	-4.835	-1.533	-4.722	-1.222	3.457	4.157	11.067	10.046	11.912	10.040	5.490	308.594
-11.013	-7.175	-9.700	-1.811	1.640	-2.786	12.218	3.094	7.306	9.676	1.812	0.737	10.706	4.429	-9.331	-6.745	-4.918	-4.958	-1.449	-4.667	-1.260	3.481	4.170	11.118	10.078	11.842	10.103	5.516	312.500
-11.305	-7.190	-9.770	-1.942	1.740	-2.722	12.395	3.577	7.781	9.628	1.936	0.685	10.807	4.569	-9.664	-6.761	-4.988	-5.098	-1.369	-4.572	-1.237	3.538	4.192	11.176	10.079	11.754	10.150	5.525	316.406
-11.561	-7.162	-9.859	-2.083	1.840	-2.662	12.522	3.989	8.134	9.545	2.074	0.630	10.957	4.770	-9.947	-6.746	-5.051	-5.269	-1.302	-4.444	-1.155	3.624	4.215	11.249	10.049	11.656	10.190	5.524	320.312
-11.786	-7.108	-9.970	-2.218	1.935	-2.601	12.609	4.323	8.372	9.475	2.239	0.597	11.157	5.022	-10.188	-6.707	-5.116	-5.478	-1.253	-4.290	-1.018	3.735	4.236	11.338	9.987	11.550	10.229	5.520	324.219
-11.983	-7.044	-10.101	-2.335	2.021	-2.538	12.669	4.571	8.508	9.459	2.433	0.601	11.398	5.313	-10.390	-6.646	-5.178	-5.720	-1.214	-4.117	-0.832	3.867	4.252	11.438	9.892	11.430	10.262	5.515	328.125
-12.150	-6.983	-10.245	-2.417	2.097	-2.471	12.706	4.728	8.555	9.517	2.645	0.651	11.662	5.630	-10.557	-6.563	-5.228	-5.977	-1.172	-3.930	-0.602	4.020	4.264	11.538	9.763	11.284	10.280	5.503	332.031
-12.283	-6.934	-10.387	-2.457	2.163	-2.398	12.724	4.791	8.522	9.644	2.856	0.740	11.926	5.964	-10.688	-6.452	-5.247	-6.224	-1.109	-3.732	-0.334	4.196	4.278	11.623	9.604	11.100	10.266	5.473	335.938
-12.378	-6.898	-10.513	-2.448	2.220	-2.319	12.717	4.765	8.416	9.810	3.034	0.850	12.162	6.310	-10.784	-6.306	-5.218	-6.433	-1.008	-3.521	-0.028	4.397	4.299	11.684	9.426	10.869	10.203	5.413	339.844
-12.432	-6.871	-10.613	-2.393	2.274	-2.230	12.680	4.662	8.239	9.966	3.145	0.951	12.349	6.667	-10.845	-6.120	-5.130	-6.582	-0.856	-3.293	0.313	4.625	4.334	11.717	9.244	10.590	10.082	5.314	343.750
-12.448	-6.847	-10.677	-2.299	2.329	-2.131	12.609	4.502	7.991	10.056	3.158	1.012	12.477	7.035	-10.870	-5.897	-4.978	-6.661	-0.649	-3.047	0.688	4.881	4.390	11.729	9.079	10.276	9.903	5.172	347.656
-12.433	-6.816	-10.705	-2.181	2.391	-2.019	12.503	4.313	7.679	10.029	3.049	1.001	12.547	7.415	-10.864	-5.642	-4.771	-6.672	-0.393	-2.781	1.090	5.160	4.473	11.735	8.954	9.953	9.678	4.994	351.562
-12.398	-6.773	-10.703	-2.059	2.464	-1.895	12.369	4.124	7.319	9.853	2.811	0.900	12.570	7.804	-10.831	-5.371	-4.526	-6.629	-0.106	-2.500	1.506	5.452	4.584	11.755	8.891	9.655	9.433	4.795	355.469
-12.361	-6.713	-10.684	-1.954	2.550	-1.761	12.223	3.967	6.941	9.524	2.457	0.705	12.568	8.192	-10.780	-5.106	-4.273	-6.557	0.186	-2.218	1.916	5.741	4.719	11.805	8.906	9.420	9.200	4.596	359.375
-12.339	-6.639	-10.665	-1.887	2.644	-1.623	12.088	3.868	6.594	9.076	2.024	0.436	12.561	8.565	-10.725	-4.870	-4.042	-6.482	0.451	-1.954	2.293	6.006	4.870	11.899	9.006	9.286	9.012	4.427	363.281
-12.351	-6.562	-10.669	-1.876	2.737	-1.490	11.989	3.844	6.337	8.572	1.570	0.134	12.567	8.900	-10.683	-4.689	-3.867	-6.427	0.654	-1.733	2.608	6.224	5.021	12.034	9.190	9.281	8.898	4.318	367.188
-12.412	-6.499	-10.716	-1.932	2.819	-1.373	11.952	3.901	6.232	8.098	1.166	-0.144	12.598	9.175	-10.672	-4.585	-3.778	-6.411	0.766	-1.582	2.832	6.371	5.156	12.201	9.445	9.420	8.875	4.296	371.094
-12.528	-6.467	-10.820	-2.058	2.876	-1.284	11.994	4.029	6.322	7.742	0.884	-0.338	12.654	9.373	-10.711	-4.569	-3.793	-6.443	0.768	-1.521	2.947	6.432	5.256	12.377	9.750	9.699	8.945	4.377	375.000
-12.692	-6.482	-10.984	-2.240	2.900	-1.226	12.117	4.206	6.623	7.574	0.773	-0.400	12.728	9.488	-10.810	-4.641	-3.912	-6.520	0.658	-1.560	2.953	6.404	5.312	12.539	10.073	10.089	9.088	4.558	378.906
-12.883	-6.549	-11.196	-2.452	2.893	-1.199	12.305	4.397	7.100	7.621	0.856	-0.308	12.808	9.527	-10.964	-4.785	-4.120	-6.631	0.454	-1.691	2.866	6.303	5.324	12.663	10.374	10.530	9.268	4.811	382.812
-13.068	-6.658	-11.429	-2.655	2.869	-1.187	12.526	4.560	7.675	7.858	1.111	-0.076	12.880	9.514	-11.152	-4.969	-4.376	-6.749	0.197	-1.886	2.725	6.162	5.307	12.732	10.608	10.937	9.430	5.079	386.719
-13.208	-6.786	-11.640	-2.802	2.850	-1.170	12.732	4.653	8.232	8.215	1.482	0.246	12.932	9.484	-11.335	-5.148	-4.627	-6.839	-0.054	-2.102	2.582	6.028	5.293	12.738	10.728	11.204	9.514	5.284	390.625
-13.262	-6.899	-11.784	-2.852	2.864	-1.119	12.874	4.645	8.645	8.584	1.887	0.582	12.955	9.477	-11.468	-5.274	-4.809	-6.862	-0.234	-2.288	2.496	5.954	5.318	12.684	10.692	11.227	9.462	5.338	394.531
-13.204	-6.962	-11.822	-2.777	2.933	-1.013	12.906	4.517	8.803	8.854	2.240	0.849	12.946	9.530	-11.501	-5.304	-4.865	-6.783	-0.284	-2.396	2.514	5.985	5.417	12.577	10.474	10.927	9.230	5.168	398.438
-13.022	-6.946	-11.727	-2.570	3.072	-0.834	12.803	4.272	8.636	8.934	2.468	0.972	12.909	9.667	-11.399	-5.212	-4.756	-6.578	-0.165	-2.390	2.671	6.150	5.611	12.431	10.069	10.268	8.802	4.732	402.344
-12.726	-6.836	-11.494	-2.248	3.280	-0.580	12.559	3.928	8.129	8.769	2.526	0.904	12.855	9.900	-11.149	-4.991	-4.473	-6.246	0.132	-2.254	2.972	6.453	5.901	12.261	9.496	9.270	8.197	4.032	406.250
-12.342	-6.630	-11.138	-1.846	3.546	-0.262	12.192	3.520	7.317	8.351	2.397	0.629	12.799	10.226	-10.760	-4.657	-4.033	-5.804	0.581	-1.995	3.404	6.874	6.266	12.085	8.793	8.003	7.462	3.113	410.156
-11.906	-6.337	-10.685	-1.402	3.852	0.102	11.739	3.082	6.276	7.714	2.087	0.161	12.754	10.631	-10.260	-4.242	-3.478	-5.283	1.136	-1.633	3.936	7.374	6.672	11.913	8.004	6.564	6.665	2.051	414.062
-11.448	-5.969	-10.169	-0.952	4.181	0.487	11.245	2.645	5.097	6.918	1.618	-0.465	12.732	11.094	-9.688	-3.784	-2.861	-4.722	1.738	-1.199	4.529	7.905	7.075	11.753	7.173	5.055	5.874	0.929	417.969
-10.990	-5.537	-9.622	-0.516	4.514	0.872	10.754	2.227	3.870	6.036	1.025	-1.195	12.734	11.589	-9.085	-3.318	-2.237	-4.156	2.331	-0.726	5.142	8.421	7.433	11.602	6.333	3.561	5.141	-0.176	421.875
-10.540	-5.050	-9.065	-0.097	4.842	1.240	10.299	1.829	2.669	5.144	0.343	-1.971	12.751	12.083	-8.485	-2.873	-1.649	-3.609	2.871	-0.240	5.742	8.883	7.717	11.448	5.502	2.141	4.496	-1.208	425.781
-10.091	-4.512	-8.513	0.314	5.155	1.579	9.901	1.444	1.546	4.302	-0.385	-2.734	12.765	12.544	-7.912	-2.462	-1.123	-3.097	3.335	0.235	6.299	9.265	7.908	11.269	4.685	0.820	3.937	-2.139	429.688
-9.627	-3.923	-7.966	0.735	5.446	1.886	9.563	1.063	0.526	3.553	-1.120	-3.434	12.752	12.936	-7.379	-2.089	-0.671	-2.625	3.716	0.682	6.793	9.554	8.004	11.043	3.883	-0.399	3.444	-2.968	433.594
-9.129	-3.289	-7.418	1.183	5.710	2.163	9.272	0.676	-0.386	2.912	-1.826	-4.038	12.686	13.227	-6.888	-1.751	-0.290	-2.189	4.023	1.090	7.205	9.752	8.018	10.751	3.098	-1.529	2.978	-3.714	437.500
-8.582	-2.617	-6.858	1.667	5.941	2.417	9.007	0.283	-1.202	2.366	-2.481	-4.532	12.545	13.393	-6.433	-1.435	0.037	-1.783	4.273	1.454	7.526	9.873	7.971	10.383	2.340	-2.586	2.501	-4.407	441.406
-7.979	-1.919	-6.275	2.188	6.134	2.662	8.739	-0.110	-1.946	1.876	-3.079	-4.929	12.314	13.424	-6.003	-1.129	0.330	-1.400	4.488	1.774	7.752	9.938	7.894	9.943	1.625	-3.586	1.980	-5.081	445.312
-7.322	-1.212	-5.659	2.734	6.292	2.912	8.442	-0.492	-2.647	1.386	-3.633	-5.263	11.988	13.325	-5.587	-0.819	0.612	-1.034	4.690	2.058	7.890	9.977	7.819	9.453	0.978	-4.534	1.397	-5.764	449.219
-6.627	-0.516	-5.010	3.289	6.420	3.184	8.093	-0.851	-3.333	0.837	-4.165	-5.578	11.571	13.116	-5.173	-0.494	0.902	-0.683	4.896	2.320	7.955	10.015	7.772	8.943	0.424	-5.431	0.752	-6.472	453.125
-5.915	0.151	-4.334	3.832	6.528	3.488	7.681	-1.174	-4.020	0.187	-4.702	-5.915	11.080	12.829	-4.757	-0.148	1.209	-0.351	5.113	2.573	7.967	10.074	7.773	8.448	-0.019	-6.264	0.062	-7.201	457.031
-5.218	0.765	-3.649	4.339	6.624	3.827	7.211	-1.453	-4.706	-0.573	-5.254	-6.296	10.536	12.503	-4.341	0.215	1.532	-0.050	5.341	2.825	7.949	10.161	7.825	8.001	-0.339	-7.015	-0.642	-7.924	460.938
-4.570	1.306	-2.986	4.786	6.712	4.190	6.702	-1.681	-5.369	-1.413	-5.806	-6.717	9.967	12.169	-3.933	0.581	1.856	0.206	5.566	3.079	7.918	10.272	7.917	7.624	-0.539	-7.658	-1.316	-8.598	464.844
-4.006	1.748	-2.381	5.147	6.789	4.550	6.186	-1.851	-5.964	-2.262	-6.318	-7.141	9.400	11.850	-3.551	0.930	2.159	0.401	5.770	3.324	7.883	10.387	8.026	7.327	-0.631	-8.164	-1.918	-9.166	468.750
-3.558	2.070	-1.877	5.394	6.841	4.870	5.698	-1.959	-6.438	-3.024	-6.729	-7.511	8.858	11.555	-3.214	1.233	2.414	0.520	5.931	3.547	7.843	10.483	8.123	7.103	-0.631	-8.507	-2.406	-9.570	472.656
-3.249	2.252	-1.516	5.505	6.849	5.108	5.272	-2.006	-6.743	-3.604	-6.974	-7.760	8.360	11.281	-2.939	1.466	2.597	0.562	6.032	3.727	7.793	10.535	8.181	6.938	-0.562	-8.668	-2.754	-9.766	476.562
-3.088	2.287	-1.325	5.464	6.794	5.227	4.932	-1.995	-6.845	-3.934	-7.004	-7.836	7.916	11.017	-2.738	1.611	2.694	0.530	6.062	3.851	7.724	10.526	8.182	6.809	-0.443	-8.640	-2.945	-9.732	480.469
-3.068	2.184	-1.317	5.271	6.662	5.201	4.684	-1.933	-6.743	-3.988	-6.805	-7.718	7.530	10.752	-2.613	1.664	2.706	0.442	6.024	3.914	7.632	10.451	8.119	6.695	-0.291	-8.436	-2.986	-9.480	484.375
-3.166	1.966	-1.479	4.946	6.452	5.023	4.520	-1.835	-6.463	-3.796	-6.404	-7.421	7.200	10.481	-2.556	1.636	2.644	0.318	5.932	3.925	7.521	10.318	8.000	6.581	-0.120	-8.083	-2.895	-9.052	488.281
-3.346	1.673	-1.781	4.528	6.179	4.712	4.417	-1.715	-6.058	-3.432	-5.870	-7.001	6.919	10.207	-2.550	1.551	2.531	0.185	5.808	3.903	7.405	10.147	7.844	6.456	0.060	-7.624	-2.709	-8.516	492.188
-3.567	1.349	-2.175	4.068	5.874	4.304	4.353	-1.585	-5.592	-2.996	-5.295	-6.537	6.681	9.943	-2.578	1.442	2.395	0.062	5.678	3.879	7.306	9.960	7.675	6.317	0.238	-7.115	-2.472	-7.954	496.094
-3.789	1.043	-2.610	3.626	5.573	3.852	4.303	-1.453	-5.123	-2.588	-4.773	-6.114	6.476	9.707	-2.621	1.341	2.261	-0.037	5.564	3.884	7.245	9.783	7.514	6.167	0.406	-6.612	-2.231	-7.448	500.000
-3.978	0.789	-3.037	3.255	5.315	3.409	4.256	-1.320	-4.696	-2.277	-4.376	-5.802	6.297	9.515	-2.664	1.276	2.151	-0.112	5.478	3.940	7.237	9.631	7.376	6.008	0.554	-6.171	-2.029	-7.061	503.906
-4.113	0.610	-3.413	2.998	5.126	3.027	4.211	-1.179	-4.329	-2.091	-4.141	-5.640	6.136	9.375	-2.700	1.264	2.072	-0.169	5.424	4.059	7.287	9.513	7.265	5.842	0.673	-5.835	-1.904	-6.836	507.812
-4.182	0.512	-3.709	2.874	5.019	2.741	4.174	-1.021	-4.015	-2.013	-4.057	-5.626	5.979	9.283	-2.726	1.305	2.024	-0.221	5.394	4.234	7.381	9.426	7.177	5.666	0.755	-5.635	-1.882	-6.781	511.719
-4.185	0.488	-3.907	2.884	4.988	2.574	4.155	-0.839	-3.729	-1.988	-4.079	-5.729	5.809	9.218	-2.744	1.390	1.998	-0.282	5.372	4.446	7.494	9.359	7.102	5.472	0.795	-5.586	-1.977	-6.881	515.625
-4.127	0.525	-3.997	3.012	5.012	2.527	4.158	-0.628	-3.443	-1.953	-4.146	-5.897	5.604	9.152	-2.755	1.501	1.983	-0.357	5.342	4.666	7.594	9.298	7.030	5.250	0.790	-5.685	-2.193	-7.104	519.531
-4.012	0.608	-3.976	3.227	5.064	2.593	4.178	-0.395	-3.132	-1.858	-4.198	-6.076	5.340	9.047	-2.759	1.620	1.969	-0.439	5.296	4.864	7.649	9.233	6.956	4.987	0.743	-5.920	-2.525	-7.410	523.438
-3.843	0.731	-3.842	3.499	5.116	2.751	4.194	-0.153	-2.791	-1.685	-4.202	-6.233	4.992	8.873	-2.748	1.731	1.955	-0.509	5.231	5.020	7.638	9.156	6.884	4.677	0.662	-6.263	-2.961	-7.762	527.344
-3.621	0.893	-3.595	3.797	5.148	2.978	4.174	0.075	-2.436	-1.462	-4.159	-6.357	4.544	8.607	-2.713	1.828	1.948	-0.541	5.158	5.124	7.554	9.071	6.825	4.319	0.559	-6.683	-3.482	-8.134	531.250
-3.345	1.101	-3.239	4.100	5.152	3.253	4.081	0.264	-2.104	-1.257	-4.106	-6.468	3.991	8.245	-2.638	1.913	1.964	-0.504	5.099	5.180	7.406	8.988	6.795	3.922	0.453	-7.141	-4.066	-8.514	535.156
-3.016	1.362	-2.782	4.395	5.128	3.554	3.880	0.386	-1.846	-1.158	-4.102	-6.606	3.342	7.798	-2.506	1.995	2.021	-0.370	5.075	5.207	7.215	8.921	6.811	3.502	0.363	-7.601	-4.683	-8.897	539.062
-2.638	1.675	-2.238	4.677	5.088	3.868	3.549	0.417	-1.712	-1.253	-4.207	-6.816	2.623	7.291	-2.309	2.084	2.136	-0.125	5.106	5.224	7.007	8.884	6.886	3.086	0.309	-8.025	-5.302	-9.282	542.969
-2.225	2.031	-1.630	4.944	5.045	4.183	3.085	0.342	-1.743	-1.601	-4.463	-7.131	1.874	6.759	-2.043	2.187	2.314	0.230	5.202	5.250	6.807	8.888	7.023	2.701	0.305	-8.381	-5.889	-9.661	546.875
-1.798	2.404	-0.991	5.195	5.010	4.490	2.510	0.161	-1.955	-2.212	-4.878	-7.560	1.142	6.237	-1.718	2.304	2.547	0.675	5.354	5.294	6.630	8.932	7.217	2.374	0.362	-8.645	-6.408	-10.020	550.781
-1.385	2.758	-0.360	5.423	4.988	4.777	1.864	-0.110	-2.340	-3.041	-5.414	-8.077	0.476	5.757	-1.352	2.425	2.816	1.174	5.541	5.350	6.481	9.006	7.450	2.125	0.481	-8.798	-6.825	-10.334	554.688
-1.015	3.053	0.218	5.618	4.975	5.032	1.206	-0.441	-2.858	-3.990	-6.002	-8.627	-0.080	5.341	-0.976	2.532	3.085	1.682	5.729	5.404	6.353	9.093	7.696	1.967	0.655	-8.834	-7.115	-10.573	558.594
-0.716	3.254	0.702	5.767	4.961	5.240	0.595	-0.789	-3.454	-4.932	-6.549	-9.139	-0.497	4.998	-0.622	2.607	3.319	2.150	5.880	5.432	6.234	9.168	7.926	1.900	0.867	-8.762	-7.267	-10.710	562.500
-0.506	3.343	1.061	5.860	4.934	5.387	0.085	-1.113	-4.059	-5.737	-6.969	-9.536	-0.761	4.732	-0.317	2.632	3.483	2.541	5.965	5.415	6.108	9.209	8.113	1.914	1.095	-8.602	-7.285	-10.731	566.406
-0.388	3.324	1.280	5.891	4.885	5.466	-0.288	-1.376	-4.613	-6.304	-7.202	-9.765	-0.881	4.532	-0.080	2.604	3.560	2.831	5.967	5.341	5.967	9.200	8.240	1.987	1.311	-8.392	-7.196	-10.643	570.312
-0.348	3.226	1.367	5.865	4.807	5.478	-0.517	-1.558	-5.073	-6.587	-7.233	-9.802	-0.886	4.385	0.086	2.529	3.548	3.021	5.890	5.213	5.809	9.140	8.302	2.091	1.488	-8.178	-7.043	-10.479	574.219
-0.349	3.097	1.354	5.802	4.705	5.435	-0.623	-1.659	-5.423	-6.608	-7.099	-9.669	-0.818	4.272	0.201	2.434	3.471	3.132	5.759	5.050	5.642	9.038	8.311	2.190	1.602	-8.013	-6.885	-10.292	578.125
-0.345	2.997	1.288	5.726	4.587	5.358	-0.657	-1.697	-5.678	-6.454	-6.880	-9.426	-0.734	4.173	0.300	2.352	3.371	3.204	5.619	4.882	5.480	8.914	8.291	2.249	1.636	-7.943	-6.784	-10.150	582.031
-0.282	2.984	1.224	5.667	4.466	5.273	-0.683	-1.704	-5.877	-6.261	-6.687	-9.162	-0.691	4.069	0.427	2.324	3.303	3.286	5.519	4.747	5.336	8.795	8.274	2.238	1.586	-8.006	-6.797	-10.116	585.938
-0.113	3.102	1.218	5.651	4.354	5.202	-0.775	-1.718	-6.071	-6.178	-6.629	-8.972	-0.739	3.941	0.629	2.388	3.325	3.425	5.507	4.675	5.223	8.709	8.296	2.136	1.460	-8.212	-6.963	-10.241	589.844
0.189	3.367	1.307	5.695	4.254	5.163	-0.992	-1.775	-6.312	-6.337	-6.793	-8.938	-0.916	3.779	0.940	2.566	3.482	3.662	5.619	4.686	5.145	8.674	8.381	1.937	1.280	-8.547	-7.294	-10.541	593.750
0.629	3.766	1.510	5.799	4.163	5.161	-1.376	-1.900	-6.636	-6.816	-7.221	-9.108	-1.236	3.576	1.373	2.861	3.797	4.016	5.865	4.784	5.098	8.701	8.544	1.652	1.079	-8.970	-7.770	-11.001	597.656
1.183	4.256	1.819	5.951	4.068	5.190	-1.934	-2.102	-7.054	-7.622	-7.897	-9.483	-1.687	3.334	1.915	3.254	4.264	4.484	6.231	4.951	5.070	8.786	8.781	1.303	0.893	-9.420	-8.346	-11.566	601.562
1.803	4.776	2.201	6.122	3.953	5.235	-2.639	-2.374	-7.545	-8.685	-8.749	-10.021	-2.237	3.064	2.528	3.703	4.844	5.039	6.676	5.155	5.046	8.912	9.070	0.928	0.757	-9.829	-8.955	-12.162	605.469
2.427	5.254	2.606	6.278	3.803	5.273	-3.434	-2.693	-8.064	-9.873	-9.663	-10.641	-2.832	2.784	3.158	4.154	5.474	5.634	7.141	5.353	5.011	9.053	9.378	0.567	0.696	-10.137	-9.525	-12.705	609.375
2.987	5.625	2.978	6.385	3.610	5.286	-4.240	-3.024	-8.549	-11.017	-10.504	-11.242	-3.411	2.516	3.743	4.550	6.078	6.209	7.557	5.503	4.951	9.177	9.663	0.255	0.719	-10.305	-9.994	-13.119	613.281
3.429	5.842	3.264	6.413	3.374	5.259	-4.970	-3.334	-8.932	-11.953	-11.148	-11.726	-3.915	2.278	4.229	4.841	6.579	6.708	7.860	5.572	4.860	9.250	9.884	0.020	0.822	-10.321	-10.316	-13.356	617.188
3.718	5.884	3.430	6.345	3.108	5.188	-5.549	-3.590	-9.161	-12.552	-11.505	-12.018	-4.300	2.085	4.579	4.992	6.916	7.085	8.002	5.538	4.738	9.248	10.010	-0.126	0.987	-10.200	-10.474	-13.398	621.094
3.848	5.757	3.466	6.178	2.829	5.076	-5.928	-3.771	-9.207	-12.751	-11.538	-12.078	-4.542	1.944	4.776	4.991	7.052	7.317	7.962	5.400	4.590	9.156	10.027	-0.184	1.190	-9.974	-10.478	-13.262	625.000
3.840	5.489	3.388	5.923	2.556	4.935	-6.095	-3.869	-9.074	-12.563	-11.272	-11.908	-4.643	1.849	4.830	4.845	6.984	7.407	7.744	5.170	4.423	8.972	9.939	-0.171	1.408	-9.687	-10.362	-12.989	628.906
3.736	5.127	3.238	5.601	2.303	4.780	-6.076	-3.887	-8.802	-12.079	-10.783	-11.552	-4.631	1.782	4.771	4.582	6.740	7.383	7.383	4.872	4.246	8.712	9.771	-0.108	1.623	-9.381	-10.170	-12.636	632.812
3.591	4.722	3.071	5.246	2.075	4.624	-5.931	-3.836	-8.458	-11.443	-10.187	-11.082	-4.551	1.722	4.644	4.241	6.373	7.292	6.937	4.537	4.068	8.403	9.561	-0.023	1.825	-9.087	-9.951	-12.264	636.719
3.464	4.326	2.946	4.894	1.868	4.482	-5.744	-3.733	-8.125	-10.828	-9.612	-10.586	-4.455	1.642	4.498	3.868	5.951	7.186	6.472	4.198	3.891	8.081	9.354	0.060	2.014	-8.825	-9.747	-11.924	640.625
3.400	3.986	2.910	4.580	1.669	4.362	-5.604	-3.601	-7.883	-10.394	-9.173	-10.149	-4.395	1.519	4.380	3.509	5.547	7.117	6.059	3.881	3.718	7.786	9.193	0.124	2.193	-8.603	-9.584	-11.650	644.531
3.430	3.732	2.994	4.338	1.465	4.270	-5.586	-3.462	-7.798	-10.265	-8.956	-9.838	-4.413	1.337	4.324	3.202	5.225	7.125	5.754	3.607	3.547	7.551	9.110	0.159	2.367	-8.418	-9.473	-11.459	648.438
3.564	3.583	3.201	4.190	1.245	4.208	-5.737	-3.337	-7.901	-10.497	-8.999	-9.694	-4.529	1.095	4.351	2.973	5.028	7.227	5.592	3.385	3.378	7.401	9.120	0.163	2.539	-8.269	-9.414	-11.348	652.344
3.790	3.541	3.513	4.145	1.007	4.176	-6.068	-3.242	-8.183	-11.071	-9.288	-9.721	-4.743	0.800	4.463	2.835	4.978	7.423	5.584	3.220	3.209	7.342	9.218	0.136	2.701	-8.152	-9.396	-11.304	656.250
4.083	3.594	3.893	4.199	0.757	4.171	-6.550	-3.187	-8.595	-11.897	-9.761	-9.889	-5.037	0.475	4.646	2.785	5.068	7.688	5.712	3.107	3.040	7.364	9.383	0.081	2.840	-8.073	-9.409	-11.308	660.156
4.407	3.722	4.293	4.336	0.512	4.190	-7.121	-3.170	-9.060	-12.836	-10.324	-10.146	-5.377	0.146	4.876	2.811	5.271	7.987	5.940	3.038	2.877	7.443	9.578	-0.002	2.938	-8.046	-9.448	-11.345	664.062
4.728	3.902	4.669	4.530	0.295	4.231	-7.703	-3.183	-9.491	-13.730	-10.866	-10.424	-5.723	-0.156	5.126	2.890	5.546	8.276	6.216	3.004	2.725	7.546	9.764	-0.117	2.973	-8.093	-9.516	-11.408	667.969
5.018	4.110	4.981	4.748	0.125	4.289	-8.220	-3.214	-9.813	-14.439	-11.286	-10.661	-6.034	-0.403	5.371	3.002	5.849	8.520	6.492	2.995	2.591	7.636	9.905	-0.271	2.926	-8.239	-9.628	-11.499	671.875
5.263	4.326	5.210	4.965	0.021	4.360	-8.613	-3.252	-9.983	-14.867	-11.510	-10.808	-6.279	-0.575	5.595	3.125	6.140	8.698	6.726	3.003	2.485	7.686	9.975	-0.467	2.785	-8.503	-9.799	-11.630	675.781
5.459	4.538	5.352	5.158	-0.010	4.438	-8.855	-3.288	-9.995	-14.987	-11.504	-10.844	-6.438	-0.657	5.790	3.244	6.391	8.807	6.893	3.023	2.415	7.678	9.966	-0.706	2.549	-8.897	-10.046	-11.817	679.688
5.617	4.741	5.419	5.317	0.029	4.517	-8.951	-3.322	-9.884	-14.839	-11.282	-10.773	-6.503	-0.646	5.956	3.349	6.584	8.858	6.984	3.055	2.388	7.611	9.889	-0.976	2.233	-9.411	-10.374	-12.069	683.594
5.750	4.933	5.436	5.442	0.125	4.595	-8.933	-3.360	-9.714	-14.514	-10.898	-10.622	-6.481	-0.546	6.098	3.436	6.713	8.877	7.006	3.098	2.409	7.501	9.765	-1.259	1.862	-10.017	-10.773	-12.390	687.500
5.877	5.114	5.433	5.538	0.257	4.667	-8.856	-3.411	-9.560	-14.135	-10.436	-10.433	-6.384	-0.367	6.221	3.505	6.781	8.887	6.978	3.155	2.480	7.369	9.625	-1.527	1.472	-10.666	-11.215	-12.764	691.406
6.010	5.283	5.436	5.615	0.402	4.733	-8.776	-3.486	-9.489	-13.827	-9.987	-10.252	-6.233	-0.126	6.329	3.558	6.799	8.908	6.919	3.227	2.599	7.244	9.495	-1.752	1.105	-11.294	-11.661	-13.162	695.312
6.157	5.437	5.462	5.683	0.537	4.794	-8.740	-3.594	-9.545	-13.687	-9.639	-10.116	-6.050	0.153	6.423	3.600	6.780	8.949	6.851	3.317	2.756	7.146	9.398	-1.909	0.797	-11.834	-12.062	-13.544	699.219
6.319	5.566	5.519	5.744	0.642	4.849	-8.781	-3.742	-9.741	-13.769	-9.451	-10.046	-5.854	0.447	6.501	3.638	6.740	9.005	6.789	3.426	2.938	7.090	9.341	-1.983	0.576	-12.225	-12.371	-13.862	703.125
6.490	5.659	5.600	5.797	0.702	4.896	-8.908	-3.932	-10.060	-14.076	-9.453	-10.047	-5.663	0.726	6.561	3.678	6.696	9.066	6.743	3.553	3.126	7.076	9.318	-1.973	0.455	-12.426	-12.551	-14.072	707.031
6.658	5.704	5.692	5.835	0.712	4.934	-9.110	-4.158	-10.457	-14.566	-9.638	-10.105	-5.489	0.964	6.603	3.729	6.666	9.116	6.717	3.693	3.301	7.094	9.316	-1.889	0.431	-12.417	-12.580	-14.142	710.938
6.812	5.696	5.778	5.851	0.673	4.960	-9.359	-4.408	-10.878	-15.159	-9.969	-10.196	-5.342	1.139	6.626	3.797	6.663	9.140	6.710	3.840	3.444	7.126	9.312	-1.756	0.484	-12.212	-12.456	-14.057	714.844
6.939	5.637	5.844	5.843	0.593	4.972	-9.619	-4.659	-11.266	-15.762	-10.387	-10.286	-5.226	1.234	6.630	3.888	6.694	9.126	6.719	3.989	3.543	7.149	9.285	-1.603	0.582	-11.850	-12.201	-13.826	718.750
7.029	5.539	5.883	5.814	0.486	4.969	-9.849	-4.887	-11.574	-16.279	-10.824	-10.346	-5.143	1.242	6.616	4.002	6.762	9.072	6.736	4.131	3.590	7.146	9.220	-1.460	0.688	-11.394	-11.853	-13.480	722.656
7.077	5.421	5.892	5.773	0.373	4.952	-10.013	-5.063	-11.773	-16.628	-11.213	-10.350	-5.087	1.169	6.587	4.137	6.861	8.981	6.759	4.261	3.587	7.110	9.110	-1.353	0.765	-10.920	-11.462	-13.066	726.562
7.080	5.304	5.876	5.731	0.272	4.922	-10.080	-5.165	-11.853	-16.753	-11.499	-10.283	-5.050	1.030	6.542	4.286	6.979	8.866	6.784	4.374	3.543	7.041	8.957	-1.298	0.783	-10.505	-11.084	-12.642	730.469
7.040	5.209	5.840	5.700	0.196	4.880	-10.031	-5.183	-11.822	-16.633	-11.641	-10.141	-5.019	0.849	6.484	4.438	7.100	8.744	6.809	4.466	3.472	6.953	8.776	-1.301	0.723	-10.216	-10.770	-12.269	734.375
6.964	5.148	5.791	5.685	0.153	4.823	-9.862	-5.121	-11.704	-16.280	-11.623	-9.932	-4.980	0.659	6.413	4.578	7.208	8.636	6.835	4.538	3.392	6.865	8.585	-1.356	0.583	-10.103	-10.559	-11.998	738.281
6.864	5.127	5.738	5.687	0.139	4.749	-9.587	-5.003	-11.531	-15.738	-11.448	-9.672	-4.921	0.488	6.331	4.693	7.290	8.564	6.865	4.587	3.319	6.800	8.405	-1.448	0.373	-10.184	-10.472	-11.861	742.188
6.754	5.139	5.689	5.698	0.144	4.653	-9.234	-4.865	-11.338	-15.078	-11.143	-9.386	-4.831	0.365	6.241	4.771	7.334	8.542	6.898	4.613	3.266	6.774	8.254	-1.556	0.116	-10.450	-10.508	-11.871	746.094
6.651	5.171	5.653	5.704	0.153	4.536	-8.846	-4.751	-11.160	-14.386	-10.752	-9.099	-4.708	0.305	6.149	4.803	7.335	8.582	6.934	4.617	3.242	6.796	8.144	-1.658	-0.158	-10.866	-10.646	-12.015	750.000
6.573	5.209	5.643	5.689	0.151	4.402	-8.469	-4.695	-11.023	-13.748	-10.331	-8.840	-4.555	0.317	6.059	4.786	7.295	8.683	6.968	4.598	3.247	6.866	8.080	-1.736	-0.420	-11.374	-10.853	-12.263	753.906
6.531	5.237	5.669	5.639	0.131	4.265	-8.148	-4.720	-10.942	-13.239	-9.934	-8.629	-4.386	0.395	5.977	4.721	7.220	8.835	6.991	4.560	3.279	6.968	8.056	-1.780	-0.646	-11.909	-11.088	-12.571	757.812
6.528	5.246	5.740	5.543	0.092	4.140	-7.917	-4.827	-10.918	-12.904	-9.608	-8.479	-4.215	0.524	5.910	4.618	7.119	9.018	6.997	4.505	3.332	7.085	8.060	-1.788	-0.825	-12.408	-11.311	-12.892	761.719
6.559	5.235	5.855	5.402	0.042	4.048	-7.792	-4.993	-10.937	-12.757	-9.379	-8.394	-4.059	0.681	5.860	4.487	7.005	9.204	6.979	4.438	3.398	7.192	8.076	-1.769	-0.956	-12.822	-11.492	-13.183	765.625
6.607	5.208	6.006	5.218	-0.008	4.004	-7.774	-5.179	-10.972	-12.777	-9.252	-8.365	-3.934	0.842	5.831	4.343	6.893	9.360	6.934	4.364	3.468	7.269	8.088	-1.737	-1.051	-13.119	-11.613	-13.409	769.531
6.649	5.176	6.177	5.003	-0.043	4.019	-7.845	-5.339	-10.992	-12.916	-9.212	-8.375	-3.849	0.981	5.827	4.196	6.796	9.456	6.870	4.287	3.537	7.302	8.086	-1.707	-1.128	-13.290	-11.669	-13.552	773.438
6.657	5.152	6.346	4.769	-0.056	4.093	-7.976	-5.428	-10.962	-13.113	-9.227	-8.402	-3.808	1.081	5.849	4.058	6.727	9.465	6.796	4.211	3.601	7.285	8.063	-1.694	-1.210	-13.346	-11.669	-13.608	777.344
6.612	5.148	6.494	4.526	-0.041	4.219	-8.137	-5.415	-10.858	-13.304	-9.261	-8.424	-3.810	1.133	5.899	3.935	6.696	9.372	6.727	4.137	3.658	7.222	8.019	-1.708	-1.316	-13.312	-11.628	-13.587	781.250
6.498	5.172	6.606	4.282	-0.002	4.386	-8.302	-5.285	-10.665	-13.440	-9.281	-8.424	-3.846	1.134	5.979	3.830	6.706	9.172	6.677	4.067	3.709	7.123	7.959	-1.750	-1.459	-13.217	-11.564	-13.506	785.156
6.318	5.228	6.678	4.041	0.057	4.580	-8.451	-5.046	-10.385	-13.496	-9.266	-8.393	-3.908	1.090	6.085	3.740	6.756	8.878	6.653	3.999	3.755	7.002	7.890	-1.819	-1.643	-13.094	-11.495	-13.387	789.062
6.081	5.310	6.714	3.803	0.129	4.787	-8.575	-4.723	-10.034	-13.470	-9.206	-8.331	-3.984	1.016	6.209	3.661	6.837	8.514	6.655	3.933	3.801	6.870	7.816	-1.908	-1.865	-12.967	-11.432	-13.252	792.969
5.813	5.408	6.728	3.569	0.207	4.996	-8.675	-4.354	-9.643	-13.383	-9.108	-8.247	-4.063	0.928	6.343	3.586	6.933	8.114	6.674	3.867	3.846	6.737	7.742	-2.009	-2.112	-12.856	-11.381	-13.119	796.875
