FP1	F3	F7	FC3	C3	C5	P3	P7	PO7	PO3	O1	Oz	Pz	CPz	FP2	Fz	F4	F8	FC4	FCz	Cz	C4	C6	P4	P8	PO8	PO4	O2	time
-1.462	5.955	7.888	1.953	7.347	5.498	-0.421	-6.234	-8.688	-4.061	-0.286	-0.966	4.351	8.849	-3.773	1.867	-4.138	-4.929	-1.745	5.545	9.106	3.856	0.713	5.240	2.022	-2.003	0.239	-3.815	-199.219
-0.782	5.673	6.784	1.485	7.270	4.032	-1.298	-6.527	-9.328	-6.143	-2.249	-2.110	4.111	9.799	-1.992	2.667	-2.345	-4.254	-0.146	6.240	9.975	4.549	2.021	5.377	0.672	-3.930	-0.801	-4.666	-195.312
-0.319	5.216	5.531	1.030	7.105	2.653	-1.957	-6.563	-9.535	-7.812	-3.888	-3.009	3.942	10.665	-0.527	3.242	-0.859	-3.763	1.202	6.705	10.682	5.076	3.111	5.527	-0.448	-5.417	-1.584	-5.253	-191.406
-0.211	4.485	4.081	0.614	6.808	1.472	-2.233	-6.151	-9.021	-8.737	-4.960	-3.476	3.898	11.346	0.386	3.428	0.089	-3.592	2.094	6.771	11.087	5.290	3.802	5.661	-1.185	-6.147	-1.933	-5.385	-187.500
-0.511	3.433	2.447	0.242	6.368	0.582	-2.033	-5.208	-7.661	-8.731	-5.325	-3.406	4.010	11.760	0.614	3.135	0.356	-3.810	2.398	6.344	11.098	5.085	3.971	5.754	-1.444	-5.956	-1.743	-4.950	-183.594
-1.175	2.086	0.717	-0.103	5.813	0.050	-1.359	-3.772	-5.521	-7.782	-4.969	-2.790	4.279	11.846	0.156	2.361	-0.086	-4.409	2.073	5.432	10.686	4.415	3.579	5.770	-1.214	-4.873	-1.007	-3.946	-179.688
-2.066	0.551	-0.950	-0.443	5.202	-0.095	-0.301	-1.991	-2.829	-6.039	-3.998	-1.715	4.666	11.564	-0.858	1.204	-1.143	-5.298	1.181	4.135	9.876	3.300	2.671	5.668	-0.572	-3.102	0.173	-2.479	-175.781
-2.987	-0.993	-2.347	-0.792	4.610	0.137	0.977	-0.089	0.070	-3.767	-2.616	-0.350	5.090	10.890	-2.202	-0.161	-2.614	-6.320	-0.126	2.630	8.734	1.827	1.368	5.393	0.321	-0.983	1.601	-0.746	-171.875
-3.722	-2.327	-3.262	-1.141	4.117	0.695	2.280	1.697	2.795	-1.280	-1.071	1.090	5.444	9.815	-3.600	-1.519	-4.234	-7.282	-1.634	1.126	7.348	0.138	-0.159	4.891	1.253	1.088	3.016	0.999	-167.969
-4.089	-3.237	-3.528	-1.457	3.781	1.498	3.423	3.168	5.011	1.125	0.398	2.390	5.619	8.357	-4.786	-2.660	-5.721	-7.989	-3.106	-0.182	5.810	-1.593	-1.714	4.113	1.993	2.738	4.142	2.502	-164.062
-3.980	-3.561	-3.063	-1.691	3.627	2.441	4.268	4.207	6.500	3.225	1.609	3.377	5.528	6.556	-5.561	-3.429	-6.832	-8.279	-4.323	-1.159	4.197	-3.189	-3.112	3.042	2.344	3.685	4.745	3.549	-160.156
-3.385	-3.238	-1.907	-1.795	3.633	3.411	4.750	4.794	7.203	4.895	2.475	3.946	5.131	4.493	-5.821	-3.753	-7.407	-8.058	-5.127	-1.752	2.574	-4.497	-4.203	1.700	2.177	3.786	4.675	4.013	-156.250
-2.394	-2.323	-0.217	-1.740	3.731	4.292	4.877	4.999	7.217	6.103	3.005	4.079	4.443	2.282	-5.566	-3.656	-7.391	-7.317	-5.437	-1.990	0.990	-5.413	-4.896	0.160	1.465	3.050	3.901	3.866	-152.344
-1.173	-0.979	1.756	-1.528	3.822	4.981	4.711	4.947	6.761	6.884	3.282	3.831	3.531	0.071	-4.891	-3.239	-6.837	-6.126	-5.268	-1.969	-0.512	-5.891	-5.164	-1.463	0.280	1.626	2.512	3.182	-148.438
0.086	0.560	3.714	-1.193	3.797	5.396	4.344	4.773	6.099	7.302	3.425	3.312	2.500	-1.977	-3.947	-2.649	-5.883	-4.632	-4.710	-1.813	-1.886	-5.946	-5.039	-3.019	-1.215	-0.232	0.700	2.115	-144.531
1.206	2.040	5.368	-0.790	3.567	5.483	3.863	4.575	5.468	7.415	3.544	2.651	1.470	-3.694	-2.906	-2.036	-4.716	-3.023	-3.908	-1.635	-3.080	-5.640	-4.599	-4.352	-2.805	-2.217	-1.279	0.860	-140.625
2.065	3.249	6.494	-0.378	3.084	5.223	3.334	4.387	5.012	7.256	3.702	1.975	0.552	-4.938	-1.918	-1.515	-3.529	-1.505	-3.024	-1.510	-4.028	-5.067	-3.947	-5.325	-4.262	-4.027	-3.158	-0.382	-136.719
2.613	4.055	6.970	-0.002	2.363	4.637	2.793	4.171	4.760	6.834	3.904	1.378	-0.164	-5.608	-1.085	-1.146	-2.478	-0.260	-2.200	-1.457	-4.665	-4.332	-3.188	-5.846	-5.386	-5.414	-4.704	-1.440	-132.812
2.871	4.428	6.783	0.316	1.477	3.778	2.253	3.831	4.623	6.147	4.097	0.913	-0.626	-5.661	-0.449	-0.924	-1.654	0.592	-1.531	-1.444	-4.936	-3.533	-2.412	-5.882	-6.038	-6.225	-5.756	-2.206	-128.906
2.907	4.428	6.022	0.579	0.539	2.725	1.716	3.260	4.439	5.211	4.197	0.593	-0.819	-5.122	0.009	-0.792	-1.080	1.012	-1.051	-1.410	-4.809	-2.748	-1.685	-5.467	-6.159	-6.418	-6.244	-2.641	-125.000
2.807	4.173	4.842	0.809	-0.319	1.570	1.188	2.380	4.028	4.074	4.117	0.392	-0.769	-4.080	0.344	-0.671	-0.709	1.050	-0.733	-1.288	-4.295	-2.029	-1.045	-4.690	-5.774	-6.063	-6.184	-2.771	-121.094
2.643	3.795	3.425	1.030	-0.980	0.402	0.689	1.186	3.246	2.822	3.801	0.264	-0.525	-2.673	0.629	-0.485	-0.457	0.827	-0.508	-1.032	-3.447	-1.393	-0.502	-3.677	-4.981	-5.310	-5.658	-2.667	-117.188
2.454	3.406	1.937	1.256	-1.365	-0.703	0.253	-0.236	2.040	1.572	3.247	0.157	-0.157	-1.071	0.922	-0.187	-0.224	0.498	-0.288	-0.630	-2.360	-0.833	-0.048	-2.568	-3.938	-4.350	-4.788	-2.421	-113.281
2.243	3.077	0.507	1.483	-1.449	-1.689	-0.076	-1.721	0.468	0.450	2.509	0.029	0.269	0.544	1.252	0.229	0.073	0.214	0.002	-0.110	-1.160	-0.328	0.331	-1.491	-2.828	-3.364	-3.703	-2.112	-109.375
1.983	2.835	-0.785	1.686	-1.262	-2.515	-0.253	-3.069	-1.302	-0.432	1.698	-0.138	0.692	1.999	1.611	0.725	0.481	0.093	0.403	0.464	0.015	0.148	0.650	-0.543	-1.830	-2.486	-2.519	-1.794	-105.469
1.642	2.672	-1.900	1.826	-0.878	-3.157	-0.249	-4.093	-3.030	-0.997	0.949	-0.337	1.070	3.150	1.958	1.237	1.005	0.192	0.914	1.019	1.030	0.614	0.921	0.220	-1.082	-1.779	-1.324	-1.481	-101.562
1.195	2.561	-2.830	1.858	-0.404	-3.610	-0.061	-4.671	-4.464	-1.223	0.392	-0.537	1.374	3.891	2.236	1.689	1.611	0.512	1.496	1.483	1.777	1.072	1.155	0.782	-0.654	-1.237	-0.181	-1.151	-97.656
0.644	2.468	-3.579	1.742	0.045	-3.887	0.272	-4.773	-5.394	-1.144	0.117	-0.690	1.584	4.165	2.391	2.020	2.243	0.998	2.084	1.809	2.186	1.513	1.362	1.158	-0.542	-0.802	0.865	-0.765	-93.750
0.024	2.363	-4.154	1.454	0.361	-4.023	0.675	-4.472	-5.710	-0.846	0.149	-0.752	1.678	3.970	2.388	2.197	2.836	1.565	2.608	1.982	2.237	1.916	1.556	1.379	-0.665	-0.390	1.779	-0.278	-89.844
-0.601	2.225	-4.557	1.002	0.465	-4.065	1.039	-3.914	-5.419	-0.448	0.439	-0.697	1.627	3.349	2.229	2.226	3.337	2.122	3.011	2.017	1.954	2.257	1.754	1.476	-0.891	0.077	2.523	0.327	-85.938
-1.146	2.046	-4.783	0.432	0.312	-4.069	1.244	-3.290	-4.641	-0.076	0.870	-0.538	1.396	2.385	1.958	2.149	3.716	2.602	3.263	1.955	1.399	2.511	1.968	1.471	-1.067	0.648	3.060	1.029	-82.031
-1.515	1.828	-4.818	-0.173	-0.099	-4.078	1.186	-2.772	-3.566	0.162	1.283	-0.325	0.947	1.172	1.656	2.037	3.973	2.978	3.368	1.845	0.653	2.659	2.208	1.368	-1.061	1.324	3.347	1.759	-78.125
-1.626	1.579	-4.653	-0.708	-0.734	-4.126	0.801	-2.477	-2.405	0.200	1.512	-0.141	0.252	-0.194	1.425	1.970	4.139	3.268	3.354	1.730	-0.196	2.683	2.471	1.158	-0.791	2.059	3.349	2.410	-74.219
-1.424	1.304	-4.288	-1.069	-1.531	-4.221	0.087	-2.437	-1.337	0.019	1.422	-0.078	-0.696	-1.637	1.367	2.011	4.266	3.516	3.268	1.636	-1.077	2.576	2.740	0.823	-0.250	2.770	3.049	2.864	-70.312
-0.900	0.998	-3.754	-1.188	-2.423	-4.352	-0.891	-2.594	-0.477	-0.345	0.951	-0.205	-1.868	-3.097	1.549	2.189	4.406	3.774	3.155	1.560	-1.937	2.335	2.986	0.357	0.498	3.365	2.465	3.023	-66.406
-0.100	0.640	-3.110	-1.051	-3.341	-4.483	-2.009	-2.821	0.127	-0.825	0.121	-0.540	-3.192	-4.530	1.986	2.484	4.593	4.075	3.046	1.470	-2.747	1.970	3.171	-0.228	1.338	3.766	1.657	2.845	-62.500
0.874	0.196	-2.442	-0.710	-4.233	-4.566	-3.108	-2.964	0.486	-1.334	-0.960	-1.041	-4.552	-5.890	2.624	2.823	4.826	4.417	2.948	1.318	-3.495	1.505	3.256	-0.886	2.141	3.941	0.732	2.363	-58.594
1.877	-0.372	-1.842	-0.270	-5.055	-4.544	-4.028	-2.878	0.639	-1.796	-2.122	-1.610	-5.802	-7.123	3.349	3.099	5.066	4.763	2.844	1.047	-4.174	0.982	3.211	-1.541	2.801	3.907	-0.167	1.683	-54.688
2.743	-1.095	-1.385	0.140	-5.777	-4.363	-4.639	-2.469	0.639	-2.156	-3.174	-2.114	-6.793	-8.162	4.011	3.190	5.247	5.052	2.706	0.612	-4.780	0.452	3.023	-2.101	3.262	3.731	-0.888	0.961	-50.781
3.315	-1.984	-1.110	0.405	-6.367	-3.986	-4.864	-1.706	0.541	-2.387	-3.946	-2.425	-7.399	-8.933	4.455	2.998	5.289	5.213	2.499	-0.010	-5.301	-0.027	2.695	-2.474	3.520	3.506	-1.303	0.364	-46.875
3.480	-3.018	-1.013	0.450	-6.796	-3.401	-4.693	-0.630	0.403	-2.477	-4.323	-2.454	-7.550	-9.375	4.559	2.467	5.123	5.192	2.197	-0.811	-5.722	-0.404	2.239	-2.600	3.617	3.327	-1.339	0.026	-42.969
3.189	-4.138	-1.052	0.267	-7.033	-2.618	-4.182	0.667	0.290	-2.423	-4.263	-2.168	-7.253	-9.452	4.262	1.605	4.704	4.966	1.784	-1.753	-6.030	-0.647	1.673	-2.469	3.608	3.259	-1.002	0.009	-39.062
2.472	-5.252	-1.159	-0.093	-7.048	-1.677	-3.434	2.057	0.270	-2.213	-3.798	-1.600	-6.589	-9.171	3.572	0.478	4.026	4.558	1.261	-2.771	-6.210	-0.753	1.008	-2.130	3.547	3.329	-0.380	0.299	-35.156
1.430	-6.251	-1.261	-0.527	-6.824	-0.639	-2.580	3.403	0.415	-1.822	-3.012	-0.834	-5.694	-8.581	2.567	-0.802	3.120	4.029	0.642	-3.786	-6.257	-0.745	0.252	-1.683	3.465	3.515	0.380	0.807	-31.250
0.208	-7.022	-1.306	-0.908	-6.361	0.417	-1.747	4.577	0.778	-1.221	-2.022	0.015	-4.728	-7.765	1.369	-2.099	2.047	3.465	-0.053	-4.719	-6.167	-0.671	-0.585	-1.252	3.370	3.765	1.104	1.405	-27.344
-1.028	-7.479	-1.272	-1.114	-5.684	1.394	-1.032	5.478	1.376	-0.389	-0.949	0.829	-3.835	-6.816	0.121	-3.286	0.889	2.958	-0.796	-5.498	-5.939	-0.589	-1.482	-0.953	3.256	4.015	1.637	1.960	-23.438
-2.126	-7.576	-1.184	-1.055	-4.847	2.189	-0.488	6.034	2.176	0.668	0.102	1.510	-3.114	-5.821	-1.042	-4.259	-0.260	2.578	-1.554	-6.070	-5.570	-0.548	-2.395	-0.862	3.109	4.206	1.873	2.368	-19.531
-2.972	-7.318	-1.103	-0.686	-3.927	2.699	-0.119	6.208	3.095	1.896	1.046	1.986	-2.604	-4.844	-2.012	-4.946	-1.303	2.365	-2.284	-6.397	-5.051	-0.574	-3.257	-0.999	2.917	4.297	1.772	2.572	-15.625
-3.501	-6.760	-1.113	-0.016	-3.011	2.835	0.107	5.994	4.010	3.191	1.825	2.222	-2.289	-3.918	-2.712	-5.311	-2.149	2.322	-2.931	-6.455	-4.372	-0.660	-3.986	-1.330	2.673	4.271	1.359	2.567	-11.719
-3.705	-5.991	-1.293	0.901	-2.186	2.533	0.240	5.414	4.784	4.399	2.394	2.213	-2.116	-3.048	-3.100	-5.341	-2.709	2.420	-3.425	-6.229	-3.524	-0.765	-4.504	-1.775	2.376	4.128	0.706	2.391	-7.812
-3.620	-5.122	-1.692	1.970	-1.520	1.769	0.320	4.513	5.299	5.342	2.725	1.980	-2.021	-2.227	-3.160	-5.041	-2.911	2.615	-3.690	-5.713	-2.506	-0.824	-4.754	-2.243	2.021	3.882	-0.088	2.102	-3.906
-3.317	-4.267	-2.312	3.077	-1.056	0.569	0.367	3.353	5.480	5.845	2.802	1.563	-1.954	-1.444	-2.897	-4.433	-2.707	2.858	-3.653	-4.908	-1.335	-0.765	-4.720	-2.652	1.611	3.558	-0.920	1.765	0.000
-2.886	-3.536	-3.111	4.097	-0.801	-0.985	0.368	2.020	5.311	5.773	2.628	1.016	-1.891	-0.701	-2.337	-3.551	-2.082	3.113	-3.266	-3.834	-0.047	-0.530	-4.425	-2.950	1.149	3.184	-1.700	1.436	3.906
-2.417	-3.012	-4.005	4.916	-0.735	-2.746	0.294	0.623	4.839	5.056	2.225	0.402	-1.841	-0.020	-1.525	-2.447	-1.068	3.353	-2.521	-2.534	1.295	-0.093	-3.931	-3.126	0.653	2.784	-2.372	1.153	7.812
-1.991	-2.736	-4.886	5.446	-0.810	-4.516	0.114	-0.706	4.166	3.715	1.636	-0.215	-1.841	0.558	-0.533	-1.188	0.250	3.566	-1.468	-1.078	2.607	0.528	-3.324	-3.206	0.144	2.375	-2.921	0.926	11.719
-1.662	-2.701	-5.641	5.640	-0.962	-6.067	-0.185	-1.815	3.428	1.869	0.925	-0.772	-1.939	0.977	0.540	0.144	1.740	3.744	-0.215	0.439	3.792	1.269	-2.696	-3.240	-0.347	1.956	-3.371	0.744	15.625
-1.452	-2.844	-6.167	5.501	-1.124	-7.182	-0.580	-2.553	2.771	-0.278	0.164	-1.215	-2.178	1.179	1.579	1.462	3.231	3.879	1.078	1.904	4.749	2.034	-2.136	-3.292	-0.790	1.513	-3.772	0.576	19.531
-1.356	-3.066	-6.384	5.083	-1.236	-7.694	-1.010	-2.793	2.322	-2.458	-0.569	-1.497	-2.575	1.121	2.465	2.675	4.544	3.956	2.228	3.200	5.391	2.707	-1.710	-3.415	-1.163	1.017	-4.181	0.382	23.438
-1.343	-3.248	-6.244	4.481	-1.258	-7.529	-1.386	-2.463	2.161	-4.384	-1.207	-1.590	-3.113	0.787	3.092	3.699	5.518	3.954	3.061	4.222	5.662	3.183	-1.466	-3.643	-1.454	0.449	-4.638	0.132	27.344
-1.368	-3.283	-5.739	3.819	-1.172	-6.721	-1.619	-1.572	2.304	-5.800	-1.709	-1.488	-3.744	0.198	3.392	4.465	6.041	3.841	3.452	4.892	5.547	3.394	-1.417	-3.980	-1.662	-0.192	-5.147	-0.190	31.250
-1.382	-3.098	-4.905	3.224	-0.989	-5.404	-1.643	-0.218	2.696	-6.536	-2.068	-1.213	-4.398	-0.590	3.346	4.929	6.076	3.581	3.358	5.179	5.073	3.324	-1.546	-4.403	-1.788	-0.872	-5.672	-0.576	35.156
-1.342	-2.676	-3.826	2.807	-0.746	-3.786	-1.450	1.423	3.225	-6.543	-2.322	-0.824	-5.001	-1.492	2.991	5.079	5.668	3.144	2.827	5.096	4.315	3.021	-1.803	-4.865	-1.827	-1.514	-6.144	-0.994	39.062
-1.223	-2.056	-2.625	2.639	-0.492	-2.108	-1.093	3.123	3.737	-5.905	-2.549	-0.407	-5.492	-2.413	2.412	4.935	4.928	2.521	1.996	4.698	3.373	2.583	-2.107	-5.306	-1.763	-2.014	-6.482	-1.397	42.969
-1.020	-1.329	-1.452	2.740	-0.283	-0.597	-0.680	4.642	4.079	-4.821	-2.850	-0.066	-5.837	-3.260	1.725	4.549	4.016	1.741	1.057	4.071	2.367	2.138	-2.358	-5.662	-1.565	-2.254	-6.606	-1.726	46.875
-0.755	-0.607	-0.458	3.085	-0.166	0.569	-0.349	5.772	4.122	-3.563	-3.329	0.098	-6.026	-3.961	1.054	3.996	3.100	0.877	0.214	3.316	1.414	1.811	-2.459	-5.876	-1.201	-2.131	-6.459	-1.921	50.781
-0.462	0.000	0.228	3.609	-0.177	1.280	-0.227	6.373	3.804	-2.418	-4.060	0.006	-6.071	-4.472	0.509	3.360	2.324	0.029	-0.367	2.528	0.612	1.698	-2.335	-5.906	-0.644	-1.575	-6.009	-1.927	54.688
-0.186	0.415	0.521	4.225	-0.334	1.503	-0.399	6.404	3.146	-1.625	-5.067	-0.374	-5.997	-4.784	0.165	2.718	1.783	-0.687	-0.591	1.784	0.025	1.840	-1.948	-5.729	0.114	-0.566	-5.251	-1.702	58.594
0.029	0.602	0.390	4.836	-0.642	1.267	-0.880	5.927	2.260	-1.330	-6.308	-1.021	-5.832	-4.914	0.058	2.128	1.508	-1.175	-0.455	1.126	-0.322	2.211	-1.313	-5.346	1.059	0.867	-4.208	-1.222	62.500
0.146	0.568	-0.145	5.354	-1.094	0.648	-1.611	5.106	1.341	-1.561	-7.677	-1.861	-5.606	-4.901	0.177	1.611	1.465	-1.375	-0.047	0.566	-0.450	2.727	-0.491	-4.783	2.149	2.644	-2.930	-0.492	66.406
0.141	0.345	-1.022	5.702	-1.670	-0.254	-2.471	4.172	0.627	-2.235	-9.024	-2.777	-5.348	-4.795	0.469	1.156	1.573	-1.282	0.483	0.085	-0.408	3.262	0.415	-4.086	3.323	4.652	-1.493	0.453	70.312
0.002	-0.023	-2.152	5.827	-2.335	-1.328	-3.305	3.374	0.352	-3.187	-10.187	-3.635	-5.083	-4.644	0.860	0.729	1.725	-0.948	0.959	-0.349	-0.264	3.678	1.282	-3.321	4.517	6.759	0.010	1.547	74.219
-0.273	-0.493	-3.434	5.698	-3.043	-2.462	-3.956	2.922	0.692	-4.215	-11.030	-4.305	-4.832	-4.481	1.270	0.285	1.817	-0.467	1.221	-0.766	-0.085	3.855	1.990	-2.563	5.669	8.827	1.470	2.700	78.125
-0.670	-1.032	-4.774	5.312	-3.736	-3.552	-4.302	2.938	1.713	-5.127	-11.473	-4.692	-4.603	-4.319	1.633	-0.207	1.777	0.041	1.169	-1.182	0.078	3.728	2.445	-1.879	6.729	10.733	2.784	3.808	82.031
-1.169	-1.610	-6.091	4.691	-4.346	-4.508	-4.271	3.427	3.347	-5.779	-11.504	-4.750	-4.389	-4.151	1.914	-0.755	1.580	0.463	0.782	-1.587	0.201	3.294	2.595	-1.323	7.661	12.380	3.865	4.774	85.938
-1.740	-2.202	-7.329	3.883	-4.811	-5.260	-3.852	4.276	5.397	-6.086	-11.179	-4.486	-4.162	-3.947	2.111	-1.334	1.249	0.712	0.119	-1.957	0.288	2.622	2.443	-0.921	8.439	13.699	4.654	5.519	89.844
-2.351	-2.782	-8.453	2.949	-5.082	-5.769	-3.087	5.280	7.575	-6.029	-10.596	-3.956	-3.877	-3.673	2.252	-1.897	0.853	0.749	-0.691	-2.254	0.359	1.832	2.037	-0.671	9.042	14.660	5.129	5.991	93.750
-2.967	-3.323	-9.443	1.963	-5.136	-6.019	-2.055	6.197	9.561	-5.638	-9.872	-3.251	-3.484	-3.298	2.380	-2.379	0.480	0.589	-1.494	-2.448	0.438	1.068	1.465	-0.547	9.456	15.254	5.300	6.169	97.656
-3.548	-3.799	-10.279	1.003	-4.985	-6.020	-0.859	6.802	11.072	-4.978	-9.116	-2.471	-2.939	-2.814	2.538	-2.719	0.215	0.294	-2.141	-2.525	0.537	0.464	0.832	-0.508	9.668	15.488	5.200	6.056	101.562
-4.050	-4.181	-10.926	0.142	-4.668	-5.789	0.389	6.943	11.908	-4.134	-8.415	-1.713	-2.229	-2.251	2.758	-2.873	0.119	-0.033	-2.532	-2.493	0.639	0.111	0.244	-0.514	9.664	15.366	4.880	5.675	105.469
-4.425	-4.447	-11.324	-0.556	-4.249	-5.350	1.581	6.566	11.987	-3.201	-7.825	-1.053	-1.379	-1.674	3.055	-2.821	0.221	-0.280	-2.630	-2.385	0.701	0.039	-0.209	-0.537	9.432	14.889	4.392	5.058	109.375
-4.621	-4.571	-11.397	-1.037	-3.801	-4.718	2.618	5.723	11.344	-2.279	-7.375	-0.534	-0.457	-1.178	3.420	-2.568	0.514	-0.343	-2.462	-2.245	0.660	0.214	-0.466	-0.568	8.955	14.046	3.784	4.244	113.281
-4.584	-4.532	-11.064	-1.261	-3.388	-3.907	3.417	4.543	10.117	-1.462	-7.071	-0.175	0.436	-0.868	3.835	-2.143	0.961	-0.151	-2.103	-2.115	0.456	0.555	-0.506	-0.625	8.225	12.829	3.090	3.270	117.188
-4.268	-4.309	-10.265	-1.196	-3.056	-2.935	3.916	3.199	8.502	-0.835	-6.903	0.028	1.188	-0.829	4.276	-1.587	1.513	0.324	-1.647	-2.024	0.052	0.956	-0.340	-0.740	7.239	11.240	2.325	2.170	121.094
-3.638	-3.881	-8.985	-0.826	-2.826	-1.836	4.077	1.858	6.718	-0.462	-6.856	0.088	1.695	-1.107	4.722	-0.944	2.118	1.065	-1.180	-1.977	-0.551	1.324	-0.008	-0.961	6.017	9.312	1.488	0.975	125.000
-2.683	-3.231	-7.268	-0.156	-2.704	-0.671	3.892	0.648	4.968	-0.373	-6.911	0.024	1.879	-1.695	5.162	-0.258	2.730	2.011	-0.760	-1.958	-1.308	1.603	0.433	-1.328	4.607	7.127	0.573	-0.282	128.906
-1.427	-2.364	-5.223	0.779	-2.689	0.464	3.384	-0.358	3.418	-0.562	-7.047	-0.145	1.703	-2.536	5.593	0.426	3.317	3.068	-0.410	-1.942	-2.148	1.780	0.920	-1.869	3.093	4.825	-0.417	-1.553	132.812
0.062	-1.315	-3.021	1.905	-2.782	1.444	2.608	-1.143	2.185	-0.980	-7.239	-0.392	1.174	-3.531	6.006	1.066	3.854	4.117	-0.125	-1.908	-2.986	1.888	1.396	-2.583	1.589	2.587	-1.461	-2.777	136.719
1.675	-0.153	-0.866	3.108	-2.991	2.142	1.647	-1.724	1.345	-1.541	-7.460	-0.682	0.338	-4.561	6.386	1.616	4.320	5.033	0.109	-1.851	-3.743	1.983	1.814	-3.437	0.223	0.611	-2.517	-3.874	140.625
3.269	1.017	1.037	4.256	-3.317	2.455	0.606	-2.129	0.928	-2.140	-7.685	-0.968	-0.725	-5.499	6.702	2.035	4.694	5.702	0.305	-1.785	-4.357	2.126	2.134	-4.374	-0.887	-0.936	-3.528	-4.765	144.531
4.692	2.078	2.517	5.218	-3.743	2.338	-0.402	-2.370	0.916	-2.673	-7.888	-1.201	-1.916	-6.232	6.915	2.285	4.955	6.040	0.465	-1.735	-4.786	2.363	2.332	-5.321	-1.657	-1.950	-4.439	-5.386	148.438
5.809	2.920	3.466	5.898	-4.227	1.817	-1.270	-2.438	1.250	-3.055	-8.048	-1.330	-3.131	-6.673	6.988	2.348	5.087	6.013	0.579	-1.733	-5.008	2.710	2.392	-6.208	-2.055	-2.410	-5.206	-5.705	152.344
6.526	3.469	3.853	6.252	-4.702	0.996	-1.912	-2.307	1.826	-3.236	-8.140	-1.321	-4.272	-6.774	6.897	2.221	5.085	5.643	0.625	-1.803	-5.021	3.155	2.307	-6.975	-2.103	-2.372	-5.808	-5.729	156.250
6.814	3.709	3.721	6.297	-5.078	0.031	-2.280	-1.955	2.521	-3.208	-8.137	-1.164	-5.258	-6.530	6.645	1.928	4.956	5.003	0.580	-1.955	-4.839	3.657	2.083	-7.584	-1.872	-1.942	-6.240	-5.507	160.156
6.715	3.681	3.170	6.099	-5.272	-0.905	-2.368	-1.385	3.205	-3.006	-8.010	-0.881	-6.025	-5.976	6.265	1.518	4.726	4.208	0.428	-2.181	-4.481	4.164	1.735	-8.018	-1.456	-1.254	-6.514	-5.123	164.062
6.338	3.478	2.323	5.756	-5.217	-1.668	-2.213	-0.649	3.764	-2.692	-7.743	-0.532	-6.529	-5.177	5.818	1.062	4.435	3.384	0.172	-2.449	-3.966	4.626	1.293	-8.275	-0.958	-0.433	-6.648	-4.679	167.969
5.834	3.213	1.305	5.376	-4.887	-2.177	-1.885	0.152	4.108	-2.348	-7.346	-0.208	-6.747	-4.209	5.382	0.650	4.134	2.647	-0.164	-2.707	-3.307	5.013	0.801	-8.358	-0.464	0.413	-6.668	-4.281	171.875
5.365	2.997	0.224	5.058	-4.299	-2.433	-1.471	0.879	4.182	-2.060	-6.859	-0.009	-6.673	-3.148	5.035	0.371	3.881	2.072	-0.532	-2.890	-2.504	5.324	0.314	-8.265	-0.031	1.204	-6.593	-4.013	175.781
5.061	2.901	-0.846	4.870	-3.513	-2.512	-1.056	1.386	3.960	-1.904	-6.361	-0.023	-6.320	-2.057	4.838	0.299	3.723	1.681	-0.868	-2.935	-1.555	5.587	-0.107	-7.982	0.324	1.885	-6.434	-3.921	179.688
4.996	2.947	-1.856	4.848	-2.615	-2.531	-0.708	1.555	3.446	-1.942	-5.950	-0.296	-5.718	-0.979	4.819	0.469	3.691	1.442	-1.109	-2.801	-0.463	5.846	-0.406	-7.487	0.616	2.432	-6.183	-3.997	183.594
5.171	3.110	-2.780	4.991	-1.701	-2.610	-0.466	1.334	2.667	-2.213	-5.732	-0.822	-4.916	0.056	4.965	0.864	3.788	1.280	-1.210	-2.486	0.748	6.151	-0.545	-6.756	0.882	2.843	-5.818	-4.184	187.500
5.527	3.328	-3.598	5.273	-0.858	-2.832	-0.339	0.752	1.663	-2.732	-5.795	-1.541	-3.975	1.025	5.231	1.407	3.985	1.113	-1.161	-2.032	2.023	6.530	-0.507	-5.783	1.169	3.134	-5.307	-4.393	191.406
5.962	3.524	-4.289	5.653	-0.154	-3.218	-0.311	-0.077	0.489	-3.486	-6.197	-2.358	-2.970	1.901	5.551	1.982	4.235	0.875	-0.986	-1.525	3.271	6.987	-0.298	-4.589	1.523	3.341	-4.627	-4.532	195.312
6.368	3.629	-4.829	6.079	0.370	-3.727	-0.349	-0.984	-0.789	-4.427	-6.947	-3.163	-1.982	2.647	5.856	2.450	4.478	0.547	-0.745	-1.076	4.370	7.492	0.064	-3.228	1.973	3.508	-3.773	-4.528	199.219
6.648	3.592	-5.189	6.503	0.696	-4.267	-0.413	-1.780	-2.089	-5.471	-8.005	-3.858	-1.083	3.216	6.085	2.689	4.661	0.160	-0.507	-0.794	5.194	7.994	0.550	-1.786	2.531	3.685	-2.771	-4.354	203.125
6.744	3.393	-5.343	6.891	0.832	-4.719	-0.460	-2.303	-3.316	-6.508	-9.281	-4.377	-0.335	3.560	6.199	2.621	4.746	-0.211	-0.338	-0.757	5.629	8.431	1.130	-0.360	3.185	3.915	-1.682	-4.030	207.031
6.639	3.047	-5.271	7.227	0.803	-4.971	-0.449	-2.451	-4.362	-7.412	-10.651	-4.696	0.229	3.646	6.173	2.232	4.716	-0.480	-0.282	-0.991	5.610	8.748	1.769	0.954	3.896	4.228	-0.595	-3.616	210.938
6.356	2.605	-4.970	7.518	0.653	-4.934	-0.346	-2.197	-5.117	-8.062	-11.969	-4.828	0.605	3.471	6.004	1.579	4.571	-0.579	-0.352	-1.453	5.135	8.909	2.425	2.079	4.607	4.625	0.390	-3.197	214.844
5.946	2.140	-4.456	7.785	0.432	-4.568	-0.128	-1.587	-5.486	-8.365	-13.092	-4.816	0.824	3.075	5.694	0.775	4.322	-0.494	-0.531	-2.044	4.277	8.906	3.050	2.970	5.242	5.073	1.179	-2.862	218.750
5.471	1.739	-3.777	8.053	0.190	-3.886	0.220	-0.722	-5.404	-8.274	-13.903	-4.715	0.951	2.545	5.257	-0.040	3.987	-0.276	-0.778	-2.621	3.182	8.757	3.591	3.618	5.716	5.513	1.712	-2.677	222.656
4.988	1.478	-3.009	8.342	-0.026	-2.958	0.693	0.271	-4.864	-7.800	-14.333	-4.581	1.069	2.008	4.709	-0.725	3.583	-0.035	-1.041	-3.025	2.051	8.506	4.003	4.050	5.948	5.869	1.975	-2.682	226.562
4.538	1.412	-2.250	8.668	-0.172	-1.892	1.268	1.261	-3.924	-7.021	-14.372	-4.459	1.270	1.616	4.071	-1.168	3.129	0.087	-1.270	-3.108	1.109	8.219	4.258	4.318	5.872	6.073	2.002	-2.880	230.469
4.136	1.560	-1.599	9.051	-0.204	-0.811	1.903	2.133	-2.711	-6.072	-14.080	-4.387	1.632	1.521	3.367	-1.300	2.646	-0.042	-1.421	-2.760	0.581	7.971	4.358	4.489	5.457	6.083	1.862	-3.253	234.375
3.775	1.905	-1.138	9.516	-0.070	0.171	2.546	2.798	-1.403	-5.127	-13.576	-4.401	2.202	1.849	2.619	-1.099	2.160	-0.505	-1.464	-1.920	0.648	7.840	4.330	4.631	4.721	5.892	1.641	-3.771	238.281
3.428	2.395	-0.913	10.093	0.288	0.974	3.141	3.202	-0.195	-4.363	-13.026	-4.533	2.985	2.678	1.842	-0.588	1.703	-1.304	-1.380	-0.590	1.425	7.897	4.226	4.803	3.734	5.538	1.415	-4.403	242.188
3.058	2.955	-0.926	10.803	0.923	1.559	3.646	3.323	0.733	-3.929	-12.605	-4.815	3.947	4.017	1.045	0.180	1.308	-2.356	-1.161	1.164	2.930	8.199	4.109	5.042	2.619	5.087	1.235	-5.126	246.094
2.626	3.495	-1.145	11.645	1.871	1.933	4.043	3.176	1.255	-3.907	-12.469	-5.269	5.019	5.801	0.229	1.130	1.009	-3.512	-0.805	3.226	5.086	8.779	4.049	5.361	1.531	4.617	1.114	-5.924	250.000
2.103	3.933	-1.511	12.591	3.134	2.136	4.335	2.807	1.321	-4.300	-12.720	-5.901	6.110	7.897	-0.602	2.172	0.827	-4.592	-0.322	5.443	7.718	9.644	4.107	5.751	0.628	4.198	1.033	-6.780	253.906
1.467	4.205	-1.959	13.580	4.666	2.237	4.546	2.289	0.962	-5.034	-13.385	-6.689	7.125	10.121	-1.444	3.213	0.768	-5.427	0.269	7.646	10.583	10.765	4.332	6.182	0.036	3.873	0.950	-7.670	257.812
0.711	4.284	-2.432	14.531	6.372	2.305	4.707	1.709	0.280	-5.970	-14.407	-7.582	7.980	12.268	-2.284	4.164	0.819	-5.891	0.941	9.671	13.401	12.082	4.747	6.610	-0.174	3.650	0.825	-8.558	261.719
-0.162	4.185	-2.888	15.357	8.112	2.402	4.843	1.161	-0.573	-6.939	-15.651	-8.504	8.614	14.140	-3.102	4.946	0.951	-5.928	1.660	11.378	15.898	13.506	5.349	6.989	-0.005	3.505	0.631	-9.399	265.625
-1.134	3.959	-3.303	15.979	9.720	2.563	4.972	0.736	-1.428	-7.769	-16.930	-9.369	8.995	15.578	-3.877	5.499	1.137	-5.556	2.391	12.667	17.846	14.930	6.107	7.275	0.476	3.391	0.363	-10.150	269.531
-2.183	3.681	-3.671	16.340	11.033	2.795	5.100	0.513	-2.133	-8.323	-18.038	-10.095	9.126	16.484	-4.591	5.790	1.354	-4.848	3.112	13.486	19.094	16.248	6.966	7.434	1.159	3.260	0.041	-10.775	273.438
-3.284	3.430	-3.990	16.417	11.913	3.078	5.225	0.551	-2.581	-8.516	-18.794	-10.622	9.042	16.837	-5.239	5.812	1.596	-3.915	3.814	13.831	19.591	17.370	7.859	7.453	1.922	3.083	-0.291	-11.253	277.344
-4.416	3.271	-4.266	16.224	12.276	3.377	5.345	0.877	-2.730	-8.332	-19.072	-10.920	8.804	16.690	-5.833	5.582	1.868	-2.867	4.501	13.740	19.386	18.243	8.716	7.341	2.667	2.865	-0.577	-11.574	281.250
-5.564	3.240	-4.499	15.811	12.111	3.659	5.460	1.476	-2.604	-7.815	-18.828	-10.990	8.492	16.158	-6.398	5.142	2.180	-1.800	5.183	13.285	18.609	18.855	9.483	7.135	3.335	2.646	-0.755	-11.737	285.156
-6.717	3.343	-4.688	15.260	11.476	3.897	5.577	2.290	-2.276	-7.062	-18.104	-10.862	8.191	15.397	-6.961	4.544	2.541	-0.777	5.870	12.556	17.446	19.240	10.128	6.892	3.904	2.485	-0.772	-11.750	289.062
-7.858	3.552	-4.832	14.663	10.490	4.080	5.703	3.228	-1.845	-6.196	-17.021	-10.585	7.970	14.566	-7.535	3.855	2.949	0.164	6.562	11.652	16.096	19.461	10.650	6.678	4.378	2.440	-0.601	-11.629	292.969
-8.960	3.821	-4.923	14.105	9.311	4.210	5.842	4.190	-1.407	-5.350	-15.754	-10.222	7.874	13.801	-8.106	3.140	3.395	1.008	7.243	10.666	14.733	19.595	11.072	6.552	4.764	2.546	-0.247	-11.399	296.875
-9.973	4.092	-4.954	13.645	8.106	4.300	5.987	5.086	-1.036	-4.650	-14.504	-9.835	7.907	13.190	-8.631	2.464	3.863	1.748	7.888	9.674	13.481	19.710	11.431	6.549	5.053	2.794	0.246	-11.100	300.781
-10.830	4.316	-4.913	13.304	7.028	4.373	6.116	5.859	-0.771	-4.202	-13.462	-9.489	8.035	12.759	-9.039	1.887	4.339	2.379	8.465	8.734	12.400	19.850	11.768	6.668	5.221	3.125	0.795	-10.787	304.688
-11.453	4.460	-4.782	13.076	6.195	4.453	6.188	6.488	-0.617	-4.077	-12.779	-9.242	8.190	12.480	-9.252	1.452	4.818	2.893	8.944	7.881	11.490	20.021	12.109	6.869	5.228	3.439	1.293	-10.527	308.594
-11.772	4.519	-4.543	12.924	5.682	4.568	6.155	6.980	-0.550	-4.302	-12.541	-9.141	8.292	12.289	-9.202	1.190	5.304	3.281	9.305	7.128	10.710	20.196	12.458	7.086	5.041	3.617	1.623	-10.395	312.500
-11.744	4.512	-4.187	12.799	5.510	4.739	5.979	7.364	-0.522	-4.846	-12.752	-9.211	8.266	12.105	-8.857	1.102	5.799	3.534	9.533	6.470	9.999	20.323	12.796	7.245	4.649	3.556	1.686	-10.455	316.406
-11.377	4.475	-3.720	12.646	5.651	4.974	5.646	7.669	-0.475	-5.620	-13.329	-9.452	8.061	11.858	-8.237	1.165	6.295	3.656	9.620	5.888	9.297	20.344	13.084	7.283	4.073	3.198	1.423	-10.745	320.312
-10.727	4.449	-3.170	12.417	6.030	5.264	5.178	7.920	-0.344	-6.484	-14.117	-9.829	7.661	11.504	-7.416	1.328	6.762	3.658	9.558	5.355	8.561	20.209	13.277	7.165	3.373	2.545	0.821	-11.261	324.219
-9.894	4.475	-2.579	12.080	6.536	5.574	4.632	8.137	-0.069	-7.272	-14.917	-10.275	7.081	11.031	-6.513	1.527	7.147	3.563	9.342	4.839	7.770	19.887	13.333	6.886	2.636	1.663	-0.081	-11.958	328.125
-8.994	4.585	-1.993	11.639	7.046	5.858	4.083	8.338	0.400	-7.827	-15.527	-10.704	6.360	10.453	-5.663	1.693	7.391	3.400	8.973	4.316	6.934	19.375	13.215	6.469	1.958	0.654	-1.206	-12.753	332.031
-8.133	4.800	-1.448	11.135	7.443	6.060	3.606	8.542	1.091	-8.033	-15.784	-11.027	5.545	9.802	-4.989	1.775	7.442	3.201	8.462	3.770	6.077	18.690	12.903	5.949	1.420	-0.364	-2.450	-13.550	335.938
-7.379	5.129	-0.959	10.649	7.630	6.132	3.247	8.771	1.993	-7.842	-15.604	-11.176	4.679	9.110	-4.571	1.743	7.283	3.000	7.842	3.199	5.239	17.869	12.396	5.365	1.079	-1.284	-3.708	-14.256	339.844
-6.761	5.565	-0.518	10.275	7.549	6.038	3.011	9.041	3.043	-7.287	-15.009	-11.121	3.797	8.402	-4.423	1.598	6.936	2.827	7.161	2.611	4.457	16.964	11.719	4.754	0.965	-2.023	-4.875	-14.800	343.750
-6.270	6.080	-0.107	10.099	7.183	5.756	2.857	9.357	4.128	-6.478	-14.123	-10.875	2.922	7.690	-4.500	1.364	6.466	2.712	6.489	2.021	3.765	16.045	10.930	4.150	1.091	-2.514	-5.854	-15.137	347.656
-5.881	6.623	0.287	10.159	6.555	5.283	2.710	9.702	5.091	-5.571	-13.143	-10.488	2.072	6.978	-4.708	1.077	5.968	2.678	5.895	1.443	3.178	15.188	10.118	3.589	1.462	-2.707	-6.562	-15.238	351.562
-5.573	7.116	0.659	10.430	5.714	4.631	2.485	10.044	5.778	-4.730	-12.296	-10.030	1.263	6.259	-4.933	0.768	5.539	2.742	5.440	0.880	2.698	14.466	9.389	3.107	2.075	-2.559	-6.929	-15.082	355.469
-5.339	7.470	0.977	10.826	4.725	3.818	2.115	10.337	6.081	-4.090	-11.770	-9.566	0.508	5.528	-5.072	0.457	5.261	2.912	5.155	0.320	2.304	13.937	8.844	2.730	2.917	-2.049	-6.915	-14.655	359.375
-5.183	7.596	1.188	11.213	3.653	2.871	1.576	10.541	5.976	-3.719	-11.664	-9.139	-0.183	4.777	-5.055	0.143	5.174	3.187	5.033	-0.264	1.959	13.624	8.553	2.470	3.948	-1.184	-6.522	-13.950	363.281
-5.119	7.428	1.239	11.447	2.549	1.814	0.891	10.627	5.552	-3.610	-11.955	-8.759	-0.811	3.999	-4.857	-0.192	5.271	3.557	5.031	-0.907	1.614	13.505	8.541	2.317	5.095	-0.011	-5.799	-12.977	367.188
-5.154	6.940	1.084	11.406	1.450	0.670	0.135	10.585	4.993	-3.684	-12.496	-8.404	-1.382	3.194	-4.504	-0.576	5.497	4.007	5.077	-1.643	1.216	13.519	8.770	2.244	6.253	1.381	-4.848	-11.777	371.094
-5.290	6.151	0.699	11.019	0.379	-0.538	-0.589	10.424	4.539	-3.818	-13.045	-8.033	-1.908	2.363	-4.056	-1.039	5.767	4.521	5.090	-2.489	0.719	13.572	9.159	2.214	7.307	2.864	-3.808	-10.421	375.000
-5.518	5.121	0.083	10.288	-0.645	-1.783	-1.173	10.165	4.425	-3.885	-13.334	-7.604	-2.401	1.519	-3.592	-1.600	5.987	5.081	5.000	-3.441	0.098	13.564	9.599	2.193	8.151	4.296	-2.832	-9.016	378.906
-5.825	3.938	-0.738	9.284	-1.602	-3.024	-1.529	9.836	4.809	-3.794	-13.131	-7.090	-2.866	0.683	-3.190	-2.262	6.079	5.677	4.767	-4.462	-0.644	13.414	9.980	2.165	8.721	5.533	-2.061	-7.685	382.812
-6.194	2.707	-1.714	8.140	-2.465	-4.208	-1.617	9.474	5.726	-3.514	-12.312	-6.488	-3.295	-0.118	-2.907	-3.003	5.998	6.298	4.394	-5.488	-1.475	13.084	10.226	2.137	9.006	6.463	-1.593	-6.550	386.719
-6.602	1.528	-2.776	7.020	-3.198	-5.266	-1.449	9.123	7.061	-3.096	-10.895	-5.825	-3.667	-0.852	-2.766	-3.781	5.739	6.932	3.922	-6.433	-2.332	12.594	10.307	2.141	9.052	7.022	-1.463	-5.705	390.625
-7.022	0.484	-3.843	6.097	-3.768	-6.128	-1.092	8.832	8.577	-2.652	-9.042	-5.153	-3.949	-1.492	-2.755	-4.541	5.337	7.559	3.423	-7.207	-3.139	12.014	10.245	2.225	8.944	7.208	-1.632	-5.200	394.531
-7.416	-0.372	-4.836	5.511	-4.148	-6.736	-0.646	8.647	9.969	-2.334	-7.020	-4.536	-4.102	-2.011	-2.833	-5.225	4.850	8.153	2.978	-7.736	-3.819	11.447	10.112	2.438	8.781	7.079	-2.006	-5.027	398.438
-7.743	-1.018	-5.685	5.354	-4.326	-7.053	-0.225	8.604	10.944	-2.288	-5.139	-4.035	-4.091	-2.393	-2.942	-5.785	4.340	8.683	2.654	-7.982	-4.310	10.999	10.000	2.809	8.648	6.733	-2.452	-5.126	402.344
-7.961	-1.459	-6.342	5.652	-4.306	-7.077	0.073	8.717	11.295	-2.616	-3.683	-3.697	-3.896	-2.629	-3.018	-6.195	3.860	9.120	2.485	-7.950	-4.579	10.749	9.998	3.335	8.593	6.279	-2.844	-5.405	406.250
-8.028	-1.716	-6.781	6.365	-4.104	-6.831	0.193	8.975	10.945	-3.353	-2.852	-3.551	-3.523	-2.713	-3.005	-6.446	3.444	9.447	2.469	-7.683	-4.622	10.724	10.164	3.966	8.615	5.801	-3.095	-5.766	410.156
-7.910	-1.806	-6.993	7.397	-3.740	-6.363	0.129	9.335	9.956	-4.459	-2.729	-3.608	-3.005	-2.646	-2.858	-6.546	3.110	9.661	2.575	-7.247	-4.459	10.898	10.512	4.614	8.657	5.326	-3.187	-6.143	414.062
-7.578	-1.728	-6.978	8.619	-3.231	-5.724	-0.076	9.724	8.502	-5.828	-3.282	-3.872	-2.404	-2.424	-2.552	-6.506	2.869	9.775	2.763	-6.709	-4.121	11.198	11.009	5.162	8.619	4.810	-3.179	-6.523	417.969
-7.011	-1.461	-6.735	9.893	-2.592	-4.961	-0.349	10.046	6.814	-7.315	-4.381	-4.344	-1.803	-2.052	-2.076	-6.331	2.734	9.818	2.992	-6.119	-3.643	11.530	11.591	5.485	8.380	4.146	-3.192	-6.951	421.875
-6.200	-0.966	-6.253	11.093	-1.834	-4.110	-0.611	10.203	5.122	-8.775	-5.843	-5.032	-1.296	-1.541	-1.441	-6.018	2.721	9.825	3.237	-5.497	-3.053	11.804	12.172	5.479	7.827	3.200	-3.379	-7.520	425.781
-5.151	-0.206	-5.514	12.126	-0.979	-3.193	-0.808	10.117	3.603	-10.090	-7.463	-5.940	-0.976	-0.918	-0.679	-5.555	2.856	9.834	3.491	-4.845	-2.375	11.951	12.671	5.081	6.891	1.858	-3.876	-8.328	429.688
-3.884	0.830	-4.506	12.935	-0.060	-2.229	-0.924	9.752	2.354	-11.194	-9.057	-7.058	-0.915	-0.233	0.167	-4.932	3.156	9.879	3.758	-4.149	-1.634	11.942	13.022	4.280	5.566	0.071	-4.763	-9.446	433.594
-2.438	2.112	-3.242	13.496	0.867	-1.238	-0.987	9.127	1.381	-12.074	-10.482	-8.353	-1.150	0.448	1.041	-4.146	3.633	9.977	4.048	-3.402	-0.860	11.790	13.187	3.126	3.925	-2.113	-6.044	-10.886	437.500
-0.874	3.566	-1.770	13.813	1.736	-0.252	-1.052	8.306	0.622	-12.760	-11.654	-9.761	-1.675	1.056	1.888	-3.211	4.278	10.130	4.376	-2.602	-0.089	11.545	13.164	1.719	2.101	-4.550	-7.641	-12.587	441.406
0.729	5.079	-0.186	13.915	2.477	0.685	-1.186	7.380	-0.028	-13.303	-12.549	-11.194	-2.435	1.530	2.656	-2.154	5.064	10.325	4.756	-1.759	0.645	11.286	12.981	0.194	0.262	-7.032	-9.413	-14.425	445.312
2.281	6.523	1.376	13.846	3.032	1.520	-1.443	6.440	-0.687	-13.757	-13.200	-12.549	-3.334	1.840	3.305	-1.015	5.949	10.546	5.200	-0.885	1.318	11.104	12.695	-1.297	-1.428	-9.331	-11.185	-16.238	449.219
3.694	7.778	2.752	13.670	3.370	2.191	-1.852	5.549	-1.460	-14.169	-13.677	-13.728	-4.256	1.991	3.812	0.163	6.882	10.780	5.722	0.015	1.925	11.086	12.378	-2.609	-2.842	-11.253	-12.784	-17.855	453.125
4.899	8.750	3.786	13.458	3.486	2.639	-2.412	4.722	-2.410	-14.570	-14.067	-14.655	-5.079	2.028	4.176	1.339	7.815	11.027	6.330	0.944	2.481	11.293	12.099	-3.622	-3.913	-12.670	-14.061	-19.133	457.031
5.858	9.388	4.354	13.285	3.408	2.809	-3.094	3.928	-3.554	-14.974	-14.451	-15.285	-5.704	2.022	4.423	2.473	8.706	11.296	7.026	1.910	3.017	11.754	11.911	-4.261	-4.630	-13.546	-14.915	-19.983	460.938
6.565	9.685	4.397	13.217	3.185	2.674	-3.849	3.107	-4.852	-15.381	-14.878	-15.607	-6.068	2.051	4.596	3.535	9.526	11.594	7.795	2.919	3.563	12.452	11.841	-4.503	-5.028	-13.929	-15.306	-20.378	464.844
7.049	9.674	3.933	13.302	2.879	2.232	-4.621	2.198	-6.218	-15.774	-15.360	-15.645	-6.154	2.179	4.745	4.491	10.253	11.913	8.607	3.962	4.135	13.329	11.885	-4.381	-5.161	-13.930	-15.260	-20.356	468.750
7.351	9.422	3.059	13.558	2.552	1.522	-5.354	1.166	-7.532	-16.128	-15.864	-15.444	-5.993	2.436	4.916	5.315	10.875	12.224	9.415	5.011	4.719	14.292	12.012	-3.973	-5.083	-13.691	-14.852	-20.000	472.656
7.515	9.013	1.935	13.976	2.254	0.620	-6.002	0.018	-8.669	-16.413	-16.331	-15.067	-5.659	2.812	5.140	5.982	11.386	12.476	10.164	6.013	5.277	15.234	12.174	-3.386	-4.845	-13.343	-14.201	-19.417	476.562
7.578	8.538	0.752	14.524	2.023	-0.369	-6.538	-1.188	-9.525	-16.604	-16.697	-14.583	-5.255	3.260	5.422	6.480	11.786	12.608	10.801	6.909	5.753	16.048	12.314	-2.735	-4.489	-12.976	-13.435	-18.717	480.469
7.568	8.083	-0.298	15.157	1.874	-1.323	-6.954	-2.361	-10.040	-16.683	-16.914	-14.065	-4.895	3.709	5.746	6.815	12.081	12.563	11.286	7.640	6.093	16.651	12.379	-2.119	-4.057	-12.624	-12.677	-17.990	484.375
7.505	7.722	-1.050	15.831	1.811	-2.121	-7.258	-3.400	-10.208	-16.649	-16.974	-13.585	-4.684	4.084	6.077	7.012	12.279	12.309	11.595	8.167	6.268	16.988	12.329	-1.607	-3.591	-12.269	-12.023	-17.301	488.281
7.416	7.516	-1.395	16.516	1.829	-2.660	-7.465	-4.217	-10.070	-16.510	-16.916	-13.210	-4.694	4.323	6.373	7.113	12.388	11.847	11.723	8.487	6.279	17.039	12.135	-1.236	-3.141	-11.861	-11.531	-16.693	492.188
7.335	7.509	-1.292	17.196	1.925	-2.869	-7.594	-4.757	-9.703	-16.284	-16.814	-12.993	-4.954	4.393	6.598	7.171	12.414	11.218	11.679	8.628	6.163	16.809	11.787	-1.017	-2.758	-11.360	-11.233	-16.195	496.094
7.308	7.734	-0.762	17.872	2.104	-2.712	-7.652	-5.005	-9.199	-15.989	-16.763	-12.969	-5.437	4.300	6.730	7.246	12.358	10.493	11.483	8.652	5.985	16.323	11.287	-0.952	-2.499	-10.777	-11.144	-15.836	500.000
7.392	8.215	0.114	18.552	2.380	-2.195	-7.638	-4.984	-8.645	-15.645	-16.848	-13.154	-6.078	4.085	6.776	7.394	12.225	9.756	11.163	8.636	5.825	15.620	10.653	-1.045	-2.427	-10.197	-11.282	-15.654	503.906
7.638	8.965	1.222	19.246	2.775	-1.355	-7.544	-4.748	-8.115	-15.275	-17.118	-13.546	-6.778	3.822	6.769	7.667	12.028	9.087	10.763	8.662	5.770	14.752	9.918	-1.312	-2.599	-9.773	-11.673	-15.701	507.812
8.086	9.993	2.433	19.960	3.312	-0.269	-7.370	-4.381	-7.659	-14.902	-17.582	-14.127	-7.433	3.607	6.762	8.105	11.804	8.547	10.338	8.807	5.898	13.786	9.133	-1.772	-3.057	-9.695	-12.353	-16.037	511.719
8.743	11.287	3.622	20.689	4.006	0.962	-7.128	-3.991	-7.310	-14.560	-18.200	-14.868	-7.954	3.537	6.817	8.733	11.611	8.172	9.961	9.131	6.276	12.807	8.362	-2.439	-3.813	-10.136	-13.348	-16.715	515.625
9.578	12.814	4.682	21.423	4.851	2.217	-6.849	-3.698	-7.086	-14.291	-18.908	-15.735	-8.280	3.694	6.984	9.556	11.521	7.981	9.712	9.672	6.949	11.914	7.680	-3.304	-4.843	-11.203	-14.657	-17.763	519.531
10.521	14.499	5.532	22.136	5.813	3.361	-6.582	-3.618	-6.995	-14.144	-19.634	-16.685	-8.393	4.126	7.291	10.554	11.607	7.976	9.664	10.442	7.929	11.211	7.167	-4.328	-6.072	-12.887	-16.231	-19.165	523.438
11.479	16.227	6.118	22.795	6.830	4.268	-6.383	-3.841	-7.039	-14.165	-20.321	-17.676	-8.315	4.832	7.730	11.677	11.919	8.154	9.872	11.420	9.189	10.788	6.888	-5.440	-7.384	-15.054	-17.971	-20.851	527.344
12.351	17.849	6.414	23.364	7.820	4.834	-6.306	-4.405	-7.217	-14.388	-20.934	-18.666	-8.103	5.761	8.260	12.852	12.468	8.499	10.353	12.555	10.659	10.701	6.884	-6.542	-8.631	-17.454	-19.725	-22.692	531.250
13.056	19.209	6.429	23.812	8.690	4.995	-6.385	-5.289	-7.523	-14.822	-21.466	-19.615	-7.831	6.822	8.811	13.989	13.212	8.978	11.074	13.767	12.228	10.964	7.156	-7.531	-9.660	-19.772	-21.322	-24.520	535.156
13.546	20.179	6.212	24.127	9.360	4.749	-6.627	-6.413	-7.941	-15.443	-21.929	-20.484	-7.576	7.904	9.290	14.993	14.058	9.541	11.952	14.962	13.761	11.537	7.662	-8.311	-10.343	-21.692	-22.597	-26.150	539.062
13.815	20.690	5.850	24.320	9.774	4.152	-7.016	-7.661	-8.449	-16.198	-22.338	-21.245	-7.397	8.903	9.599	15.778	14.871	10.116	12.867	16.042	15.126	12.338	8.323	-8.809	-10.611	-22.964	-23.422	-27.411	542.969
13.892	20.754	5.463	24.432	9.910	3.316	-7.517	-8.912	-9.018	-17.013	-22.711	-21.870	-7.324	9.742	9.654	16.290	15.513	10.624	13.689	16.923	16.217	13.262	9.042	-8.983	-10.468	-23.458	-23.731	-28.175	546.875
13.834	20.463	5.178	24.518	9.789	2.386	-8.090	-10.065	-9.619	-17.812	-23.061	-22.345	-7.351	10.388	9.406	16.512	15.869	10.995	14.308	17.551	16.972	14.199	9.721	-8.825	-9.997	-23.188	-23.526	-28.384	550.781
13.707	19.968	5.100	24.636	9.460	1.515	-8.702	-11.061	-10.222	-18.533	-23.399	-22.664	-7.444	10.844	8.863	16.472	15.888	11.180	14.660	17.904	17.385	15.061	10.287	-8.360	-9.337	-22.309	-22.872	-28.061	554.688
13.571	19.443	5.291	24.819	8.998	0.836	-9.329	-11.880	-10.801	-19.141	-23.734	-22.836	-7.550	11.145	8.089	16.243	15.592	11.164	14.742	17.997	17.496	15.790	10.700	-7.637	-8.659	-21.081	-21.883	-27.309	558.594
13.469	19.042	5.754	25.072	8.490	0.444	-9.960	-12.534	-11.337	-19.636	-24.076	-22.880	-7.613	11.338	7.204	15.927	15.083	10.972	14.608	17.876	17.385	16.360	10.957	-6.729	-8.122	-19.807	-20.697	-26.293	562.500
13.420	18.866	6.432	25.365	8.020	0.386	-10.587	-13.051	-11.817	-20.043	-24.436	-22.828	-7.587	11.473	6.356	15.639	14.508	10.662	14.353	17.607	17.150	16.778	11.090	-5.723	-7.846	-18.772	-19.457	-25.214	566.406
13.417	18.946	7.222	25.648	7.664	0.662	-11.203	-13.462	-12.239	-20.402	-24.816	-22.720	-7.455	11.584	5.690	15.482	14.027	10.315	14.084	17.268	16.889	17.065	11.150	-4.714	-7.884	-18.183	-18.291	-24.269	570.312
13.442	19.244	8.009	25.872	7.477	1.231	-11.796	-13.790	-12.615	-20.755	-25.212	-22.601	-7.227	11.688	5.320	15.529	13.769	10.015	13.891	16.934	16.675	17.255	11.196	-3.804	-8.217	-18.128	-17.302	-23.619	574.219
13.467	19.680	8.695	26.007	7.491	2.024	-12.353	-14.044	-12.963	-21.136	-25.613	-22.515	-6.948	11.778	5.310	15.808	13.802	9.836	13.825	16.664	16.545	17.373	11.283	-3.092	-8.755	-18.567	-16.567	-23.361	578.125
13.477	20.158	9.230	26.055	7.708	2.965	-12.859	-14.225	-13.308	-21.571	-26.008	-22.501	-6.693	11.821	5.657	16.297	14.118	9.823	13.891	16.490	16.493	17.433	11.446	-2.669	-9.359	-19.357	-16.139	-23.522	582.031
13.472	20.600	9.629	26.056	8.102	3.979	-13.308	-14.328	-13.668	-22.078	-26.391	-22.589	-6.553	11.768	6.306	16.930	14.646	9.982	14.052	16.415	16.474	17.431	11.697	-2.610	-9.873	-20.293	-16.061	-24.061	585.938
13.474	20.967	9.961	26.073	8.622	5.001	-13.701	-14.353	-14.040	-22.676	-26.770	-22.802	-6.624	11.564	7.161	17.618	15.277	10.288	14.244	16.414	16.421	17.346	12.018	-2.962	-10.159	-21.171	-16.366	-24.893	589.844
13.532	21.265	10.327	26.173	9.199	5.981	-14.056	-14.312	-14.396	-23.381	-27.162	-23.150	-6.990	11.162	8.117	18.268	15.895	10.699	14.405	16.443	16.265	17.153	12.372	-3.737	-10.125	-21.837	-17.083	-25.916	593.750
13.701	21.532	10.818	26.404	9.756	6.878	-14.397	-14.229	-14.678	-24.209	-27.593	-23.634	-7.699	10.537	9.077	18.810	16.414	11.174	14.488	16.451	15.958	16.837	12.714	-4.905	-9.746	-22.217	-18.222	-27.031	597.656
14.036	21.814	11.484	26.773	10.220	7.653	-14.758	-14.140	-14.818	-25.165	-28.081	-24.243	-8.754	9.702	9.975	19.211	16.796	11.687	14.484	16.396	15.490	16.404	13.004	-6.387	-9.059	-22.324	-19.769	-28.165	601.562
14.563	22.146	12.304	27.240	10.527	8.273	-15.169	-14.086	-14.753	-26.232	-28.626	-24.956	-10.100	8.707	10.775	19.477	17.051	12.232	14.415	16.254	14.895	15.895	13.222	-8.053	-8.157	-22.231	-21.663	-29.263	605.469
15.272	22.529	13.194	27.723	10.637	8.706	-15.647	-14.111	-14.447	-27.371	-29.205	-25.733	-11.623	7.641	11.466	19.642	17.221	12.817	14.326	16.025	14.243	15.378	13.362	-9.732	-7.160	-22.032	-23.788	-30.283	609.375
16.103	22.924	14.012	28.115	10.536	8.922	-16.187	-14.253	-13.906	-28.512	-29.768	-26.519	-13.168	6.621	12.048	19.753	17.353	13.440	14.270	15.728	13.631	14.942	13.434	-11.227	-6.190	-21.801	-25.963	-31.176	613.281
16.952	23.250	14.595	28.315	10.238	8.901	-16.750	-14.534	-13.187	-29.562	-30.246	-27.240	-14.552	5.775	12.515	19.843	17.471	14.077	14.281	15.394	13.160	14.669	13.456	-12.335	-5.347	-21.554	-27.958	-31.880	617.188
17.689	23.398	14.794	28.249	9.788	8.637	-17.268	-14.948	-12.388	-30.407	-30.558	-27.815	-15.598	5.230	12.843	19.917	17.563	14.665	14.367	15.055	12.915	14.619	13.440	-12.880	-4.686	-21.245	-29.512	-32.314	621.094
18.174	23.259	14.508	27.893	9.251	8.143	-17.648	-15.464	-11.629	-30.927	-30.629	-28.158	-16.163	5.081	12.988	19.946	17.580	15.105	14.502	14.732	12.945	14.805	13.386	-12.745	-4.220	-20.783	-30.380	-32.395	625.000
18.295	22.745	13.712	27.277	8.707	7.452	-17.787	-16.030	-11.019	-31.006	-30.395	-28.191	-16.160	5.378	12.895	19.871	17.450	15.276	14.634	14.431	13.250	15.189	13.279	-11.898	-3.927	-20.076	-30.382	-32.053	628.906
17.981	21.823	12.472	26.481	8.230	6.620	-17.594	-16.585	-10.616	-30.541	-29.807	-27.851	-15.573	6.111	12.512	19.623	17.101	15.065	14.688	14.137	13.778	15.683	13.086	-10.405	-3.777	-19.069	-29.441	-31.256	632.812
17.227	20.526	10.931	25.610	7.879	5.717	-17.008	-17.066	-10.408	-29.463	-28.835	-27.098	-14.456	7.199	11.812	19.139	16.485	14.397	14.592	13.814	14.423	16.164	12.762	-8.431	-3.745	-17.780	-27.613	-30.026	636.719
16.100	18.956	9.288	24.783	7.689	4.824	-16.016	-17.416	-10.316	-27.756	-27.473	-25.930	-12.927	8.504	10.805	18.384	15.593	13.269	14.282	13.414	15.049	16.496	12.256	-6.220	-3.831	-16.313	-25.086	-28.444	640.625
14.728	17.271	7.760	24.102	7.661	4.025	-14.665	-17.585	-10.224	-25.490	-25.751	-24.390	-11.145	9.842	9.556	17.373	14.471	11.764	13.730	12.888	15.509	16.564	11.537	-4.060	-4.055	-14.843	-22.160	-26.654	644.531
13.296	15.660	6.551	23.648	7.769	3.403	-13.075	-17.540	-10.022	-22.841	-23.750	-22.582	-9.301	11.021	8.185	16.171	13.222	10.050	12.953	12.206	15.682	16.300	10.603	-2.246	-4.451	-13.595	-19.199	-24.853	648.438
12.016	14.318	5.823	23.467	7.972	3.030	-11.432	-17.280	-9.657	-20.106	-21.624	-20.676	-7.592	11.867	6.862	14.899	11.998	8.363	12.027	11.375	15.497	15.705	9.504	-1.029	-5.051	-12.806	-16.589	-23.274	652.344
11.105	13.421	5.687	23.579	8.223	2.968	-9.980	-16.844	-9.161	-17.688	-19.599	-18.904	-6.204	12.264	5.790	13.718	10.980	6.976	11.083	10.454	14.958	14.853	8.342	-0.580	-5.868	-12.682	-14.688	-22.165	656.250
10.754	13.106	6.197	23.979	8.486	3.253	-8.980	-16.311	-8.658	-16.046	-17.963	-17.543	-5.300	12.175	5.174	12.810	10.353	6.149	10.291	9.556	14.144	13.883	7.262	-0.964	-6.884	-13.362	-13.788	-21.764	660.156
11.096	13.450	7.345	24.647	8.746	3.892	-8.675	-15.798	-8.335	-15.626	-17.024	-16.876	-5.000	11.645	5.185	12.346	10.272	6.083	9.826	8.830	13.201	12.972	6.423	-2.134	-8.038	-14.889	-14.081	-22.261	664.062
12.181	14.462	9.058	25.553	9.008	4.852	-9.232	-15.438	-8.395	-16.759	-17.051	-17.142	-5.367	10.793	5.927	12.457	10.832	6.872	9.838	8.437	12.311	12.294	5.969	-3.938	-9.236	-17.189	-15.636	-23.765	667.969
13.960	16.072	11.202	26.648	9.291	6.053	-10.706	-15.351	-8.996	-19.575	-18.204	-18.474	-6.399	9.780	7.411	13.204	12.049	8.476	10.413	8.513	11.655	11.992	5.994	-6.152	-10.355	-20.068	-18.380	-26.265	671.875
16.278	18.128	13.584	27.859	9.605	7.377	-13.008	-15.614	-10.192	-23.931	-20.482	-20.855	-8.024	8.776	9.534	14.556	13.844	10.711	11.551	9.127	11.367	12.137	6.517	-8.510	-11.262	-23.234	-22.091	-29.610	675.781
18.888	20.406	15.967	29.077	9.938	8.668	-15.901	-16.234	-11.906	-29.393	-23.687	-24.086	-10.101	7.916	12.091	16.382	16.048	13.277	13.152	10.259	11.504	12.714	7.473	-10.744	-11.832	-26.321	-26.407	-33.500	679.688
21.480	22.628	18.095	30.151	10.237	9.757	-19.031	-17.135	-13.928	-35.268	-27.439	-27.798	-12.435	7.283	14.787	18.458	18.414	15.808	15.028	11.786	12.029	13.619	8.717	-12.620	-11.965	-28.943	-30.858	-37.510	683.594
23.723	24.496	19.719	30.906	10.416	10.485	-21.978	-18.164	-15.952	-40.707	-31.228	-31.494	-14.788	6.886	17.281	20.500	20.647	17.941	16.925	13.495	12.810	14.680	10.048	-13.960	-11.599	-30.745	-34.918	-41.136	687.500
25.311	25.736	20.633	31.167	10.365	10.725	-24.322	-19.123	-17.640	-44.845	-34.499	-34.626	-16.910	6.670	19.237	22.201	22.447	19.378	18.562	15.115	13.647	15.686	11.238	-14.661	-10.723	-31.457	-38.074	-43.870	691.406
26.010	26.139	20.702	30.802	9.985	10.405	-25.721	-19.809	-18.683	-46.953	-36.746	-36.688	-18.566	6.533	20.380	23.286	23.552	19.940	19.678	16.367	14.311	16.432	12.078	-14.702	-9.383	-30.938	-39.902	-45.283	695.312
25.700	25.602	19.885	29.761	9.207	9.522	-25.972	-20.057	-18.865	-46.587	-37.602	-37.307	-19.571	6.359	20.540	23.558	23.782	19.590	20.076	17.016	14.592	16.756	12.405	-14.134	-7.689	-29.193	-40.127	-45.095	699.219
24.395	24.142	18.247	28.100	8.026	8.143	-25.049	-19.777	-18.102	-43.678	-36.900	-36.310	-19.815	6.050	19.680	22.941	23.070	18.426	19.660	16.918	14.349	16.570	12.138	-13.073	-5.806	-26.384	-38.677	-43.236	703.125
22.244	21.904	15.954	25.989	6.503	6.401	-23.109	-18.973	-16.455	-38.556	-34.704	-33.762	-19.282	5.555	17.911	21.490	21.480	16.657	18.454	16.054	13.541	15.874	11.290	-11.686	-3.944	-22.803	-35.691	-39.864	707.031
19.519	19.141	13.253	23.684	4.764	4.478	-20.462	-17.738	-14.120	-31.898	-31.297	-29.961	-18.058	4.888	15.473	19.397	19.207	14.557	16.611	14.542	12.243	14.755	9.960	-10.167	-2.331	-18.841	-31.516	-35.351	710.938
16.571	16.172	10.438	21.486	2.984	2.585	-17.521	-16.237	-11.395	-24.610	-27.139	-25.392	-16.321	4.125	12.701	16.952	16.547	12.415	14.388	12.612	10.637	13.369	8.326	-8.718	-1.181	-14.940	-26.657	-30.234	714.844
13.786	13.332	7.811	19.677	1.350	0.928	-14.725	-14.664	-8.626	-17.673	-22.797	-20.653	-14.315	3.390	9.976	14.498	13.861	10.491	12.108	10.572	8.972	11.914	6.609	-7.521	-0.662	-11.546	-21.713	-25.141	718.750
11.523	10.927	5.638	18.472	0.036	-0.319	-12.469	-13.207	-6.159	-11.989	-18.865	-16.358	-12.313	2.830	7.667	12.376	11.513	8.990	10.109	8.748	7.528	10.596	5.041	-6.718	-0.862	-9.058	-17.294	-20.704	722.656
10.067	9.185	4.129	17.986	-0.822	-1.038	-11.042	-12.013	-4.295	-8.244	-15.875	-13.049	-10.570	2.581	6.077	10.866	9.810	8.044	8.677	7.423	6.556	9.597	3.833	-6.391	-1.784	-7.795	-13.934	-17.468	726.562
9.595	8.239	3.414	18.220	-1.145	-1.181	-10.593	-11.171	-3.248	-6.826	-14.224	-11.112	-9.283	2.742	5.400	10.148	8.952	7.717	7.999	6.797	6.242	9.047	3.143	-6.551	-3.341	-7.963	-12.019	-15.820	730.469
10.154	8.122	3.547	19.085	-0.914	-0.765	-11.110	-10.710	-3.132	-7.794	-14.119	-10.740	-8.560	3.354	5.703	10.279	9.003	8.014	8.135	6.956	6.676	9.010	3.059	-7.148	-5.381	-9.636	-11.736	-15.949	734.375
11.673	8.782	4.509	20.432	-0.160	0.144	-12.445	-10.613	-3.950	-10.898	-15.549	-11.908	-8.414	4.388	6.921	11.203	9.888	8.887	9.010	7.870	7.839	9.480	3.581	-8.084	-7.712	-12.748	-13.065	-17.829	738.281
13.982	10.104	6.220	22.085	1.046	1.455	-14.350	-10.830	-5.593	-15.646	-18.290	-14.402	-8.771	5.749	8.883	12.762	11.418	10.243	10.441	9.412	9.607	10.380	4.623	-9.242	-10.131	-17.091	-15.795	-21.240	742.188
16.845	11.936	8.548	23.874	2.604	3.067	-16.528	-11.288	-7.860	-21.396	-21.949	-17.861	-9.499	7.284	11.347	14.740	13.333	11.949	12.174	11.389	11.776	11.582	6.024	-10.511	-12.448	-22.327	-19.574	-25.807	746.094
19.993	14.100	11.316	25.650	4.394	4.878	-18.684	-11.903	-10.484	-27.449	-26.023	-21.836	-10.443	8.804	14.037	16.896	15.346	13.845	13.940	13.575	14.087	12.928	7.572	-11.797	-14.500	-28.009	-23.967	-31.054	750.000
23.143	16.402	14.304	27.287	6.280	6.777	-20.568	-12.585	-13.162	-33.140	-29.978	-25.860	-11.453	10.107	16.677	18.992	17.194	15.757	15.492	15.741	16.263	14.252	9.041	-13.032	-16.151	-33.618	-28.516	-36.461	753.906
26.024	18.637	17.260	28.683	8.108	8.633	-22.000	-13.239	-15.596	-37.901	-33.326	-29.499	-12.413	11.007	19.023	20.822	18.667	17.513	16.650	17.678	18.046	15.407	10.229	-14.161	-17.294	-38.607	-32.791	-41.517	757.812
28.387	20.594	19.912	29.755	9.712	10.294	-22.876	-13.775	-17.519	-41.306	-35.686	-32.400	-13.245	11.362	20.878	22.216	19.632	18.959	17.318	19.215	19.232	16.283	10.996	-15.132	-17.859	-42.471	-36.431	-45.774	761.719
30.021	22.074	21.985	30.437	10.928	11.589	-23.162	-14.105	-18.719	-43.094	-36.832	-34.319	-13.908	11.103	22.103	23.054	20.036	19.961	17.483	20.225	19.697	16.822	11.285	-15.884	-17.817	-44.807	-39.163	-48.882	765.625
30.776	22.913	23.228	30.681	11.606	12.341	-22.884	-14.155	-19.060	-43.174	-36.703	-35.131	-14.389	10.244	22.622	23.274	19.896	20.413	17.210	20.645	19.423	17.020	11.125	-16.352	-17.195	-45.374	-40.813	-50.624	769.531
30.570	23.003	23.439	30.457	11.638	12.394	-22.112	-13.868	-18.493	-41.616	-35.398	-34.833	-14.689	8.889	22.415	22.867	19.283	20.234	16.613	20.474	18.495	16.923	10.622	-16.474	-16.078	-44.116	-41.304	-50.931	773.438
29.406	22.308	22.490	29.761	10.968	11.633	-20.938	-13.213	-17.059	-38.620	-33.136	-33.525	-14.811	7.207	21.520	21.885	18.304	19.375	15.834	19.775	17.082	16.611	9.921	-16.202	-14.602	-41.156	-40.649	-49.877	777.344
27.366	20.866	20.351	28.616	9.610	10.015	-19.464	-12.194	-14.877	-34.475	-30.204	-31.385	-14.764	5.392	20.025	20.424	17.074	17.824	15.006	18.658	15.397	16.182	9.174	-15.518	-12.921	-36.759	-38.943	-47.659	781.250
24.601	18.786	17.103	27.079	7.641	7.578	-17.792	-10.851	-12.118	-29.512	-26.895	-28.635	-14.559	3.617	18.054	18.610	15.706	15.618	14.235	17.258	13.645	15.723	8.503	-14.444	-11.179	-31.270	-36.352	-44.557	785.156
21.311	16.224	12.940	25.235	5.194	4.456	-16.007	-9.253	-8.978	-24.055	-23.456	-25.506	-14.222	1.998	15.752	16.573	14.287	12.859	13.583	15.706	11.977	15.301	7.978	-13.042	-9.478	-25.064	-33.102	-40.883	789.062
17.715	13.366	8.153	23.191	2.440	0.856	-14.182	-7.488	-5.645	-18.389	-20.062	-22.213	-13.796	0.568	13.273	14.433	12.882	9.710	13.062	14.111	10.466	14.948	7.613	-11.412	-7.866	-18.500	-29.460	-36.941	792.969
14.032	10.410	3.101	21.072	-0.432	-2.958	-12.374	-5.655	-2.287	-12.750	-16.808	-18.937	-13.341	-0.711	10.760	12.291	11.528	6.390	12.648	12.548	9.110	14.669	7.378	-9.679	-6.343	-11.898	-25.711	-32.993	796.875
