FP1	F3	F7	FC3	C3	C5	P3	P7	PO7	PO3	O1	Oz	Pz	CPz	FP2	Fz	F4	F8	FC4	FCz	Cz	C4	C6	P4	P8	PO8	PO4	O2	time
-0.330	-1.826	-0.722	0.277	-0.083	-0.432	-0.183	-0.218	-0.765	-0.098	-0.025	-0.697	0.330	0.853	-0.224	-0.419	-0.252	0.692	0.311	0.367	0.803	0.994	0.981	0.873	-0.011	0.182	0.485	-0.251	-199.219
0.031	-1.306	-0.269	0.405	-0.014	-0.278	-0.598	-0.514	-1.409	-0.791	-0.561	-1.008	0.223	1.089	0.116	-0.032	0.224	0.792	0.780	0.744	1.196	1.258	1.169	0.657	-0.112	-0.516	-0.010	-0.766	-195.312
0.363	-0.829	0.134	0.518	0.033	-0.150	-0.991	-0.776	-1.972	-1.429	-1.034	-1.276	0.099	1.280	0.438	0.331	0.671	0.887	1.204	1.090	1.540	1.476	1.331	0.437	-0.211	-1.149	-0.472	-1.222	-191.406
0.643	-0.430	0.448	0.606	0.041	-0.064	-1.337	-0.972	-2.388	-1.966	-1.396	-1.467	-0.053	1.389	0.727	0.652	1.058	0.975	1.542	1.383	1.798	1.607	1.440	0.208	-0.306	-1.669	-0.874	-1.576	-187.500
0.858	-0.129	0.652	0.663	0.008	-0.025	-1.616	-1.084	-2.619	-2.369	-1.623	-1.562	-0.235	1.398	0.971	0.917	1.364	1.053	1.766	1.604	1.945	1.625	1.478	-0.032	-0.397	-2.042	-1.200	-1.804	-183.594
1.006	0.075	0.740	0.693	-0.059	-0.029	-1.816	-1.106	-2.666	-2.623	-1.719	-1.562	-0.441	1.305	1.164	1.121	1.578	1.124	1.861	1.751	1.976	1.521	1.437	-0.280	-0.478	-2.261	-1.443	-1.904	-179.688
1.093	0.199	0.724	0.705	-0.139	-0.056	-1.929	-1.045	-2.557	-2.735	-1.712	-1.485	-0.657	1.129	1.305	1.265	1.696	1.189	1.832	1.829	1.907	1.309	1.317	-0.530	-0.545	-2.338	-1.608	-1.895	-175.781
1.133	0.269	0.630	0.713	-0.206	-0.087	-1.960	-0.919	-2.345	-2.722	-1.642	-1.359	-0.861	0.905	1.397	1.356	1.727	1.245	1.697	1.852	1.766	1.015	1.130	-0.773	-0.593	-2.301	-1.706	-1.812	-171.875
1.146	0.315	0.489	0.728	-0.237	-0.099	-1.915	-0.757	-2.085	-2.615	-1.554	-1.217	-1.031	0.672	1.445	1.402	1.684	1.288	1.487	1.838	1.591	0.683	0.898	-0.997	-0.622	-2.190	-1.754	-1.697	-167.969
1.146	0.360	0.335	0.761	-0.213	-0.076	-1.808	-0.586	-1.825	-2.445	-1.481	-1.090	-1.145	0.466	1.453	1.414	1.583	1.307	1.239	1.804	1.417	0.358	0.648	-1.185	-0.635	-2.041	-1.768	-1.586	-164.062
1.146	0.421	0.196	0.813	-0.128	-0.012	-1.653	-0.435	-1.594	-2.242	-1.439	-0.995	-1.187	0.315	1.424	1.399	1.441	1.289	0.988	1.762	1.274	0.085	0.409	-1.322	-0.639	-1.889	-1.759	-1.504	-160.156
1.148	0.498	0.092	0.882	0.013	0.091	-1.466	-0.327	-1.406	-2.028	-1.429	-0.941	-1.151	0.233	1.357	1.361	1.272	1.221	0.765	1.717	1.178	-0.101	0.209	-1.394	-0.641	-1.754	-1.730	-1.458	-156.250
1.147	0.586	0.033	0.959	0.195	0.225	-1.258	-0.277	-1.253	-1.815	-1.435	-0.922	-1.042	0.220	1.250	1.300	1.087	1.096	0.588	1.663	1.132	-0.182	0.070	-1.388	-0.649	-1.641	-1.680	-1.442	-152.344
1.130	0.674	0.016	1.036	0.395	0.376	-1.042	-0.289	-1.125	-1.610	-1.437	-0.926	-0.872	0.262	1.103	1.214	0.893	0.913	0.465	1.594	1.126	-0.154	0.003	-1.301	-0.664	-1.542	-1.598	-1.434	-148.438
1.083	0.748	0.033	1.102	0.590	0.529	-0.827	-0.356	-1.008	-1.409	-1.417	-0.935	-0.664	0.339	0.917	1.102	0.694	0.683	0.393	1.497	1.143	-0.031	0.012	-1.135	-0.680	-1.438	-1.473	-1.407	-144.531
0.993	0.799	0.070	1.149	0.757	0.668	-0.621	-0.464	-0.893	-1.207	-1.361	-0.932	-0.442	0.426	0.694	0.963	0.492	0.423	0.358	1.364	1.162	0.161	0.086	-0.899	-0.687	-1.301	-1.291	-1.331	-140.625
0.855	0.818	0.109	1.170	0.878	0.781	-0.428	-0.588	-0.777	-0.998	-1.266	-0.904	-0.230	0.503	0.445	0.799	0.289	0.156	0.345	1.191	1.162	0.388	0.205	-0.611	-0.668	-1.106	-1.046	-1.185	-136.719
0.667	0.800	0.135	1.157	0.939	0.856	-0.250	-0.701	-0.662	-0.777	-1.133	-0.842	-0.047	0.550	0.181	0.614	0.085	-0.098	0.335	0.980	1.126	0.614	0.344	-0.295	-0.608	-0.838	-0.738	-0.958	-132.812
0.439	0.741	0.136	1.105	0.936	0.887	-0.087	-0.772	-0.549	-0.542	-0.968	-0.742	0.095	0.558	-0.084	0.414	-0.116	-0.321	0.312	0.736	1.046	0.802	0.473	0.022	-0.500	-0.495	-0.381	-0.651	-128.906
0.181	0.639	0.105	1.010	0.869	0.870	0.064	-0.776	-0.439	-0.296	-0.777	-0.603	0.196	0.527	-0.333	0.209	-0.310	-0.506	0.265	0.473	0.919	0.928	0.563	0.314	-0.343	-0.093	0.004	-0.284	-125.000
-0.088	0.492	0.038	0.870	0.746	0.808	0.205	-0.697	-0.332	-0.046	-0.563	-0.432	0.260	0.465	-0.551	0.008	-0.489	-0.653	0.190	0.205	0.754	0.975	0.594	0.558	-0.148	0.337	0.384	0.114	-121.094
-0.349	0.303	-0.056	0.687	0.583	0.707	0.338	-0.535	-0.228	0.192	-0.331	-0.237	0.297	0.387	-0.726	-0.178	-0.645	-0.766	0.088	-0.049	0.564	0.939	0.553	0.737	0.066	0.754	0.721	0.504	-117.188
-0.582	0.083	-0.166	0.469	0.400	0.580	0.458	-0.307	-0.128	0.400	-0.088	-0.033	0.320	0.311	-0.845	-0.338	-0.768	-0.852	-0.033	-0.273	0.370	0.828	0.441	0.842	0.277	1.113	0.978	0.841	-113.281
-0.766	-0.152	-0.269	0.230	0.216	0.441	0.557	-0.042	-0.036	0.558	0.156	0.164	0.335	0.256	-0.903	-0.461	-0.849	-0.913	-0.160	-0.451	0.192	0.656	0.269	0.872	0.458	1.370	1.123	1.088	-109.375
-0.886	-0.382	-0.344	-0.012	0.054	0.306	0.624	0.221	0.044	0.649	0.387	0.336	0.345	0.234	-0.899	-0.540	-0.880	-0.946	-0.281	-0.569	0.049	0.446	0.056	0.830	0.589	1.494	1.137	1.213	-105.469
-0.933	-0.582	-0.370	-0.235	-0.072	0.191	0.646	0.446	0.106	0.663	0.585	0.468	0.348	0.250	-0.837	-0.569	-0.860	-0.941	-0.381	-0.622	-0.048	0.221	-0.172	0.725	0.653	1.467	1.016	1.203	-101.562
-0.904	-0.732	-0.333	-0.418	-0.152	0.107	0.615	0.605	0.149	0.602	0.732	0.548	0.337	0.298	-0.727	-0.547	-0.788	-0.889	-0.448	-0.611	-0.096	0.003	-0.389	0.570	0.642	1.292	0.776	1.059	-97.656
-0.806	-0.815	-0.234	-0.546	-0.185	0.059	0.530	0.685	0.172	0.479	0.810	0.569	0.307	0.364	-0.581	-0.478	-0.671	-0.784	-0.475	-0.543	-0.102	-0.187	-0.572	0.381	0.557	0.989	0.446	0.802	-93.750
-0.654	-0.824	-0.083	-0.611	-0.179	0.046	0.398	0.685	0.177	0.319	0.813	0.535	0.254	0.427	-0.411	-0.370	-0.515	-0.625	-0.459	-0.430	-0.081	-0.335	-0.703	0.176	0.412	0.600	0.075	0.470	-89.844
-0.464	-0.760	0.096	-0.613	-0.147	0.056	0.235	0.619	0.169	0.148	0.741	0.456	0.182	0.463	-0.232	-0.234	-0.332	-0.422	-0.405	-0.293	-0.052	-0.434	-0.773	-0.022	0.226	0.178	-0.282	0.110	-85.938
-0.259	-0.634	0.276	-0.564	-0.106	0.074	0.064	0.503	0.153	-0.001	0.609	0.348	0.100	0.452	-0.054	-0.083	-0.134	-0.196	-0.322	-0.153	-0.034	-0.484	-0.781	-0.193	0.029	-0.215	-0.571	-0.223	-82.031
-0.059	-0.463	0.426	-0.479	-0.073	0.082	-0.090	0.356	0.134	-0.104	0.443	0.235	0.020	0.378	0.113	0.066	0.063	0.026	-0.226	-0.032	-0.046	-0.493	-0.736	-0.317	-0.150	-0.520	-0.746	-0.480	-78.125
0.114	-0.270	0.520	-0.381	-0.059	0.063	-0.201	0.195	0.121	-0.137	0.275	0.141	-0.042	0.237	0.257	0.197	0.244	0.214	-0.137	0.049	-0.101	-0.477	-0.654	-0.380	-0.281	-0.691	-0.775	-0.622	-74.219
0.240	-0.077	0.541	-0.291	-0.069	0.006	-0.249	0.036	0.124	-0.089	0.143	0.088	-0.073	0.035	0.368	0.293	0.391	0.341	-0.072	0.073	-0.205	-0.454	-0.553	-0.375	-0.344	-0.699	-0.652	-0.624	-70.312
0.301	0.091	0.480	-0.231	-0.100	-0.090	-0.220	-0.104	0.159	0.047	0.079	0.093	-0.066	-0.212	0.432	0.335	0.485	0.390	-0.050	0.027	-0.357	-0.444	-0.455	-0.308	-0.328	-0.541	-0.391	-0.484	-66.406
0.283	0.216	0.342	-0.214	-0.144	-0.222	-0.109	-0.202	0.245	0.268	0.108	0.165	-0.020	-0.482	0.436	0.312	0.511	0.355	-0.082	-0.093	-0.551	-0.463	-0.380	-0.189	-0.235	-0.236	-0.025	-0.216	-62.500
0.181	0.285	0.142	-0.250	-0.192	-0.377	0.081	-0.238	0.403	0.566	0.242	0.303	0.058	-0.750	0.370	0.213	0.454	0.244	-0.173	-0.284	-0.777	-0.523	-0.344	-0.039	-0.081	0.176	0.398	0.148	-58.594
-0.002	0.293	-0.099	-0.339	-0.236	-0.539	0.335	-0.192	0.646	0.922	0.477	0.498	0.154	-0.994	0.231	0.039	0.312	0.073	-0.318	-0.537	-1.023	-0.623	-0.353	0.121	0.110	0.644	0.826	0.566	-54.688
-0.249	0.245	-0.350	-0.475	-0.271	-0.692	0.630	-0.054	0.978	1.313	0.790	0.732	0.251	-1.199	0.026	-0.201	0.091	-0.134	-0.506	-0.834	-1.274	-0.758	-0.409	0.270	0.311	1.110	1.210	0.992	-50.781
-0.530	0.156	-0.582	-0.647	-0.298	-0.820	0.940	0.169	1.385	1.711	1.150	0.985	0.336	-1.356	-0.228	-0.487	-0.193	-0.350	-0.720	-1.150	-1.518	-0.910	-0.500	0.394	0.496	1.527	1.515	1.384	-46.875
-0.812	0.042	-0.767	-0.840	-0.321	-0.909	1.231	0.453	1.837	2.085	1.514	1.235	0.397	-1.462	-0.506	-0.793	-0.512	-0.550	-0.937	-1.463	-1.744	-1.060	-0.612	0.484	0.644	1.857	1.721	1.709	-42.969
-1.055	-0.073	-0.884	-1.036	-0.347	-0.952	1.477	0.758	2.286	2.404	1.841	1.459	0.434	-1.519	-0.778	-1.088	-0.835	-0.717	-1.135	-1.744	-1.941	-1.187	-0.726	0.540	0.745	2.079	1.822	1.944	-39.062
-1.229	-0.170	-0.922	-1.215	-0.379	-0.943	1.653	1.038	2.679	2.640	2.092	1.640	0.450	-1.532	-1.014	-1.341	-1.126	-0.837	-1.295	-1.973	-2.100	-1.272	-0.823	0.567	0.798	2.187	1.828	2.082	-35.156
-1.312	-0.233	-0.880	-1.355	-0.419	-0.881	1.747	1.249	2.967	2.772	2.241	1.760	0.454	-1.509	-1.187	-1.529	-1.354	-0.903	-1.402	-2.132	-2.216	-1.304	-0.889	0.570	0.804	2.186	1.755	2.122	-31.250
-1.299	-0.252	-0.765	-1.437	-0.462	-0.770	1.757	1.364	3.112	2.787	2.270	1.809	0.454	-1.458	-1.281	-1.634	-1.494	-0.917	-1.448	-2.210	-2.284	-1.281	-0.914	0.555	0.768	2.089	1.621	2.072	-27.344
-1.196	-0.225	-0.595	-1.444	-0.497	-0.618	1.694	1.379	3.099	2.683	2.181	1.781	0.456	-1.387	-1.287	-1.650	-1.533	-0.884	-1.435	-2.207	-2.304	-1.210	-0.900	0.520	0.693	1.911	1.441	1.941	-23.438
-1.022	-0.155	-0.388	-1.371	-0.514	-0.437	1.578	1.317	2.941	2.472	1.988	1.675	0.457	-1.307	-1.209	-1.582	-1.471	-0.818	-1.373	-2.130	-2.281	-1.110	-0.858	0.463	0.579	1.669	1.224	1.742	-19.531
-0.802	-0.054	-0.170	-1.220	-0.502	-0.240	1.435	1.217	2.671	2.180	1.720	1.499	0.454	-1.226	-1.062	-1.445	-1.321	-0.730	-1.277	-1.997	-2.222	-1.006	-0.807	0.378	0.431	1.384	0.977	1.489	-15.625
-0.562	0.064	0.039	-1.011	-0.456	-0.042	1.292	1.126	2.338	1.841	1.413	1.272	0.436	-1.153	-0.867	-1.262	-1.109	-0.637	-1.172	-1.830	-2.137	-0.927	-0.769	0.260	0.253	1.080	0.707	1.203	-11.719
-0.327	0.179	0.219	-0.774	-0.379	0.140	1.169	1.082	1.999	1.496	1.107	1.016	0.397	-1.095	-0.652	-1.059	-0.871	-0.552	-1.081	-1.659	-2.040	-0.897	-0.764	0.111	0.062	0.789	0.428	0.909	-7.812
-0.116	0.273	0.357	-0.548	-0.283	0.293	1.082	1.107	1.705	1.183	0.842	0.762	0.333	-1.059	-0.445	-0.864	-0.642	-0.487	-1.025	-1.508	-1.945	-0.933	-0.807	-0.063	-0.121	0.549	0.165	0.643	-3.906
0.058	0.327	0.445	-0.376	-0.186	0.402	1.036	1.198	1.498	0.938	0.646	0.543	0.248	-1.050	-0.269	-0.704	-0.457	-0.447	-1.015	-1.400	-1.867	-1.038	-0.900	-0.248	-0.267	0.395	-0.053	0.445	0.000
0.184	0.326	0.482	-0.292	-0.113	0.455	1.029	1.332	1.398	0.785	0.542	0.390	0.152	-1.073	-0.141	-0.597	-0.336	-0.437	-1.058	-1.351	-1.820	-1.205	-1.035	-0.424	-0.347	0.357	-0.191	0.350	3.906
0.259	0.262	0.471	-0.320	-0.086	0.447	1.053	1.472	1.411	0.738	0.545	0.332	0.058	-1.134	-0.070	-0.557	-0.294	-0.455	-1.146	-1.369	-1.816	-1.415	-1.193	-0.570	-0.341	0.449	-0.224	0.386	7.812
0.282	0.130	0.420	-0.465	-0.124	0.375	1.102	1.584	1.527	0.803	0.661	0.385	-0.017	-1.238	-0.054	-0.589	-0.330	-0.494	-1.271	-1.456	-1.865	-1.641	-1.350	-0.669	-0.239	0.666	-0.139	0.562	11.719
0.253	-0.068	0.337	-0.718	-0.236	0.244	1.173	1.644	1.726	0.975	0.893	0.559	-0.061	-1.386	-0.086	-0.693	-0.438	-0.547	-1.421	-1.609	-1.975	-1.858	-1.485	-0.706	-0.047	0.982	0.059	0.867	15.625
0.175	-0.322	0.231	-1.050	-0.418	0.068	1.266	1.642	1.984	1.246	1.237	0.848	-0.063	-1.578	-0.158	-0.864	-0.609	-0.605	-1.587	-1.824	-2.145	-2.046	-1.579	-0.679	0.217	1.357	0.342	1.271	19.531
0.052	-0.616	0.112	-1.425	-0.654	-0.136	1.384	1.588	2.277	1.600	1.679	1.231	-0.023	-1.809	-0.257	-1.091	-0.827	-0.659	-1.763	-2.089	-2.372	-2.193	-1.624	-0.591	0.521	1.748	0.670	1.727	23.438
-0.105	-0.930	-0.010	-1.797	-0.916	-0.347	1.531	1.500	2.580	2.013	2.191	1.673	0.054	-2.068	-0.375	-1.359	-1.079	-0.700	-1.945	-2.391	-2.641	-2.294	-1.623	-0.453	0.832	2.115	0.998	2.186	27.344
-0.281	-1.235	-0.125	-2.122	-1.169	-0.541	1.706	1.403	2.870	2.454	2.726	2.121	0.155	-2.335	-0.498	-1.641	-1.344	-0.726	-2.129	-2.707	-2.929	-2.352	-1.586	-0.281	1.116	2.429	1.282	2.597	31.250
-0.456	-1.500	-0.223	-2.362	-1.373	-0.700	1.901	1.317	3.124	2.876	3.213	2.509	0.262	-2.586	-0.614	-1.908	-1.600	-0.733	-2.302	-3.006	-3.205	-2.370	-1.527	-0.093	1.350	2.681	1.493	2.921	35.156
-0.603	-1.697	-0.293	-2.488	-1.494	-0.810	2.099	1.255	3.315	3.224	3.564	2.763	0.360	-2.793	-0.710	-2.124	-1.819	-0.723	-2.449	-3.253	-3.433	-2.353	-1.460	0.098	1.521	2.880	1.620	3.134	39.062
-0.701	-1.796	-0.329	-2.486	-1.508	-0.866	2.274	1.219	3.415	3.434	3.681	2.812	0.434	-2.931	-0.773	-2.255	-1.973	-0.698	-2.547	-3.412	-3.578	-2.301	-1.395	0.283	1.631	3.049	1.676	3.233	42.969
-0.732	-1.783	-0.329	-2.358	-1.408	-0.871	2.399	1.201	3.401	3.442	3.470	2.595	0.476	-2.978	-0.793	-2.276	-2.041	-0.659	-2.575	-3.454	-3.616	-2.212	-1.331	0.463	1.690	3.222	1.691	3.234	46.875
-0.690	-1.651	-0.295	-2.125	-1.207	-0.835	2.447	1.192	3.258	3.200	2.867	2.080	0.487	-2.926	-0.764	-2.177	-2.009	-0.607	-2.518	-3.369	-3.535	-2.084	-1.264	0.643	1.722	3.437	1.711	3.172	50.781
-0.581	-1.412	-0.233	-1.821	-0.934	-0.771	2.397	1.178	2.987	2.681	1.849	1.269	0.474	-2.780	-0.691	-1.968	-1.880	-0.540	-2.374	-3.164	-3.345	-1.918	-1.181	0.834	1.751	3.731	1.787	3.095	54.688
-0.427	-1.093	-0.151	-1.492	-0.633	-0.694	2.243	1.157	2.609	1.895	0.448	0.207	0.446	-2.560	-0.584	-1.683	-1.677	-0.454	-2.160	-2.875	-3.078	-1.723	-1.074	1.045	1.804	4.131	1.964	3.056	58.594
-0.255	-0.732	-0.059	-1.188	-0.356	-0.620	1.990	1.133	2.167	0.886	-1.245	-1.024	0.416	-2.302	-0.463	-1.371	-1.436	-0.346	-1.909	-2.555	-2.782	-1.518	-0.938	1.285	1.909	4.661	2.278	3.107	62.500
-0.103	-0.380	0.031	-0.958	-0.153	-0.567	1.655	1.115	1.719	-0.275	-3.095	-2.311	0.397	-2.047	-0.355	-1.094	-1.205	-0.215	-1.666	-2.271	-2.518	-1.327	-0.773	1.564	2.092	5.334	2.748	3.291	66.406
-0.007	-0.091	0.101	-0.844	-0.065	-0.554	1.263	1.118	1.332	-1.494	-4.939	-3.529	0.401	-1.836	-0.290	-0.913	-1.035	-0.066	-1.482	-2.088	-2.343	-1.179	-0.592	1.887	2.382	6.166	3.380	3.640	70.312
-0.002	0.086	0.128	-0.873	-0.117	-0.604	0.850	1.154	1.072	-2.674	-6.610	-4.559	0.441	-1.702	-0.297	-0.880	-0.973	0.088	-1.402	-2.061	-2.303	-1.099	-0.410	2.264	2.809	7.171	4.165	4.170	74.219
-0.118	0.106	0.080	-1.062	-0.317	-0.744	0.453	1.227	0.994	-3.719	-7.964	-5.302	0.529	-1.662	-0.404	-1.027	-1.052	0.224	-1.459	-2.223	-2.423	-1.103	-0.248	2.704	3.399	8.367	5.089	4.882	78.125
-0.379	-0.060	-0.078	-1.410	-0.653	-0.995	0.113	1.339	1.140	-4.544	-8.889	-5.692	0.681	-1.717	-0.630	-1.368	-1.290	0.309	-1.669	-2.583	-2.704	-1.202	-0.127	3.220	4.171	9.771	6.132	5.767	82.031
-0.796	-0.424	-0.378	-1.904	-1.097	-1.373	-0.128	1.485	1.531	-5.078	-9.323	-5.703	0.910	-1.852	-0.990	-1.896	-1.689	0.305	-2.030	-3.125	-3.126	-1.392	-0.067	3.818	5.130	11.389	7.270	6.808	85.938
-1.368	-0.981	-0.845	-2.518	-1.613	-1.879	-0.230	1.660	2.174	-5.270	-9.250	-5.347	1.222	-2.040	-1.484	-2.581	-2.235	0.178	-2.527	-3.814	-3.654	-1.662	-0.081	4.494	6.256	13.205	8.475	7.973	89.844
-2.078	-1.703	-1.485	-3.216	-2.158	-2.491	-0.161	1.865	3.055	-5.086	-8.702	-4.673	1.616	-2.254	-2.102	-3.382	-2.900	-0.094	-3.127	-4.600	-4.244	-1.996	-0.175	5.232	7.501	15.171	9.709	9.222	93.750
-2.897	-2.542	-2.276	-3.954	-2.689	-3.168	0.102	2.104	4.139	-4.522	-7.754	-3.760	2.081	-2.462	-2.820	-4.243	-3.644	-0.513	-3.789	-5.425	-4.849	-2.368	-0.342	5.998	8.789	17.194	10.921	10.492	97.656
-3.775	-3.433	-3.167	-4.682	-3.165	-3.847	0.559	2.389	5.370	-3.606	-6.512	-2.709	2.591	-2.641	-3.596	-5.099	-4.415	-1.053	-4.466	-6.225	-5.423	-2.752	-0.567	6.743	10.016	19.140	12.045	11.704	101.562
-4.651	-4.300	-4.083	-5.348	-3.548	-4.456	1.192	2.726	6.667	-2.399	-5.105	-1.633	3.116	-2.769	-4.374	-5.883	-5.154	-1.666	-5.103	-6.939	-5.923	-3.113	-0.824	7.409	11.066	20.845	13.000	12.761	105.469
-5.456	-5.063	-4.930	-5.901	-3.807	-4.922	1.959	3.115	7.929	-0.992	-3.666	-0.644	3.616	-2.835	-5.089	-6.527	-5.799	-2.285	-5.647	-7.507	-6.313	-3.420	-1.081	7.934	11.824	22.136	13.702	13.558	109.375
-6.118	-5.652	-5.618	-6.298	-3.922	-5.186	2.801	3.541	9.044	0.499	-2.325	0.162	4.056	-2.830	-5.677	-6.973	-6.292	-2.837	-6.048	-7.879	-6.563	-3.639	-1.306	8.266	12.199	22.862	14.075	14.001	113.281
-6.576	-6.012	-6.072	-6.511	-3.882	-5.214	3.646	3.980	9.909	1.956	-1.182	0.717	4.402	-2.755	-6.082	-7.181	-6.587	-3.256	-6.271	-8.024	-6.656	-3.745	-1.467	8.369	12.138	22.924	14.064	14.024	117.188
-6.791	-6.119	-6.249	-6.528	-3.692	-5.005	4.424	4.398	10.446	3.269	-0.303	0.992	4.632	-2.619	-6.269	-7.138	-6.662	-3.498	-6.299	-7.930	-6.589	-3.728	-1.546	8.232	11.640	22.299	13.654	13.608	121.094
-6.752	-5.977	-6.146	-6.356	-3.372	-4.590	5.072	4.765	10.622	4.358	0.293	1.001	4.731	-2.436	-6.233	-6.860	-6.520	-3.548	-6.137	-7.615	-6.379	-3.592	-1.537	7.867	10.756	21.044	12.866	12.788	125.000
-6.483	-5.623	-5.802	-6.025	-2.957	-4.026	5.552	5.064	10.461	5.183	0.635	0.799	4.699	-2.232	-6.000	-6.393	-6.198	-3.423	-5.818	-7.124	-6.060	-3.360	-1.452	7.311	9.583	19.297	11.769	11.652	128.906
-6.039	-5.122	-5.288	-5.581	-2.497	-3.393	5.850	5.297	10.043	5.755	0.795	0.478	4.541	-2.034	-5.623	-5.809	-5.759	-3.166	-5.399	-6.528	-5.684	-3.075	-1.321	6.616	8.249	17.256	10.466	10.337	132.812
-5.503	-4.562	-4.704	-5.086	-2.048	-2.775	5.983	5.488	9.501	6.132	0.879	0.148	4.276	-1.875	-5.181	-5.200	-5.286	-2.844	-4.951	-5.914	-5.312	-2.792	-1.187	5.846	6.891	15.156	9.085	9.012	136.719
-4.973	-4.037	-4.152	-4.608	-1.668	-2.254	5.993	5.677	8.998	6.410	1.007	-0.074	3.925	-1.786	-4.762	-4.662	-4.872	-2.533	-4.558	-5.375	-5.008	-2.573	-1.099	5.064	5.643	13.237	7.765	7.852	140.625
-4.545	-3.642	-3.724	-4.223	-1.412	-1.898	5.937	5.915	8.702	6.709	1.299	-0.085	3.509	-1.797	-4.453	-4.288	-4.606	-2.305	-4.299	-5.000	-4.834	-2.476	-1.107	4.327	4.614	11.715	6.633	7.017	144.531
-4.298	-3.450	-3.488	-3.997	-1.323	-1.751	5.878	6.252	8.760	7.148	1.852	0.188	3.049	-1.929	-4.326	-4.149	-4.555	-2.218	-4.240	-4.859	-4.836	-2.548	-1.249	3.680	3.885	10.752	5.793	6.629	148.438
-4.287	-3.511	-3.475	-3.983	-1.426	-1.834	5.876	6.721	9.275	7.824	2.727	0.779	2.558	-2.198	-4.426	-4.290	-4.757	-2.303	-4.421	-4.997	-5.045	-2.812	-1.542	3.148	3.496	10.443	5.308	6.753	152.344
-4.528	-3.838	-3.679	-4.208	-1.727	-2.137	5.973	7.336	10.288	8.799	3.939	1.677	2.044	-2.611	-4.768	-4.722	-5.212	-2.565	-4.850	-5.426	-5.469	-3.270	-1.985	2.738	3.454	10.800	5.194	7.389	156.250
-5.004	-4.409	-4.065	-4.672	-2.209	-2.630	6.195	8.085	11.775	10.091	5.460	2.830	1.512	-3.164	-5.329	-5.419	-5.886	-2.980	-5.502	-6.128	-6.098	-3.898	-2.552	2.445	3.730	11.762	5.427	8.479	160.156
-5.668	-5.175	-4.581	-5.344	-2.836	-3.266	6.545	8.929	13.659	11.668	7.219	4.159	0.967	-3.844	-6.064	-6.329	-6.713	-3.504	-6.325	-7.058	-6.901	-4.652	-3.198	2.249	4.270	13.209	5.946	9.919	164.062
-6.453	-6.065	-5.168	-6.168	-3.559	-3.991	7.013	9.815	15.813	13.461	9.117	5.569	0.422	-4.623	-6.907	-7.376	-7.613	-4.084	-7.247	-8.150	-7.833	-5.474	-3.869	2.132	5.005	14.985	6.669	11.576	167.969
-7.282	-6.999	-5.776	-7.072	-4.317	-4.751	7.570	10.677	18.087	15.367	11.039	6.962	-0.105	-5.459	-7.784	-8.475	-8.502	-4.670	-8.186	-9.323	-8.836	-6.303	-4.511	2.075	5.858	16.920	7.511	13.312	171.875
-8.084	-7.901	-6.368	-7.977	-5.051	-5.497	8.183	11.450	20.319	17.269	12.864	8.247	-0.586	-6.302	-8.627	-9.538	-9.307	-5.218	-9.065	-10.496	-9.842	-7.078	-5.073	2.073	6.754	18.853	8.396	14.996	175.781
-8.799	-8.702	-6.918	-8.810	-5.705	-6.191	8.813	12.073	22.352	19.042	14.480	9.352	-0.985	-7.088	-9.379	-10.491	-9.975	-5.699	-9.823	-11.589	-10.779	-7.748	-5.519	2.127	7.633	20.655	9.264	16.522	179.688
-9.386	-9.348	-7.411	-9.512	-6.233	-6.801	9.419	12.499	24.049	20.570	15.786	10.219	-1.266	-7.754	-9.999	-11.275	-10.476	-6.094	-10.414	-12.532	-11.579	-8.270	-5.823	2.249	8.445	22.229	10.080	17.813	183.594
-9.826	-9.805	-7.835	-10.044	-6.604	-7.306	9.962	12.699	25.299	21.753	16.706	10.812	-1.394	-8.242	-10.462	-11.852	-10.806	-6.394	-10.819	-13.274	-12.184	-8.616	-5.973	2.454	9.164	23.520	10.825	18.820	187.500
-10.119	-10.059	-8.183	-10.391	-6.800	-7.691	10.412	12.662	26.029	22.519	17.186	11.113	-1.347	-8.506	-10.763	-12.209	-10.978	-6.597	-11.032	-13.782	-12.553	-8.769	-5.966	2.759	9.780	24.506	11.497	19.521	191.406
-10.277	-10.111	-8.444	-10.558	-6.821	-7.946	10.744	12.396	26.208	22.825	17.209	11.121	-1.114	-8.519	-10.910	-12.351	-11.016	-6.702	-11.068	-14.046	-12.669	-8.724	-5.809	3.173	10.296	25.191	12.099	19.916	195.312
-10.323	-9.983	-8.612	-10.567	-6.680	-8.066	10.946	11.925	25.845	22.667	16.788	10.852	-0.699	-8.275	-10.919	-12.302	-10.944	-6.713	-10.948	-14.074	-12.539	-8.489	-5.513	3.695	10.727	25.598	12.637	20.022	199.219
-10.279	-9.707	-8.685	-10.447	-6.400	-8.055	11.020	11.289	24.990	22.073	15.970	10.336	-0.121	-7.794	-10.815	-12.100	-10.785	-6.635	-10.698	-13.894	-12.194	-8.080	-5.096	4.314	11.092	25.757	13.111	19.865	203.125
-10.167	-9.324	-8.670	-10.232	-6.012	-7.925	10.977	10.534	23.728	21.106	14.830	9.617	0.591	-7.112	-10.624	-11.787	-10.556	-6.480	-10.347	-13.549	-11.678	-7.523	-4.580	5.010	11.408	25.702	13.516	19.481	207.031
-10.007	-8.879	-8.582	-9.951	-5.548	-7.695	10.842	9.709	22.168	19.850	13.463	8.748	1.401	-6.280	-10.370	-11.408	-10.266	-6.263	-9.919	-13.086	-11.046	-6.851	-3.991	5.754	11.688	25.466	13.841	18.907	210.938
-9.811	-8.419	-8.443	-9.631	-5.044	-7.396	10.642	8.864	20.434	18.407	11.974	7.784	2.268	-5.354	-10.075	-11.004	-9.927	-6.004	-9.440	-12.556	-10.348	-6.102	-3.359	6.512	11.937	25.079	14.073	18.186	214.844
-9.595	-7.985	-8.281	-9.290	-4.529	-7.062	10.408	8.047	18.657	16.882	10.465	6.782	3.152	-4.390	-9.756	-10.610	-9.550	-5.726	-8.930	-12.003	-9.630	-5.313	-2.715	7.251	12.155	24.573	14.200	17.360	218.750
-9.372	-7.613	-8.122	-8.940	-4.027	-6.725	10.170	7.301	16.955	15.375	9.025	5.795	4.015	-3.437	-9.430	-10.249	-9.152	-5.453	-8.411	-11.466	-8.925	-4.523	-2.089	7.943	12.335	23.981	14.214	16.472	222.656
-9.159	-7.330	-7.990	-8.592	-3.558	-6.416	9.953	6.663	15.433	13.975	7.727	4.865	4.823	-2.534	-9.117	-9.941	-8.760	-5.208	-7.904	-10.972	-8.255	-3.766	-1.507	8.562	12.474	23.341	14.119	15.567	226.562
-8.974	-7.152	-7.901	-8.255	-3.134	-6.152	9.778	6.165	14.171	12.752	6.621	4.028	5.549	-1.713	-8.834	-9.697	-8.401	-5.012	-7.429	-10.545	-7.636	-3.074	-0.990	9.093	12.570	22.701	13.931	14.688	230.469
-8.839	-7.088	-7.866	-7.940	-2.764	-5.942	9.661	5.830	13.224	11.760	5.739	3.311	6.171	-0.995	-8.606	-9.524	-8.108	-4.881	-7.009	-10.199	-7.081	-2.473	-0.553	9.528	12.631	22.111	13.677	13.879	234.375
-8.778	-7.139	-7.891	-7.659	-2.454	-5.784	9.614	5.674	12.618	11.034	5.092	2.733	6.678	-0.395	-8.454	-9.430	-7.909	-4.830	-6.667	-9.949	-6.608	-1.984	-0.204	9.869	12.675	21.626	13.396	13.182	238.281
-8.810	-7.297	-7.976	-7.429	-2.208	-5.666	9.647	5.702	12.357	10.592	4.683	2.310	7.066	0.076	-8.402	-9.422	-7.826	-4.865	-6.424	-9.806	-6.233	-1.622	0.055	10.121	12.726	21.294	13.128	12.632	242.188
-8.950	-7.551	-8.117	-7.262	-2.026	-5.577	9.766	5.910	12.421	10.438	4.504	2.052	7.340	0.411	-8.465	-9.506	-7.868	-4.991	-6.298	-9.780	-5.978	-1.395	0.226	10.296	12.809	21.151	12.916	12.259	246.094
-9.204	-7.879	-8.307	-7.168	-1.909	-5.502	9.972	6.280	12.775	10.561	4.541	1.963	7.511	0.610	-8.650	-9.687	-8.034	-5.205	-6.299	-9.872	-5.861	-1.305	0.313	10.408	12.942	21.215	12.792	12.080	250.000
-9.564	-8.256	-8.533	-7.148	-1.853	-5.433	10.259	6.788	13.367	10.935	4.775	2.039	7.598	0.677	-8.952	-9.961	-8.310	-5.498	-6.427	-10.081	-5.890	-1.346	0.325	10.472	13.133	21.476	12.773	12.096	253.906
-10.015	-8.656	-8.780	-7.194	-1.850	-5.364	10.615	7.400	14.136	11.522	5.180	2.268	7.622	0.629	-9.354	-10.320	-8.672	-5.857	-6.671	-10.391	-6.060	-1.504	0.270	10.498	13.374	21.900	12.861	12.290	257.812
-10.533	-9.052	-9.034	-7.290	-1.889	-5.296	11.019	8.081	15.011	12.270	5.721	2.622	7.609	0.491	-9.829	-10.747	-9.091	-6.263	-7.007	-10.779	-6.349	-1.755	0.163	10.498	13.648	22.430	13.037	12.626	261.719
-11.093	-9.424	-9.285	-7.414	-1.956	-5.231	11.449	8.793	15.926	13.119	6.360	3.067	7.584	0.299	-10.346	-11.220	-9.536	-6.689	-7.400	-11.214	-6.715	-2.066	0.019	10.484	13.926	22.997	13.274	13.056	265.625
-11.672	-9.763	-9.531	-7.545	-2.037	-5.178	11.881	9.499	16.814	14.001	7.053	3.560	7.576	0.096	-10.874	-11.714	-9.978	-7.110	-7.811	-11.659	-7.108	-2.398	-0.142	10.467	14.183	23.530	13.538	13.525	269.531
-12.257	-10.072	-9.782	-7.669	-2.115	-5.145	12.297	10.166	17.621	14.851	7.754	4.059	7.615	-0.071	-11.388	-12.206	-10.397	-7.500	-8.200	-12.077	-7.466	-2.709	-0.301	10.464	14.396	23.974	13.801	13.982	273.438
-12.837	-10.369	-10.055	-7.776	-2.174	-5.143	12.684	10.762	18.303	15.613	8.421	4.524	7.729	-0.157	-11.870	-12.674	-10.776	-7.836	-8.532	-12.435	-7.736	-2.960	-0.434	10.495	14.557	24.289	14.047	14.383	277.344
-13.411	-10.676	-10.372	-7.869	-2.200	-5.176	13.036	11.261	18.832	16.240	9.012	4.924	7.944	-0.123	-12.313	-13.101	-11.106	-8.103	-8.780	-12.706	-7.873	-3.117	-0.524	10.581	14.666	24.462	14.274	14.703	281.250
-13.979	-11.013	-10.753	-7.952	-2.184	-5.246	13.353	11.641	19.189	16.704	9.492	5.239	8.275	0.054	-12.715	-13.475	-11.380	-8.293	-8.927	-12.871	-7.850	-3.156	-0.557	10.737	14.730	24.502	14.492	14.932	285.156
-14.539	-11.390	-11.205	-8.033	-2.117	-5.348	13.637	11.887	19.371	16.992	9.835	5.460	8.730	0.386	-13.077	-13.787	-11.591	-8.405	-8.967	-12.924	-7.662	-3.068	-0.527	10.973	14.763	24.430	14.716	15.071	289.062
-15.085	-11.803	-11.718	-8.117	-1.997	-5.467	13.893	11.993	19.383	17.106	10.026	5.584	9.298	0.864	-13.399	-14.026	-11.736	-8.443	-8.901	-12.866	-7.323	-2.857	-0.434	11.286	14.773	24.275	14.959	15.132	292.969
-15.606	-12.228	-12.262	-8.204	-1.825	-5.585	14.121	11.959	19.238	17.058	10.058	5.613	9.955	1.464	-13.677	-14.187	-11.805	-8.414	-8.739	-12.704	-6.866	-2.535	-0.286	11.663	14.768	24.060	15.224	15.125	296.875
-16.086	-12.631	-12.797	-8.284	-1.605	-5.681	14.317	11.797	18.957	16.868	9.937	5.551	10.659	2.148	-13.900	-14.261	-11.794	-8.326	-8.489	-12.450	-6.330	-2.124	-0.091	12.075	14.742	23.796	15.498	15.053	300.781
-16.502	-12.967	-13.270	-8.345	-1.345	-5.733	14.470	11.529	18.564	16.555	9.674	5.398	11.359	2.872	-14.056	-14.238	-11.693	-8.186	-8.161	-12.117	-5.758	-1.643	0.139	12.489	14.688	23.485	15.751	14.912	304.688
-16.830	-13.193	-13.634	-8.366	-1.056	-5.725	14.564	11.182	18.086	16.134	9.285	5.154	11.997	3.589	-14.129	-14.109	-11.500	-7.998	-7.760	-11.711	-5.186	-1.116	0.398	12.866	14.593	23.117	15.939	14.688	308.594
-17.048	-13.274	-13.849	-8.329	-0.747	-5.646	14.577	10.787	17.548	15.622	8.790	4.816	12.518	4.256	-14.108	-13.870	-11.214	-7.772	-7.294	-11.239	-4.639	-0.559	0.677	13.170	14.443	22.682	16.018	14.366	312.500
-17.138	-13.189	-13.896	-8.218	-0.432	-5.494	14.494	10.375	16.974	15.033	8.215	4.391	12.878	4.838	-13.989	-13.518	-10.842	-7.515	-6.771	-10.702	-4.133	0.009	0.969	13.371	14.231	22.171	15.950	13.937	316.406
-17.093	-12.934	-13.775	-8.024	-0.121	-5.275	14.304	9.976	16.384	14.389	7.588	3.893	13.046	5.311	-13.778	-13.062	-10.401	-7.243	-6.203	-10.106	-3.672	0.571	1.265	13.450	13.955	21.586	15.711	13.400	320.312
-16.921	-12.530	-13.505	-7.748	0.174	-5.003	14.010	9.612	15.797	13.719	6.946	3.348	13.014	5.661	-13.496	-12.518	-9.914	-6.971	-5.609	-9.458	-3.257	1.108	1.553	13.404	13.622	20.937	15.301	12.773	324.219
-16.643	-12.011	-13.124	-7.402	0.443	-4.697	13.631	9.301	15.232	13.067	6.336	2.798	12.796	5.884	-13.172	-11.916	-9.409	-6.720	-5.013	-8.775	-2.886	1.602	1.823	13.239	13.247	20.244	14.741	12.088	328.125
-16.294	-11.428	-12.676	-7.006	0.678	-4.378	13.201	9.055	14.711	12.485	5.807	2.289	12.422	5.987	-12.844	-11.288	-8.918	-6.510	-4.445	-8.080	-2.559	2.032	2.061	12.979	12.849	19.534	14.070	11.386	332.031
-15.918	-10.834	-12.211	-6.586	0.870	-4.063	12.761	8.879	14.255	12.030	5.411	1.869	11.939	5.981	-12.550	-10.673	-8.470	-6.360	-3.932	-7.405	-2.278	2.384	2.255	12.653	12.446	18.833	13.337	10.713	335.938
-15.562	-10.280	-11.774	-6.172	1.016	-3.771	12.358	8.777	13.886	11.749	5.189	1.576	11.400	5.886	-12.328	-10.107	-8.090	-6.282	-3.498	-6.779	-2.047	2.647	2.398	12.297	12.059	18.167	12.594	10.114	339.844
-15.266	-9.809	-11.400	-5.789	1.114	-3.511	12.033	8.750	13.623	11.674	5.161	1.430	10.857	5.727	-12.202	-9.617	-7.789	-6.278	-3.156	-6.232	-1.867	2.819	2.483	11.948	11.704	17.557	11.889	9.617	343.750
-15.063	-9.446	-11.114	-5.458	1.163	-3.291	11.813	8.794	13.474	11.804	5.321	1.429	10.357	5.531	-12.184	-9.218	-7.568	-6.343	-2.908	-5.780	-1.739	2.909	2.511	11.638	11.396	17.020	11.261	9.241	347.656
-14.970	-9.198	-10.924	-5.191	1.168	-3.111	11.708	8.901	13.438	12.109	5.632	1.544	9.934	5.328	-12.270	-8.911	-7.415	-6.459	-2.743	-5.429	-1.654	2.930	2.487	11.393	11.147	16.574	10.738	8.986	351.562
-14.985	-9.057	-10.828	-4.991	1.136	-2.969	11.707	9.058	13.505	12.527	6.032	1.727	9.608	5.148	-12.438	-8.683	-7.310	-6.608	-2.639	-5.170	-1.599	2.904	2.417	11.231	10.969	16.235	10.336	8.842	355.469
-15.096	-9.004	-10.812	-4.858	1.077	-2.861	11.788	9.245	13.658	12.982	6.443	1.920	9.387	5.017	-12.660	-8.514	-7.231	-6.769	-2.574	-4.986	-1.557	2.852	2.312	11.157	10.875	16.024	10.065	8.793	359.375
-15.279	-9.016	-10.858	-4.782	1.000	-2.783	11.917	9.442	13.877	13.392	6.787	2.068	9.265	4.951	-12.903	-8.384	-7.160	-6.933	-2.525	-4.854	-1.509	2.791	2.184	11.167	10.877	15.962	9.925	8.823	363.281
-15.505	-9.070	-10.940	-4.759	0.915	-2.729	12.058	9.631	14.143	13.689	7.000	2.132	9.231	4.958	-13.140	-8.275	-7.089	-7.094	-2.482	-4.757	-1.440	2.731	2.045	11.249	10.984	16.066	9.909	8.920	367.188
-15.747	-9.150	-11.037	-4.780	0.829	-2.694	12.180	9.797	14.434	13.823	7.039	2.092	9.270	5.036	-13.353	-8.181	-7.022	-7.253	-2.442	-4.682	-1.341	2.678	1.908	11.384	11.202	16.344	10.004	9.080	371.094
-15.981	-9.247	-11.127	-4.838	0.748	-2.669	12.258	9.934	14.733	13.771	6.889	1.951	9.363	5.176	-13.534	-8.105	-6.974	-7.411	-2.414	-4.628	-1.211	2.631	1.789	11.551	11.522	16.782	10.191	9.292	375.000
-16.188	-9.356	-11.195	-4.925	0.680	-2.647	12.275	10.044	15.016	13.534	6.565	1.730	9.494	5.363	-13.681	-8.057	-6.959	-7.563	-2.411	-4.598	-1.057	2.590	1.703	11.727	11.924	17.337	10.439	9.543	378.906
-16.349	-9.469	-11.226	-5.027	0.630	-2.614	12.224	10.134	15.255	13.127	6.098	1.458	9.645	5.581	-13.795	-8.045	-6.989	-7.694	-2.441	-4.596	-0.886	2.558	1.664	11.888	12.369	17.936	10.704	9.799	382.812
-16.451	-9.573	-11.211	-5.123	0.610	-2.558	12.101	10.214	15.416	12.580	5.535	1.163	9.794	5.814	-13.873	-8.072	-7.061	-7.780	-2.502	-4.622	-0.707	2.544	1.685	12.013	12.802	18.479	10.933	10.010	386.719
-16.476	-9.642	-11.135	-5.188	0.628	-2.461	11.909	10.291	15.464	11.925	4.921	0.860	9.918	6.045	-13.903	-8.127	-7.157	-7.794	-2.578	-4.666	-0.525	2.559	1.773	12.078	13.161	18.849	11.066	10.109	390.625
-16.409	-9.645	-10.988	-5.191	0.698	-2.312	11.650	10.365	15.373	11.196	4.299	0.550	9.990	6.261	-13.867	-8.183	-7.242	-7.709	-2.642	-4.709	-0.343	2.617	1.925	12.062	13.382	18.940	11.041	10.024	394.531
-16.235	-9.546	-10.759	-5.105	0.824	-2.101	11.326	10.430	15.128	10.426	3.700	0.223	9.985	6.446	-13.742	-8.207	-7.274	-7.510	-2.658	-4.725	-0.159	2.730	2.135	11.948	13.416	18.674	10.811	9.693	398.438
-15.947	-9.316	-10.442	-4.911	1.010	-1.829	10.944	10.474	14.735	9.645	3.144	-0.138	9.884	6.590	-13.509	-8.161	-7.214	-7.196	-2.594	-4.686	0.030	2.904	2.386	11.730	13.237	18.021	10.347	9.082	402.344
-15.548	-8.943	-10.039	-4.603	1.248	-1.503	10.511	10.483	14.220	8.879	2.639	-0.549	9.679	6.684	-13.160	-8.016	-7.035	-6.783	-2.429	-4.573	0.226	3.137	2.660	11.414	12.848	17.010	9.655	8.196	406.250
-15.053	-8.437	-9.562	-4.194	1.525	-1.139	10.040	10.447	13.620	8.146	2.181	-1.019	9.376	6.727	-12.699	-7.756	-6.728	-6.299	-2.159	-4.376	0.430	3.422	2.937	11.017	12.281	15.718	8.771	7.082	410.156
-14.485	-7.831	-9.028	-3.708	1.824	-0.756	9.543	10.361	12.974	7.457	1.759	-1.547	8.995	6.724	-12.146	-7.386	-6.307	-5.778	-1.798	-4.097	0.642	3.745	3.204	10.573	11.590	14.260	7.761	5.819	414.062
-13.874	-7.172	-8.457	-3.183	2.126	-0.375	9.037	10.225	12.318	6.811	1.357	-2.121	8.561	6.683	-11.532	-6.931	-5.802	-5.252	-1.373	-3.753	0.858	4.088	3.454	10.118	10.837	12.757	6.706	4.509	417.969
-13.249	-6.515	-7.869	-2.660	2.412	-0.012	8.536	10.046	11.673	6.205	0.960	-2.720	8.101	6.616	-10.893	-6.428	-5.253	-4.743	-0.922	-3.369	1.075	4.434	3.684	9.687	10.081	11.320	5.687	3.252	421.875
-12.635	-5.909	-7.280	-2.177	2.668	0.320	8.050	9.832	11.045	5.632	0.562	-3.315	7.640	6.533	-10.263	-5.918	-4.701	-4.267	-0.482	-2.970	1.286	4.764	3.895	9.302	9.366	10.025	4.776	2.132	425.781
-12.047	-5.388	-6.701	-1.767	2.886	0.614	7.587	9.595	10.431	5.092	0.165	-3.876	7.194	6.442	-9.669	-5.442	-4.184	-3.828	-0.083	-2.585	1.483	5.059	4.086	8.972	8.716	8.911	4.019	1.202	429.688
-11.490	-4.968	-6.142	-1.449	3.059	0.865	7.150	9.346	9.823	4.589	-0.215	-4.370	6.773	6.344	-9.126	-5.029	-3.728	-3.427	0.250	-2.234	1.657	5.302	4.255	8.687	8.134	7.977	3.432	0.481	433.594
-10.959	-4.644	-5.610	-1.227	3.187	1.072	6.741	9.093	9.206	4.129	-0.565	-4.777	6.383	6.240	-8.633	-4.692	-3.344	-3.060	0.508	-1.928	1.804	5.482	4.393	8.425	7.611	7.190	3.005	-0.050	437.500
-10.440	-4.395	-5.114	-1.088	3.271	1.236	6.353	8.841	8.567	3.712	-0.875	-5.088	6.023	6.131	-8.180	-4.427	-3.030	-2.721	0.694	-1.664	1.929	5.596	4.496	8.160	7.126	6.501	2.701	-0.436	441.406
-9.916	-4.188	-4.657	-1.007	3.320	1.359	5.979	8.588	7.889	3.329	-1.151	-5.317	5.695	6.023	-7.746	-4.211	-2.770	-2.402	0.826	-1.428	2.046	5.650	4.558	7.870	6.660	5.851	2.466	-0.742	445.312
-9.372	-3.988	-4.245	-0.946	3.345	1.447	5.608	8.326	7.159	2.957	-1.412	-5.492	5.401	5.931	-7.309	-4.010	-2.541	-2.094	0.930	-1.192	2.177	5.661	4.583	7.541	6.197	5.190	2.243	-1.038	449.219
-8.798	-3.761	-3.875	-0.866	3.359	1.509	5.233	8.045	6.370	2.566	-1.689	-5.655	5.144	5.869	-6.849	-3.787	-2.319	-1.788	1.033	-0.924	2.354	5.656	4.576	7.172	5.725	4.481	1.977	-1.385	453.125
-8.195	-3.488	-3.544	-0.735	3.377	1.557	4.847	7.739	5.524	2.133	-2.009	-5.845	4.927	5.856	-6.359	-3.511	-2.084	-1.481	1.163	-0.595	2.602	5.659	4.550	6.772	5.242	3.707	1.627	-1.826	457.031
-7.577	-3.164	-3.248	-0.532	3.409	1.601	4.453	7.407	4.645	1.648	-2.381	-6.087	4.750	5.902	-5.840	-3.166	-1.829	-1.174	1.332	-0.189	2.936	5.693	4.514	6.357	4.753	2.879	1.175	-2.373	460.938
-6.967	-2.801	-2.981	-0.256	3.459	1.646	4.062	7.059	3.773	1.127	-2.788	-6.381	4.610	6.005	-5.313	-2.756	-1.558	-0.878	1.543	0.291	3.354	5.766	4.477	5.944	4.269	2.026	0.624	-3.008	464.844
-6.396	-2.429	-2.746	0.071	3.521	1.689	3.689	6.715	2.968	0.609	-3.184	-6.695	4.499	6.149	-4.809	-2.305	-1.291	-0.610	1.783	0.823	3.830	5.876	4.444	5.550	3.809	1.199	0.005	-3.683	468.750
-5.900	-2.090	-2.549	0.407	3.582	1.717	3.356	6.403	2.296	0.155	-3.502	-6.977	4.408	6.306	-4.366	-1.852	-1.050	-0.392	2.027	1.365	4.322	6.007	4.413	5.190	3.394	0.458	-0.636	-4.331	472.656
-5.514	-1.826	-2.403	0.701	3.623	1.712	3.082	6.151	1.820	-0.172	-3.669	-7.158	4.324	6.442	-4.021	-1.444	-0.862	-0.248	2.248	1.869	4.773	6.134	4.382	4.876	3.053	-0.138	-1.243	-4.875	476.562
-5.265	-1.675	-2.324	0.898	3.626	1.654	2.881	5.979	1.582	-0.325	-3.630	-7.180	4.241	6.523	-3.803	-1.126	-0.748	-0.193	2.419	2.285	5.133	6.232	4.344	4.617	2.810	-0.538	-1.758	-5.246	480.469
-5.162	-1.658	-2.324	0.960	3.576	1.529	2.755	5.899	1.594	-0.283	-3.365	-7.006	4.153	6.527	-3.724	-0.932	-0.717	-0.231	2.518	2.572	5.361	6.282	4.295	4.421	2.685	-0.713	-2.137	-5.399	484.375
-5.197	-1.776	-2.406	0.873	3.469	1.335	2.696	5.907	1.833	-0.062	-2.898	-6.640	4.057	6.444	-3.775	-0.875	-0.768	-0.355	2.539	2.713	5.438	6.272	4.235	4.291	2.689	-0.662	-2.357	-5.320	488.281
-5.341	-2.002	-2.560	0.653	3.315	1.085	2.684	5.988	2.247	0.287	-2.296	-6.130	3.952	6.283	-3.929	-0.949	-0.884	-0.541	2.485	2.710	5.374	6.204	4.163	4.226	2.814	-0.413	-2.422	-5.036	492.188
-5.546	-2.294	-2.762	0.345	3.133	0.806	2.694	6.118	2.764	0.692	-1.656	-5.557	3.837	6.065	-4.142	-1.124	-1.040	-0.760	2.373	2.589	5.197	6.087	4.083	4.213	3.038	-0.021	-2.362	-4.606	496.094
-5.755	-2.595	-2.980	0.015	2.947	0.534	2.703	6.274	3.313	1.079	-1.079	-5.019	3.704	5.813	-4.361	-1.357	-1.207	-0.977	2.224	2.387	4.949	5.941	3.999	4.233	3.322	0.441	-2.231	-4.114	500.000
-5.915	-2.855	-3.178	-0.272	2.780	0.304	2.694	6.437	3.838	1.392	-0.648	-4.606	3.545	5.550	-4.538	-1.604	-1.359	-1.158	2.061	2.148	4.674	5.784	3.916	4.255	3.621	0.892	-2.095	-3.652	503.906
-5.982	-3.031	-3.325	-0.461	2.647	0.143	2.660	6.596	4.306	1.606	-0.407	-4.382	3.345	5.283	-4.630	-1.825	-1.474	-1.276	1.904	1.908	4.403	5.633	3.835	4.247	3.889	1.261	-2.019	-3.301	507.812
-5.934	-3.104	-3.400	-0.524	2.551	0.067	2.600	6.745	4.711	1.726	-0.353	-4.364	3.087	5.008	-4.613	-1.995	-1.540	-1.312	1.767	1.692	4.152	5.497	3.761	4.176	4.088	1.489	-2.058	-3.117	511.719
-5.767	-3.073	-3.389	-0.459	2.481	0.073	2.519	6.888	5.062	1.784	-0.442	-4.530	2.754	4.704	-4.478	-2.102	-1.552	-1.256	1.656	1.508	3.918	5.380	3.694	4.016	4.196	1.543	-2.245	-3.126	515.625
-5.497	-2.950	-3.287	-0.286	2.418	0.152	2.418	7.023	5.376	1.820	-0.607	-4.823	2.333	4.345	-4.232	-2.152	-1.513	-1.107	1.575	1.350	3.685	5.279	3.639	3.752	4.205	1.415	-2.589	-3.323	519.531
-5.150	-2.755	-3.090	-0.036	2.344	0.287	2.294	7.145	5.657	1.858	-0.784	-5.172	1.818	3.909	-3.894	-2.154	-1.428	-0.871	1.528	1.209	3.431	5.190	3.599	3.386	4.124	1.119	-3.076	-3.679	523.438
-4.752	-2.506	-2.794	0.260	2.244	0.461	2.130	7.241	5.890	1.893	-0.932	-5.518	1.211	3.387	-3.489	-2.117	-1.297	-0.560	1.520	1.080	3.145	5.112	3.586	2.932	3.974	0.686	-3.676	-4.152	527.344
-4.321	-2.211	-2.395	0.583	2.121	0.667	1.903	7.287	6.037	1.886	-1.049	-5.827	0.524	2.792	-3.042	-2.040	-1.118	-0.185	1.563	0.967	2.829	5.049	3.611	2.419	3.781	0.152	-4.344	-4.698	531.250
-3.864	-1.867	-1.889	0.930	1.992	0.902	1.588	7.255	6.040	1.768	-1.169	-6.099	-0.220	2.158	-2.574	-1.915	-0.883	0.243	1.671	0.889	2.506	5.013	3.688	1.883	3.573	-0.441	-5.035	-5.282	535.156
-3.377	-1.467	-1.284	1.306	1.883	1.170	1.164	7.113	5.839	1.463	-1.354	-6.367	-0.988	1.541	-2.101	-1.723	-0.581	0.712	1.857	0.875	2.216	5.019	3.829	1.364	3.373	-1.058	-5.705	-5.877	539.062
-2.852	-1.001	-0.597	1.723	1.827	1.476	0.626	6.839	5.382	0.907	-1.670	-6.681	-1.737	1.003	-1.637	-1.446	-0.209	1.208	2.132	0.958	2.006	5.084	4.037	0.902	3.196	-1.670	-6.315	-6.466	542.969
-2.285	-0.467	0.139	2.184	1.853	1.821	-0.011	6.421	4.649	0.078	-2.168	-7.085	-2.421	0.607	-1.190	-1.071	0.231	1.714	2.491	1.160	1.921	5.218	4.308	0.529	3.047	-2.253	-6.830	-7.034	546.875
-1.684	0.120	0.877	2.682	1.973	2.199	-0.709	5.865	3.657	-0.995	-2.866	-7.607	-2.992	0.399	-0.770	-0.605	0.721	2.206	2.918	1.488	1.991	5.423	4.625	0.274	2.927	-2.788	-7.223	-7.566	550.781
-1.071	0.734	1.567	3.189	2.183	2.591	-1.416	5.195	2.463	-2.228	-3.741	-8.238	-3.408	0.402	-0.390	-0.069	1.228	2.655	3.378	1.924	2.225	5.686	4.958	0.150	2.828	-3.259	-7.476	-8.042	554.688
-0.481	1.331	2.159	3.665	2.457	2.967	-2.066	4.452	1.160	-3.496	-4.728	-8.933	-3.636	0.608	-0.061	0.492	1.712	3.030	3.827	2.430	2.602	5.981	5.275	0.161	2.742	-3.655	-7.581	-8.442	558.594
0.045	1.862	2.618	4.061	2.757	3.296	-2.601	3.688	-0.140	-4.657	-5.732	-9.620	-3.661	0.982	0.204	1.026	2.124	3.304	4.215	2.948	3.078	6.274	5.543	0.293	2.661	-3.974	-7.542	-8.749	562.500
0.474	2.280	2.929	4.334	3.037	3.546	-2.975	2.964	-1.325	-5.582	-6.644	-10.215	-3.490	1.467	0.396	1.475	2.424	3.457	4.500	3.415	3.591	6.526	5.734	0.519	2.579	-4.220	-7.380	-8.954	566.406
0.786	2.553	3.101	4.452	3.259	3.693	-3.168	2.335	-2.303	-6.180	-7.367	-10.642	-3.150	1.992	0.515	1.793	2.585	3.484	4.650	3.770	4.074	6.707	5.838	0.801	2.491	-4.409	-7.132	-9.061	570.312
0.981	2.666	3.163	4.410	3.392	3.732	-3.190	1.849	-3.017	-6.424	-7.832	-10.854	-2.692	2.485	0.571	1.953	2.602	3.399	4.657	3.974	4.464	6.794	5.858	1.093	2.397	-4.564	-6.844	-9.089	574.219
1.083	2.630	3.161	4.225	3.425	3.673	-3.082	1.532	-3.456	-6.349	-8.017	-10.844	-2.181	2.885	0.585	1.955	2.495	3.231	4.535	4.012	4.720	6.785	5.815	1.351	2.295	-4.711	-6.573	-9.074	578.125
1.130	2.475	3.147	3.940	3.364	3.543	-2.909	1.388	-3.656	-6.054	-7.952	-10.650	-1.690	3.147	0.592	1.826	2.308	3.031	4.322	3.894	4.820	6.694	5.739	1.533	2.188	-4.881	-6.375	-9.059	582.031
1.172	2.251	3.171	3.613	3.227	3.381	-2.750	1.390	-3.694	-5.679	-7.713	-10.342	-1.288	3.254	0.632	1.616	2.101	2.854	4.070	3.661	4.772	6.551	5.669	1.614	2.075	-5.095	-6.297	-9.088	585.938
1.253	2.014	3.268	3.305	3.043	3.228	-2.685	1.491	-3.664	-5.372	-7.408	-10.011	-1.032	3.212	0.744	1.386	1.937	2.759	3.842	3.368	4.609	6.397	5.640	1.581	1.956	-5.370	-6.375	-9.198	589.844
1.409	1.817	3.458	3.073	2.841	3.121	-2.778	1.626	-3.665	-5.266	-7.150	-9.747	-0.957	3.047	0.961	1.198	1.875	2.795	3.692	3.078	4.377	6.274	5.679	1.435	1.831	-5.712	-6.621	-9.410	593.750
1.655	1.703	3.742	2.960	2.647	3.088	-3.065	1.731	-3.772	-5.447	-7.035	-9.620	-1.072	2.801	1.298	1.103	1.951	2.993	3.662	2.845	4.128	6.213	5.800	1.193	1.700	-6.117	-7.032	-9.730	597.656
1.992	1.699	4.103	2.983	2.481	3.141	-3.550	1.753	-4.027	-5.938	-7.122	-9.665	-1.361	2.517	1.751	1.126	2.177	3.359	3.767	2.706	3.905	6.232	5.999	0.877	1.563	-6.576	-7.584	-10.147	601.562
2.401	1.809	4.513	3.139	2.351	3.276	-4.200	1.666	-4.431	-6.703	-7.420	-9.881	-1.790	2.236	2.296	1.269	2.536	3.872	3.999	2.674	3.737	6.328	6.257	0.515	1.420	-7.074	-8.242	-10.638	605.469
2.854	2.018	4.941	3.401	2.256	3.478	-4.955	1.475	-4.943	-7.652	-7.892	-10.231	-2.308	1.981	2.893	1.507	2.987	4.490	4.320	2.734	3.628	6.477	6.545	0.135	1.274	-7.595	-8.960	-11.170	609.375
3.319	2.296	5.356	3.723	2.187	3.718	-5.739	1.212	-5.498	-8.664	-8.463	-10.651	-2.865	1.762	3.493	1.796	3.474	5.156	4.677	2.849	3.563	6.642	6.826	-0.238	1.129	-8.117	-9.690	-11.706	613.281
3.761	2.600	5.732	4.053	2.129	3.963	-6.474	0.932	-6.017	-9.615	-9.037	-11.067	-3.409	1.571	4.047	2.078	3.936	5.804	5.010	2.969	3.510	6.782	7.066	-0.582	0.997	-8.617	-10.380	-12.208	617.188
4.151	2.882	6.053	4.336	2.063	4.175	-7.092	0.693	-6.428	-10.393	-9.517	-11.402	-3.901	1.390	4.512	2.299	4.317	6.375	5.264	3.039	3.430	6.859	7.237	-0.880	0.893	-9.063	-10.986	-12.635	621.094
4.465	3.095	6.307	4.522	1.969	4.317	-7.548	0.547	-6.680	-10.923	-9.821	-11.597	-4.310	1.197	4.860	2.411	4.575	6.823	5.397	3.015	3.287	6.851	7.326	-1.115	0.838	-9.421	-11.463	-12.953	625.000
4.682	3.201	6.486	4.576	1.835	4.358	-7.821	0.523	-6.748	-11.173	-9.900	-11.612	-4.619	0.972	5.074	2.382	4.690	7.120	5.389	2.867	3.058	6.748	7.331	-1.274	0.852	-9.651	-11.775	-13.125	628.906
4.788	3.174	6.582	4.477	1.649	4.280	-7.917	0.624	-6.639	-11.149	-9.740	-11.435	-4.820	0.708	5.152	2.198	4.656	7.263	5.243	2.585	2.735	6.560	7.266	-1.351	0.954	-9.714	-11.894	-13.123	632.812
4.775	3.000	6.588	4.228	1.413	4.077	-7.860	0.828	-6.386	-10.890	-9.366	-11.075	-4.913	0.410	5.102	1.867	4.487	7.264	4.982	2.180	2.331	6.309	7.150	-1.341	1.156	-9.576	-11.802	-12.926	636.719
4.641	2.686	6.501	3.848	1.133	3.760	-7.687	1.086	-6.044	-10.458	-8.831	-10.565	-4.902	0.095	4.941	1.412	4.211	7.152	4.642	1.679	1.874	6.021	7.006	-1.248	1.459	-9.217	-11.494	-12.523	640.625
4.392	2.253	6.319	3.376	0.824	3.353	-7.439	1.342	-5.679	-9.921	-8.209	-9.949	-4.790	-0.207	4.689	0.870	3.863	6.964	4.268	1.120	1.405	5.726	6.859	-1.080	1.849	-8.636	-10.981	-11.920	644.531
4.048	1.737	6.050	2.859	0.507	2.893	-7.157	1.533	-5.358	-9.351	-7.578	-9.281	-4.586	-0.461	4.376	0.288	3.486	6.742	3.905	0.550	0.968	5.450	6.727	-0.849	2.300	-7.859	-10.288	-11.145	648.438
3.635	1.186	5.705	2.352	0.204	2.421	-6.876	1.612	-5.138	-8.812	-7.011	-8.617	-4.297	-0.633	4.031	-0.281	3.122	6.524	3.593	0.016	0.604	5.215	6.624	-0.576	2.773	-6.940	-9.459	-10.245	652.344
3.189	0.653	5.305	1.909	-0.062	1.975	-6.625	1.548	-5.058	-8.356	-6.564	-8.011	-3.937	-0.698	3.688	-0.784	2.812	6.344	3.362	-0.434	0.349	5.035	6.556	-0.280	3.218	-5.962	-8.554	-9.293	656.250
2.755	0.190	4.880	1.575	-0.274	1.589	-6.424	1.337	-5.133	-8.025	-6.272	-7.508	-3.522	-0.642	3.385	-1.172	2.588	6.225	3.231	-0.763	0.225	4.917	6.524	0.012	3.583	-5.031	-7.649	-8.377	660.156
2.376	-0.157	4.464	1.384	-0.415	1.287	-6.287	1.000	-5.352	-7.845	-6.145	-7.146	-3.076	-0.470	3.157	-1.408	2.474	6.179	3.206	-0.942	0.240	4.864	6.525	0.271	3.815	-4.263	-6.826	-7.598	664.062
2.095	-0.355	4.093	1.353	-0.479	1.078	-6.222	0.583	-5.684	-7.827	-6.172	-6.947	-2.629	-0.202	3.035	-1.470	2.483	6.207	3.281	-0.956	0.386	4.872	6.550	0.467	3.872	-3.772	-6.168	-7.049	667.969
1.947	-0.388	3.806	1.484	-0.464	0.967	-6.231	0.140	-6.082	-7.968	-6.328	-6.922	-2.211	0.131	3.044	-1.353	2.614	6.301	3.443	-0.808	0.641	4.933	6.590	0.573	3.729	-3.646	-5.749	-6.810	671.875
1.955	-0.255	3.633	1.757	-0.375	0.944	-6.316	-0.270	-6.493	-8.250	-6.576	-7.061	-1.859	0.489	3.195	-1.073	2.851	6.447	3.669	-0.517	0.971	5.038	6.638	0.566	3.379	-3.932	-5.621	-6.925	675.781
2.125	0.024	3.596	2.139	-0.227	0.998	-6.471	-0.594	-6.867	-8.645	-6.876	-7.340	-1.602	0.826	3.481	-0.666	3.167	6.633	3.933	-0.121	1.333	5.170	6.686	0.432	2.845	-4.624	-5.805	-7.395	679.688
2.446	0.414	3.699	2.578	-0.043	1.112	-6.689	-0.795	-7.158	-9.113	-7.185	-7.717	-1.466	1.101	3.878	-0.182	3.527	6.847	4.207	0.330	1.678	5.312	6.727	0.174	2.173	-5.654	-6.283	-8.170	683.594
2.885	0.868	3.927	3.019	0.146	1.265	-6.957	-0.854	-7.332	-9.608	-7.463	-8.136	-1.468	1.276	4.348	0.316	3.887	7.082	4.460	0.773	1.957	5.446	6.757	-0.191	1.435	-6.904	-7.002	-9.154	687.500
3.391	1.328	4.247	3.403	0.302	1.436	-7.260	-0.774	-7.372	-10.082	-7.674	-8.534	-1.612	1.323	4.840	0.768	4.205	7.333	4.669	1.148	2.127	5.553	6.773	-0.629	0.712	-8.215	-7.873	-10.219	691.406
3.906	1.735	4.613	3.679	0.391	1.601	-7.581	-0.575	-7.275	-10.490	-7.791	-8.850	-1.889	1.226	5.301	1.122	4.449	7.595	4.815	1.403	2.159	5.620	6.775	-1.095	0.090	-9.419	-8.788	-11.219	695.312
4.371	2.037	4.973	3.812	0.380	1.737	-7.902	-0.296	-7.056	-10.803	-7.801	-9.037	-2.276	0.985	5.685	1.342	4.601	7.862	4.892	1.508	2.038	5.640	6.770	-1.539	-0.360	-10.366	-9.635	-12.025	699.219
4.734	2.200	5.281	3.794	0.254	1.824	-8.208	0.011	-6.755	-11.008	-7.710	-9.068	-2.737	0.617	5.959	1.421	4.660	8.124	4.907	1.457	1.777	5.618	6.764	-1.915	-0.591	-10.945	-10.316	-12.536	703.125
4.964	2.213	5.504	3.639	0.016	1.851	-8.488	0.291	-6.425	-11.112	-7.546	-8.944	-3.225	0.158	6.108	1.375	4.643	8.366	4.879	1.277	1.408	5.564	6.767	-2.184	-0.589	-11.106	-10.761	-12.705	707.031
5.050	2.091	5.625	3.387	-0.312	1.816	-8.736	0.487	-6.131	-11.140	-7.353	-8.693	-3.687	-0.345	6.136	1.239	4.577	8.571	4.833	1.012	0.981	5.496	6.787	-2.320	-0.375	-10.863	-10.931	-12.535	710.938
5.001	1.872	5.643	3.091	-0.689	1.728	-8.943	0.554	-5.933	-11.122	-7.183	-8.360	-4.071	-0.834	6.061	1.060	4.491	8.720	4.791	0.718	0.555	5.433	6.828	-2.314	0.003	-10.281	-10.825	-12.077	714.844
4.838	1.603	5.571	2.808	-1.064	1.604	-9.102	0.468	-5.873	-11.089	-7.082	-7.996	-4.330	-1.255	5.907	0.883	4.409	8.797	4.772	0.451	0.184	5.392	6.884	-2.170	0.479	-9.466	-10.469	-11.414	718.750
4.591	1.335	5.424	2.585	-1.389	1.461	-9.202	0.232	-5.963	-11.056	-7.075	-7.647	-4.428	-1.560	5.697	0.740	4.336	8.791	4.778	0.249	-0.090	5.379	6.945	-1.904	0.981	-8.535	-9.908	-10.641	722.656
4.288	1.103	5.221	2.453	-1.624	1.313	-9.228	-0.123	-6.175	-11.021	-7.163	-7.344	-4.345	-1.717	5.451	0.644	4.266	8.695	4.800	0.130	-0.243	5.395	6.993	-1.542	1.445	-7.604	-9.200	-9.849	726.562
3.951	0.929	4.977	2.417	-1.751	1.169	-9.163	-0.546	-6.452	-10.966	-7.322	-7.102	-4.079	-1.712	5.177	0.592	4.179	8.513	4.819	0.091	-0.274	5.429	7.013	-1.114	1.820	-6.763	-8.403	-9.112	730.469
3.595	0.809	4.701	2.464	-1.768	1.027	-8.994	-0.971	-6.718	-10.858	-7.505	-6.914	-3.646	-1.549	4.877	0.564	4.052	8.254	4.812	0.112	-0.194	5.470	6.990	-0.650	2.077	-6.073	-7.572	-8.477	734.375
3.231	0.724	4.402	2.564	-1.696	0.885	-8.715	-1.333	-6.898	-10.665	-7.660	-6.764	-3.078	-1.250	4.548	0.534	3.867	7.937	4.760	0.163	-0.030	5.503	6.921	-0.177	2.208	-5.558	-6.757	-7.962	738.281
2.864	0.643	4.086	2.679	-1.567	0.735	-8.334	-1.587	-6.939	-10.365	-7.741	-6.631	-2.423	-0.845	4.188	0.477	3.618	7.588	4.657	0.219	0.194	5.520	6.811	0.280	2.226	-5.213	-5.998	-7.566	742.188
2.499	0.535	3.761	2.772	-1.416	0.575	-7.876	-1.707	-6.820	-9.960	-7.720	-6.497	-1.736	-0.375	3.801	0.375	3.317	7.238	4.508	0.258	0.454	5.518	6.675	0.703	2.157	-5.006	-5.330	-7.268	746.094
2.142	0.376	3.437	2.812	-1.278	0.408	-7.383	-1.698	-6.565	-9.475	-7.593	-6.350	-1.077	0.119	3.396	0.221	2.988	6.917	4.332	0.273	0.731	5.502	6.534	1.078	2.039	-4.894	-4.779	-7.040	750.000
1.805	0.159	3.130	2.784	-1.178	0.244	-6.903	-1.590	-6.228	-8.957	-7.378	-6.188	-0.499	0.597	2.994	0.021	2.670	6.657	4.158	0.265	1.013	5.479	6.408	1.394	1.910	-4.831	-4.360	-6.855	753.906
1.501	-0.108	2.858	2.687	-1.127	0.098	-6.491	-1.428	-5.883	-8.467	-7.113	-6.019	-0.046	1.023	2.620	-0.207	2.400	6.480	4.014	0.245	1.290	5.458	6.314	1.646	1.804	-4.785	-4.084	-6.696	757.812
1.245	-0.397	2.642	2.540	-1.125	-0.017	-6.191	-1.262	-5.608	-8.066	-6.841	-5.858	0.255	1.371	2.306	-0.438	2.216	6.397	3.927	0.226	1.555	5.448	6.265	1.826	1.740	-4.742	-3.952	-6.559	761.719
1.056	-0.668	2.502	2.371	-1.161	-0.088	-6.033	-1.136	-5.463	-7.806	-6.605	-5.723	0.394	1.625	2.083	-0.639	2.140	6.409	3.912	0.225	1.801	5.454	6.261	1.932	1.722	-4.716	-3.961	-6.459	765.625
0.950	-0.879	2.455	2.220	-1.213	-0.110	-6.028	-1.082	-5.484	-7.721	-6.436	-5.633	0.381	1.780	1.979	-0.776	2.181	6.503	3.974	0.257	2.019	5.480	6.298	1.961	1.737	-4.737	-4.105	-6.425	769.531
0.944	-0.988	2.511	2.127	-1.262	-0.083	-6.168	-1.117	-5.678	-7.821	-6.349	-5.605	0.236	1.842	2.020	-0.820	2.335	6.656	4.109	0.333	2.203	5.526	6.367	1.916	1.759	-4.853	-4.374	-6.494	773.438
1.047	-0.966	2.676	2.130	-1.288	-0.016	-6.429	-1.241	-6.027	-8.097	-6.343	-5.651	-0.009	1.829	2.218	-0.747	2.582	6.840	4.300	0.462	2.351	5.589	6.454	1.799	1.758	-5.112	-4.761	-6.703	777.344
1.263	-0.799	2.946	2.253	-1.276	0.080	-6.782	-1.443	-6.497	-8.523	-6.404	-5.776	-0.322	1.762	2.574	-0.546	2.900	7.028	4.529	0.648	2.462	5.667	6.550	1.620	1.708	-5.551	-5.254	-7.078	781.250
1.586	-0.489	3.312	2.504	-1.221	0.191	-7.193	-1.707	-7.046	-9.063	-6.511	-5.975	-0.674	1.664	3.075	-0.220	3.260	7.199	4.777	0.889	2.542	5.757	6.645	1.387	1.589	-6.185	-5.842	-7.627	785.156
2.000	-0.059	3.755	2.872	-1.124	0.309	-7.633	-2.011	-7.633	-9.677	-6.641	-6.236	-1.041	1.556	3.696	0.214	3.641	7.344	5.029	1.176	2.599	5.855	6.735	1.116	1.397	-7.001	-6.505	-8.334	789.062
2.477	0.455	4.253	3.329	-0.995	0.424	-8.078	-2.337	-8.227	-10.328	-6.776	-6.541	-1.404	1.453	4.396	0.723	4.024	7.459	5.276	1.497	2.643	5.956	6.817	0.820	1.144	-7.960	-7.220	-9.161	792.969
2.983	1.008	4.772	3.830	-0.847	0.533	-8.511	-2.665	-8.807	-10.982	-6.901	-6.864	-1.755	1.362	5.130	1.268	4.398	7.554	5.513	1.833	2.685	6.058	6.892	0.517	0.851	-8.997	-7.957	-10.051	796.875
