FP1	F3	F7	FC3	C3	C5	P3	P7	PO7	PO3	O1	Oz	Pz	CPz	FP2	Fz	F4	F8	FC4	FCz	Cz	C4	C6	P4	P8	PO8	PO4	O2	time
1.439	0.698	-0.030	0.591	1.256	0.642	-1.618	-1.583	-3.988	-2.865	-2.677	-1.895	-0.250	2.109	1.348	2.116	1.936	2.268	2.007	2.566	2.943	2.096	1.053	-0.219	-1.249	-3.692	-3.141	-3.118	-199.219
1.000	0.464	-0.103	0.371	0.926	0.469	-1.152	-1.255	-2.990	-2.187	-2.193	-1.587	0.109	2.193	1.041	1.746	1.583	1.561	1.751	2.332	2.840	1.864	0.858	0.013	-1.114	-3.080	-2.413	-2.616	-195.312
0.603	0.239	-0.177	0.149	0.612	0.293	-0.732	-0.934	-2.053	-1.550	-1.724	-1.292	0.422	2.245	0.748	1.386	1.244	0.903	1.495	2.098	2.721	1.636	0.666	0.230	-0.977	-2.493	-1.738	-2.140	-191.406
0.281	0.033	-0.247	-0.068	0.333	0.121	-0.394	-0.632	-1.234	-0.992	-1.288	-1.023	0.651	2.242	0.480	1.047	0.927	0.337	1.240	1.868	2.572	1.415	0.482	0.420	-0.835	-1.951	-1.157	-1.708	-187.500
0.050	-0.144	-0.304	-0.267	0.104	-0.038	-0.162	-0.364	-0.573	-0.540	-0.901	-0.785	0.774	2.172	0.247	0.734	0.640	-0.108	0.988	1.638	2.385	1.206	0.312	0.573	-0.687	-1.463	-0.695	-1.333	-183.594
-0.091	-0.289	-0.341	-0.436	-0.066	-0.166	-0.043	-0.147	-0.096	-0.211	-0.578	-0.584	0.783	2.031	0.051	0.450	0.384	-0.409	0.740	1.406	2.158	1.013	0.162	0.684	-0.529	-1.030	-0.361	-1.020	-179.688
-0.155	-0.401	-0.352	-0.562	-0.173	-0.247	-0.030	0.008	0.194	-0.005	-0.329	-0.419	0.690	1.826	-0.107	0.196	0.156	-0.565	0.500	1.170	1.892	0.841	0.040	0.752	-0.357	-0.648	-0.142	-0.766	-175.781
-0.169	-0.484	-0.334	-0.636	-0.222	-0.267	-0.097	0.092	0.312	0.091	-0.159	-0.285	0.519	1.572	-0.227	-0.029	-0.045	-0.586	0.274	0.930	1.595	0.693	-0.047	0.776	-0.173	-0.307	-0.013	-0.558	-171.875
-0.161	-0.544	-0.291	-0.652	-0.222	-0.219	-0.214	0.104	0.290	0.096	-0.068	-0.174	0.303	1.288	-0.312	-0.224	-0.218	-0.501	0.070	0.687	1.280	0.573	-0.094	0.763	0.018	-0.001	0.058	-0.381	-167.969
-0.153	-0.586	-0.228	-0.609	-0.188	-0.108	-0.350	0.053	0.167	0.036	-0.046	-0.081	0.078	0.994	-0.362	-0.387	-0.359	-0.348	-0.102	0.451	0.963	0.479	-0.101	0.718	0.207	0.272	0.105	-0.220	-164.062
-0.160	-0.608	-0.152	-0.508	-0.138	0.050	-0.476	-0.045	-0.018	-0.067	-0.082	-0.002	-0.124	0.709	-0.378	-0.513	-0.463	-0.169	-0.234	0.230	0.661	0.410	-0.069	0.647	0.383	0.509	0.152	-0.064	-160.156
-0.182	-0.608	-0.069	-0.359	-0.085	0.234	-0.578	-0.169	-0.227	-0.198	-0.164	0.064	-0.282	0.447	-0.362	-0.595	-0.522	-0.002	-0.320	0.037	0.388	0.360	-0.007	0.557	0.533	0.701	0.211	0.089	-156.250
-0.210	-0.578	0.015	-0.177	-0.044	0.414	-0.649	-0.298	-0.433	-0.345	-0.275	0.111	-0.385	0.214	-0.315	-0.631	-0.536	0.126	-0.359	-0.119	0.157	0.322	0.074	0.453	0.650	0.839	0.280	0.236	-152.344
-0.229	-0.509	0.099	0.020	-0.022	0.564	-0.696	-0.412	-0.615	-0.504	-0.403	0.132	-0.439	0.013	-0.240	-0.620	-0.505	0.203	-0.356	-0.229	-0.029	0.288	0.160	0.339	0.730	0.914	0.342	0.362	-148.438
-0.221	-0.395	0.181	0.207	-0.022	0.666	-0.730	-0.503	-0.763	-0.673	-0.535	0.120	-0.455	-0.156	-0.144	-0.565	-0.437	0.236	-0.321	-0.292	-0.169	0.253	0.238	0.220	0.771	0.922	0.376	0.452	-144.531
-0.173	-0.238	0.265	0.363	-0.040	0.709	-0.763	-0.567	-0.874	-0.850	-0.661	0.068	-0.449	-0.296	-0.031	-0.471	-0.342	0.240	-0.262	-0.307	-0.265	0.215	0.298	0.100	0.776	0.861	0.357	0.485	-140.625
-0.079	-0.043	0.350	0.469	-0.070	0.694	-0.805	-0.610	-0.950	-1.029	-0.774	-0.025	-0.436	-0.404	0.095	-0.344	-0.230	0.239	-0.189	-0.278	-0.319	0.177	0.337	-0.015	0.747	0.733	0.267	0.449	-136.719
0.057	0.173	0.435	0.517	-0.103	0.628	-0.858	-0.645	-0.997	-1.201	-0.869	-0.153	-0.425	-0.476	0.230	-0.192	-0.110	0.254	-0.106	-0.210	-0.333	0.145	0.356	-0.120	0.688	0.544	0.098	0.336	-132.812
0.222	0.389	0.512	0.506	-0.129	0.525	-0.917	-0.680	-1.024	-1.350	-0.945	-0.305	-0.416	-0.502	0.370	-0.021	0.014	0.302	-0.015	-0.107	-0.304	0.127	0.362	-0.208	0.597	0.302	-0.140	0.151	-128.906
0.397	0.581	0.573	0.446	-0.140	0.402	-0.968	-0.722	-1.036	-1.458	-1.001	-0.461	-0.401	-0.473	0.511	0.160	0.138	0.383	0.084	0.021	-0.231	0.129	0.363	-0.278	0.472	0.021	-0.426	-0.089	-125.000
0.560	0.726	0.602	0.353	-0.131	0.273	-0.993	-0.768	-1.037	-1.507	-1.038	-0.601	-0.369	-0.384	0.643	0.343	0.262	0.487	0.190	0.166	-0.116	0.151	0.365	-0.329	0.311	-0.284	-0.728	-0.356	-121.094
0.688	0.806	0.589	0.248	-0.101	0.149	-0.973	-0.808	-1.022	-1.477	-1.052	-0.698	-0.309	-0.236	0.758	0.513	0.381	0.594	0.297	0.313	0.032	0.187	0.368	-0.363	0.115	-0.589	-1.005	-0.615	-117.188
0.766	0.811	0.521	0.147	-0.057	0.035	-0.891	-0.823	-0.979	-1.357	-1.035	-0.733	-0.214	-0.040	0.840	0.656	0.489	0.678	0.394	0.447	0.200	0.226	0.369	-0.382	-0.107	-0.866	-1.216	-0.825	-113.281
0.781	0.743	0.394	0.059	-0.008	-0.068	-0.741	-0.794	-0.891	-1.143	-0.978	-0.691	-0.086	0.183	0.873	0.755	0.572	0.714	0.465	0.550	0.365	0.251	0.358	-0.387	-0.341	-1.082	-1.327	-0.950	-109.375
0.730	0.613	0.213	-0.014	0.032	-0.165	-0.526	-0.704	-0.739	-0.843	-0.867	-0.569	0.065	0.404	0.843	0.798	0.618	0.685	0.494	0.608	0.503	0.243	0.324	-0.379	-0.561	-1.206	-1.313	-0.960	-105.469
0.616	0.444	-0.011	-0.074	0.051	-0.261	-0.259	-0.543	-0.510	-0.474	-0.692	-0.374	0.220	0.592	0.740	0.775	0.610	0.583	0.467	0.609	0.589	0.189	0.259	-0.354	-0.740	-1.207	-1.166	-0.843	-101.562
0.448	0.258	-0.257	-0.130	0.038	-0.363	0.038	-0.316	-0.200	-0.065	-0.451	-0.125	0.361	0.720	0.566	0.684	0.536	0.415	0.375	0.548	0.607	0.081	0.158	-0.310	-0.850	-1.072	-0.896	-0.603	-97.656
0.242	0.078	-0.501	-0.186	-0.010	-0.472	0.338	-0.039	0.181	0.354	-0.150	0.150	0.466	0.768	0.329	0.532	0.395	0.198	0.220	0.429	0.552	-0.081	0.021	-0.246	-0.868	-0.800	-0.529	-0.265	-93.750
0.018	-0.080	-0.717	-0.243	-0.089	-0.589	0.614	0.261	0.606	0.746	0.193	0.419	0.523	0.732	0.052	0.333	0.193	-0.044	0.014	0.262	0.427	-0.286	-0.143	-0.166	-0.785	-0.413	-0.106	0.129	-89.844
-0.206	-0.206	-0.882	-0.301	-0.188	-0.709	0.846	0.550	1.034	1.083	0.547	0.653	0.527	0.618	-0.236	0.109	-0.052	-0.284	-0.222	0.063	0.251	-0.515	-0.320	-0.073	-0.605	0.048	0.325	0.531	-85.938
-0.410	-0.300	-0.983	-0.352	-0.290	-0.825	1.019	0.791	1.419	1.341	0.880	0.828	0.483	0.446	-0.503	-0.116	-0.313	-0.495	-0.462	-0.148	0.048	-0.741	-0.492	0.022	-0.345	0.530	0.717	0.887	-82.031
-0.578	-0.366	-1.012	-0.391	-0.378	-0.927	1.129	0.953	1.713	1.508	1.158	0.931	0.404	0.244	-0.720	-0.317	-0.560	-0.657	-0.678	-0.349	-0.155	-0.938	-0.638	0.111	-0.036	0.975	1.031	1.157	-78.125
-0.699	-0.407	-0.974	-0.412	-0.434	-1.002	1.179	1.015	1.882	1.584	1.357	0.958	0.310	0.037	-0.864	-0.475	-0.765	-0.755	-0.847	-0.524	-0.336	-1.079	-0.741	0.186	0.285	1.332	1.244	1.316	-74.219
-0.767	-0.428	-0.880	-0.412	-0.448	-1.039	1.179	0.974	1.907	1.581	1.463	0.919	0.217	-0.150	-0.925	-0.579	-0.908	-0.788	-0.954	-0.661	-0.481	-1.148	-0.786	0.240	0.580	1.567	1.349	1.359	-70.312
-0.781	-0.430	-0.748	-0.392	-0.417	-1.026	1.141	0.842	1.795	1.520	1.479	0.834	0.141	-0.305	-0.907	-0.628	-0.979	-0.759	-0.995	-0.758	-0.585	-1.137	-0.769	0.270	0.815	1.666	1.357	1.302	-66.406
-0.748	-0.412	-0.596	-0.356	-0.347	-0.958	1.080	0.648	1.573	1.425	1.421	0.725	0.091	-0.426	-0.828	-0.629	-0.979	-0.684	-0.973	-0.818	-0.659	-1.053	-0.689	0.276	0.967	1.638	1.292	1.178	-62.500
-0.680	-0.372	-0.442	-0.308	-0.251	-0.834	1.006	0.430	1.282	1.321	1.313	0.617	0.066	-0.522	-0.710	-0.597	-0.919	-0.582	-0.904	-0.852	-0.718	-0.911	-0.556	0.261	1.024	1.511	1.182	1.027	-58.594
-0.591	-0.310	-0.298	-0.254	-0.147	-0.660	0.928	0.231	0.972	1.225	1.184	0.533	0.059	-0.609	-0.581	-0.549	-0.815	-0.472	-0.803	-0.872	-0.782	-0.738	-0.389	0.227	0.989	1.325	1.056	0.890	-54.688
-0.495	-0.229	-0.169	-0.199	-0.054	-0.448	0.849	0.089	0.690	1.146	1.059	0.485	0.058	-0.707	-0.465	-0.500	-0.684	-0.372	-0.688	-0.888	-0.871	-0.560	-0.208	0.176	0.873	1.117	0.937	0.794	-50.781
-0.404	-0.132	-0.053	-0.144	0.016	-0.213	0.768	0.029	0.472	1.080	0.952	0.474	0.048	-0.830	-0.375	-0.461	-0.541	-0.290	-0.569	-0.909	-0.995	-0.405	-0.039	0.109	0.698	0.918	0.834	0.751	-46.875
-0.325	-0.030	0.055	-0.086	0.056	0.027	0.680	0.061	0.336	1.015	0.871	0.491	0.015	-0.986	-0.314	-0.436	-0.397	-0.227	-0.453	-0.934	-1.153	-0.291	0.098	0.025	0.487	0.745	0.750	0.755	-42.969
-0.256	0.070	0.163	-0.021	0.070	0.252	0.583	0.175	0.284	0.936	0.813	0.519	-0.047	-1.172	-0.275	-0.423	-0.255	-0.180	-0.341	-0.962	-1.334	-0.231	0.185	-0.077	0.265	0.599	0.676	0.781	-39.062
-0.193	0.158	0.276	0.056	0.067	0.444	0.479	0.351	0.305	0.833	0.771	0.536	-0.139	-1.374	-0.245	-0.413	-0.120	-0.143	-0.232	-0.984	-1.520	-0.225	0.214	-0.197	0.049	0.469	0.600	0.798	-35.156
-0.126	0.228	0.396	0.145	0.060	0.585	0.376	0.561	0.377	0.706	0.742	0.526	-0.250	-1.573	-0.209	-0.399	0.008	-0.116	-0.129	-0.997	-1.688	-0.269	0.183	-0.333	-0.146	0.340	0.514	0.775	-31.250
-0.050	0.274	0.516	0.243	0.063	0.662	0.287	0.770	0.480	0.571	0.728	0.485	-0.361	-1.747	-0.158	-0.373	0.122	-0.099	-0.039	-0.995	-1.819	-0.355	0.093	-0.475	-0.312	0.201	0.416	0.698	-27.344
0.036	0.293	0.623	0.339	0.082	0.665	0.232	0.952	0.595	0.457	0.737	0.421	-0.450	-1.876	-0.095	-0.337	0.213	-0.102	0.025	-0.982	-1.901	-0.475	-0.049	-0.610	-0.443	0.055	0.317	0.573	-23.438
0.122	0.277	0.701	0.416	0.116	0.591	0.231	1.083	0.713	0.400	0.786	0.354	-0.494	-1.950	-0.031	-0.296	0.267	-0.138	0.045	-0.966	-1.929	-0.621	-0.234	-0.720	-0.532	-0.075	0.240	0.428	-19.531
0.192	0.221	0.732	0.452	0.157	0.444	0.298	1.152	0.828	0.434	0.891	0.312	-0.477	-1.965	0.014	-0.266	0.268	-0.217	0.002	-0.960	-1.913	-0.787	-0.451	-0.785	-0.571	-0.154	0.215	0.311	-15.625
0.225	0.117	0.701	0.428	0.188	0.236	0.439	1.156	0.942	0.579	1.060	0.324	-0.392	-1.930	0.021	-0.263	0.205	-0.348	-0.116	-0.978	-1.868	-0.965	-0.686	-0.785	-0.547	-0.136	0.272	0.273	-11.719
0.202	-0.036	0.602	0.331	0.194	-0.017	0.643	1.099	1.052	0.837	1.291	0.407	-0.248	-1.860	-0.026	-0.301	0.073	-0.528	-0.310	-1.031	-1.815	-1.143	-0.920	-0.709	-0.449	0.020	0.432	0.361	-7.812
0.111	-0.239	0.439	0.158	0.158	-0.290	0.888	0.993	1.154	1.185	1.565	0.564	-0.065	-1.776	-0.133	-0.387	-0.119	-0.741	-0.567	-1.124	-1.773	-1.307	-1.132	-0.554	-0.272	0.337	0.701	0.599	-3.906
-0.048	-0.480	0.226	-0.084	0.078	-0.557	1.138	0.854	1.237	1.578	1.850	0.779	0.127	-1.699	-0.290	-0.519	-0.352	-0.963	-0.859	-1.254	-1.757	-1.438	-1.295	-0.331	-0.019	0.811	1.063	0.983	0.000
-0.263	-0.741	-0.016	-0.373	-0.044	-0.792	1.356	0.699	1.286	1.959	2.106	1.026	0.294	-1.646	-0.475	-0.684	-0.592	-1.158	-1.148	-1.409	-1.776	-1.517	-1.386	-0.063	0.291	1.403	1.479	1.474	3.906
-0.511	-0.999	-0.254	-0.682	-0.192	-0.970	1.506	0.546	1.291	2.272	2.297	1.266	0.408	-1.625	-0.659	-0.862	-0.804	-1.294	-1.392	-1.570	-1.826	-1.527	-1.385	0.218	0.627	2.046	1.899	2.011	7.812
-0.762	-1.226	-0.460	-0.978	-0.346	-1.075	1.567	0.413	1.244	2.472	2.400	1.469	0.450	-1.638	-0.811	-1.028	-0.957	-1.345	-1.558	-1.719	-1.901	-1.465	-1.290	0.474	0.947	2.653	2.263	2.518	11.719
-0.984	-1.399	-0.604	-1.235	-0.482	-1.099	1.532	0.310	1.152	2.538	2.410	1.610	0.416	-1.677	-0.906	-1.161	-1.032	-1.302	-1.625	-1.836	-1.987	-1.338	-1.112	0.669	1.207	3.138	2.520	2.922	15.625
-1.151	-1.501	-0.668	-1.433	-0.586	-1.046	1.414	0.243	1.028	2.477	2.348	1.681	0.315	-1.733	-0.932	-1.248	-1.026	-1.174	-1.597	-1.910	-2.070	-1.166	-0.879	0.776	1.371	3.434	2.638	3.169	19.531
-1.245	-1.527	-0.648	-1.562	-0.647	-0.929	1.240	0.213	0.895	2.321	2.245	1.688	0.168	-1.794	-0.889	-1.283	-0.956	-0.987	-1.493	-1.939	-2.143	-0.978	-0.631	0.781	1.421	3.508	2.607	3.230	23.438
-1.258	-1.481	-0.552	-1.624	-0.668	-0.770	1.045	0.211	0.776	2.116	2.140	1.647	0.005	-1.850	-0.791	-1.272	-0.849	-0.779	-1.350	-1.931	-2.202	-0.809	-0.413	0.687	1.358	3.367	2.446	3.113	27.344
-1.195	-1.377	-0.403	-1.626	-0.658	-0.598	0.863	0.228	0.683	1.909	2.058	1.572	-0.145	-1.894	-0.658	-1.223	-0.737	-0.590	-1.206	-1.896	-2.248	-0.685	-0.259	0.513	1.208	3.061	2.195	2.853	31.250
-1.073	-1.234	-0.231	-1.580	-0.633	-0.439	0.725	0.251	0.616	1.736	2.001	1.469	-0.257	-1.920	-0.516	-1.151	-0.648	-0.452	-1.094	-1.848	-2.286	-0.624	-0.192	0.294	1.017	2.674	1.910	2.509	35.156
-0.913	-1.071	-0.066	-1.499	-0.605	-0.316	0.648	0.267	0.557	1.608	1.938	1.328	-0.313	-1.926	-0.384	-1.062	-0.595	-0.385	-1.032	-1.796	-2.318	-0.625	-0.213	0.072	0.836	2.302	1.654	2.147	39.062
-0.739	-0.898	0.064	-1.391	-0.584	-0.243	0.633	0.260	0.476	1.506	1.809	1.120	-0.306	-1.908	-0.274	-0.958	-0.576	-0.390	-1.020	-1.741	-2.342	-0.674	-0.304	-0.111	0.718	2.045	1.483	1.832	42.969
-0.571	-0.721	0.145	-1.261	-0.569	-0.226	0.670	0.215	0.339	1.387	1.537	0.803	-0.238	-1.864	-0.188	-0.832	-0.572	-0.451	-1.038	-1.677	-2.352	-0.747	-0.434	-0.215	0.701	1.980	1.439	1.618	46.875
-0.420	-0.536	0.172	-1.110	-0.556	-0.258	0.737	0.122	0.115	1.192	1.043	0.334	-0.116	-1.795	-0.123	-0.675	-0.558	-0.543	-1.062	-1.592	-2.338	-0.815	-0.568	-0.215	0.805	2.161	1.551	1.542	50.781
-0.296	-0.337	0.153	-0.940	-0.536	-0.329	0.804	-0.024	-0.209	0.866	0.272	-0.317	0.043	-1.701	-0.068	-0.477	-0.508	-0.638	-1.064	-1.477	-2.293	-0.856	-0.674	-0.097	1.029	2.606	1.829	1.624	54.688
-0.201	-0.120	0.098	-0.756	-0.504	-0.426	0.845	-0.218	-0.622	0.370	-0.789	-1.156	0.225	-1.591	-0.019	-0.240	-0.408	-0.714	-1.024	-1.328	-2.216	-0.860	-0.733	0.140	1.359	3.307	2.269	1.871	58.594
-0.142	0.108	0.019	-0.570	-0.461	-0.540	0.838	-0.441	-1.083	-0.305	-2.102	-2.151	0.414	-1.476	0.026	0.023	-0.259	-0.758	-0.941	-1.156	-2.121	-0.831	-0.740	0.482	1.770	4.234	2.859	2.280	62.500
-0.128	0.328	-0.079	-0.406	-0.422	-0.671	0.770	-0.661	-1.528	-1.134	-3.578	-3.237	0.596	-1.375	0.058	0.283	-0.082	-0.769	-0.827	-0.986	-2.031	-0.786	-0.702	0.912	2.242	5.346	3.582	2.843	66.406
-0.175	0.505	-0.202	-0.294	-0.410	-0.828	0.641	-0.840	-1.876	-2.059	-5.090	-4.322	0.765	-1.307	0.063	0.496	0.089	-0.756	-0.707	-0.855	-1.977	-0.747	-0.635	1.409	2.765	6.605	4.418	3.546	70.312
-0.302	0.594	-0.366	-0.275	-0.456	-1.030	0.459	-0.938	-2.045	-3.005	-6.495	-5.302	0.916	-1.291	0.021	0.616	0.215	-0.736	-0.616	-0.806	-1.995	-0.737	-0.557	1.956	3.343	7.984	5.349	4.374	74.219
-0.528	0.545	-0.595	-0.384	-0.590	-1.299	0.245	-0.926	-1.967	-3.881	-7.656	-6.078	1.057	-1.338	-0.090	0.597	0.254	-0.730	-0.586	-0.879	-2.114	-0.773	-0.483	2.542	3.992	9.464	6.356	5.310	78.125
-0.867	0.319	-0.915	-0.652	-0.833	-1.654	0.029	-0.787	-1.594	-4.603	-8.463	-6.573	1.196	-1.452	-0.289	0.404	0.171	-0.761	-0.644	-1.106	-2.352	-0.862	-0.424	3.161	4.732	11.041	7.421	6.332	82.031
-1.325	-0.108	-1.346	-1.090	-1.191	-2.103	-0.151	-0.524	-0.912	-5.095	-8.850	-6.744	1.347	-1.628	-0.590	0.022	-0.053	-0.849	-0.807	-1.501	-2.711	-0.998	-0.383	3.808	5.579	12.706	8.519	7.414	85.938
-1.892	-0.733	-1.896	-1.690	-1.649	-2.638	-0.257	-0.155	0.058	-5.300	-8.803	-6.588	1.524	-1.848	-0.999	-0.541	-0.423	-1.012	-1.076	-2.056	-3.173	-1.168	-0.362	4.476	6.531	14.442	9.620	8.522	89.844
-2.543	-1.526	-2.551	-2.415	-2.170	-3.233	-0.251	0.291	1.263	-5.189	-8.354	-6.144	1.734	-2.092	-1.508	-1.253	-0.927	-1.262	-1.439	-2.739	-3.707	-1.352	-0.355	5.147	7.563	16.210	10.682	9.610	93.750
-3.241	-2.428	-3.280	-3.206	-2.704	-3.846	-0.109	0.780	2.623	-4.765	-7.576	-5.485	1.975	-2.334	-2.094	-2.062	-1.532	-1.598	-1.873	-3.498	-4.267	-1.530	-0.360	5.793	8.621	17.937	11.655	10.622	97.656
-3.935	-3.363	-4.030	-3.986	-3.190	-4.425	0.179	1.281	4.036	-4.062	-6.569	-4.706	2.236	-2.555	-2.720	-2.895	-2.192	-2.009	-2.343	-4.267	-4.804	-1.686	-0.372	6.371	9.625	19.522	12.480	11.492	101.562
-4.570	-4.243	-4.736	-4.672	-3.572	-4.913	0.600	1.769	5.393	-3.145	-5.445	-3.908	2.495	-2.737	-3.336	-3.677	-2.849	-2.466	-2.809	-4.975	-5.271	-1.809	-0.391	6.834	10.485	20.843	13.097	12.152	105.469
-5.094	-4.984	-5.334	-5.191	-3.805	-5.261	1.122	2.229	6.592	-2.097	-4.313	-3.183	2.723	-2.873	-3.886	-4.335	-3.441	-2.929	-3.234	-5.556	-5.631	-1.897	-0.415	7.132	11.111	21.778	13.451	12.541	109.375
-5.468	-5.516	-5.765	-5.491	-3.868	-5.434	1.697	2.649	7.548	-1.006	-3.263	-2.596	2.888	-2.964	-4.318	-4.811	-3.915	-3.347	-3.583	-5.964	-5.864	-1.953	-0.446	7.225	11.431	22.231	13.507	12.620	113.281
-5.670	-5.798	-5.994	-5.551	-3.766	-5.419	2.272	3.028	8.210	0.049	-2.356	-2.178	2.965	-3.021	-4.597	-5.075	-4.232	-3.673	-3.835	-6.178	-5.971	-1.988	-0.484	7.092	11.408	22.155	13.254	12.386	117.188
-5.699	-5.824	-6.010	-5.391	-3.531	-5.228	2.795	3.368	8.572	1.012	-1.615	-1.918	2.936	-3.062	-4.713	-5.128	-4.383	-3.870	-3.981	-6.206	-5.974	-2.018	-0.532	6.735	11.048	21.568	12.715	11.875	121.094
-5.576	-5.620	-5.829	-5.059	-3.216	-4.894	3.230	3.679	8.671	1.860	-1.024	-1.770	2.793	-3.110	-4.683	-5.006	-4.384	-3.924	-4.033	-6.088	-5.913	-2.059	-0.593	6.180	10.396	20.553	11.941	11.163	125.000
-5.340	-5.247	-5.494	-4.632	-2.887	-4.471	3.557	3.975	8.590	2.606	-0.536	-1.664	2.543	-3.189	-4.548	-4.766	-4.278	-3.847	-4.019	-5.882	-5.839	-2.131	-0.675	5.476	9.536	19.251	11.011	10.356	128.906
-5.039	-4.782	-5.066	-4.192	-2.606	-4.022	3.779	4.275	8.437	3.293	-0.079	-1.519	2.204	-3.321	-4.368	-4.486	-4.126	-3.680	-3.979	-5.662	-5.804	-2.253	-0.790	4.684	8.569	17.837	10.020	9.579	132.812
-4.731	-4.314	-4.615	-3.821	-2.428	-3.612	3.920	4.598	8.336	3.984	0.424	-1.258	1.800	-3.523	-4.211	-4.243	-3.996	-3.486	-3.961	-5.497	-5.854	-2.441	-0.951	3.874	7.604	16.496	9.065	8.952	136.719
-4.477	-3.924	-4.215	-3.581	-2.387	-3.299	4.018	4.967	8.408	4.749	1.046	-0.824	1.363	-3.804	-4.136	-4.108	-3.951	-3.336	-4.014	-5.449	-6.021	-2.709	-1.176	3.109	6.740	15.401	8.240	8.581	140.625
-4.329	-3.682	-3.929	-3.512	-2.497	-3.123	4.123	5.401	8.752	5.652	1.845	-0.184	0.921	-4.168	-4.193	-4.133	-4.040	-3.301	-4.177	-5.561	-6.323	-3.066	-1.481	2.442	6.058	14.690	7.618	8.539	144.531
-4.334	-3.632	-3.803	-3.627	-2.751	-3.108	4.283	5.916	9.440	6.738	2.848	0.664	0.498	-4.608	-4.409	-4.349	-4.292	-3.434	-4.477	-5.854	-6.759	-3.516	-1.878	1.908	5.609	14.451	7.249	8.862	148.438
-4.520	-3.790	-3.862	-3.912	-3.125	-3.250	4.539	6.523	10.502	8.027	4.059	1.695	0.112	-5.114	-4.793	-4.764	-4.716	-3.762	-4.927	-6.329	-7.319	-4.058	-2.370	1.521	5.415	14.719	7.152	9.544	152.344
-4.897	-4.147	-4.102	-4.334	-3.582	-3.529	4.921	7.225	11.930	9.515	5.455	2.861	-0.230	-5.670	-5.334	-5.365	-5.301	-4.280	-5.521	-6.967	-7.981	-4.685	-2.954	1.277	5.470	15.471	7.318	10.542	156.250
-5.449	-4.668	-4.500	-4.847	-4.081	-3.904	5.439	8.011	13.678	11.171	6.988	4.103	-0.528	-6.256	-6.006	-6.120	-6.019	-4.955	-6.241	-7.738	-8.716	-5.384	-3.612	1.156	5.744	16.642	7.714	11.785	160.156
-6.145	-5.302	-5.012	-5.400	-4.581	-4.329	6.089	8.864	15.665	12.947	8.601	5.356	-0.787	-6.850	-6.774	-6.987	-6.834	-5.733	-7.056	-8.604	-9.493	-6.136	-4.319	1.130	6.189	18.128	8.289	13.186	164.062
-6.935	-5.991	-5.588	-5.944	-5.047	-4.756	6.847	9.752	17.786	14.775	10.222	6.558	-1.016	-7.430	-7.596	-7.918	-7.701	-6.549	-7.926	-9.523	-10.279	-6.914	-5.037	1.171	6.751	19.811	8.985	14.651	167.969
-7.761	-6.676	-6.178	-6.437	-5.451	-5.141	7.675	10.631	19.919	16.581	11.778	7.657	-1.221	-7.969	-8.427	-8.860	-8.575	-7.338	-8.807	-10.453	-11.039	-7.683	-5.724	1.258	7.375	21.567	9.749	16.094	171.875
-8.564	-7.303	-6.737	-6.849	-5.775	-5.459	8.528	11.451	21.936	18.282	13.193	8.609	-1.399	-8.439	-9.225	-9.765	-9.410	-8.048	-9.651	-11.353	-11.739	-8.401	-6.336	1.379	8.011	23.282	10.535	17.439	175.781
-9.292	-7.830	-7.234	-7.161	-6.008	-5.696	9.356	12.158	23.715	19.798	14.399	9.384	-1.540	-8.812	-9.952	-10.585	-10.161	-8.641	-10.410	-12.181	-12.344	-9.021	-6.831	1.539	8.621	24.862	11.309	18.627	179.688
-9.903	-8.226	-7.651	-7.361	-6.148	-5.854	10.112	12.700	25.153	21.057	15.337	9.961	-1.624	-9.064	-10.575	-11.278	-10.791	-9.098	-11.037	-12.898	-12.821	-9.494	-7.174	1.748	9.177	26.231	12.049	19.610	183.594
-10.367	-8.476	-7.984	-7.449	-6.195	-5.946	10.755	13.034	26.169	21.997	15.959	10.326	-1.629	-9.171	-11.065	-11.808	-11.266	-9.418	-11.491	-13.468	-13.141	-9.778	-7.340	2.021	9.662	27.335	12.736	20.355	187.500
-10.673	-8.577	-8.236	-7.433	-6.156	-5.992	11.256	13.136	26.716	22.578	16.239	10.476	-1.526	-9.120	-11.404	-12.151	-11.562	-9.610	-11.742	-13.861	-13.285	-9.841	-7.317	2.370	10.067	28.139	13.356	20.840	191.406
-10.817	-8.541	-8.419	-7.328	-6.038	-6.011	11.599	12.997	26.777	22.780	16.167	10.412	-1.295	-8.901	-11.581	-12.294	-11.665	-9.690	-11.773	-14.058	-13.243	-9.668	-7.107	2.801	10.388	28.629	13.895	21.053	195.312
-10.814	-8.393	-8.548	-7.153	-5.853	-6.022	11.783	12.630	26.371	22.608	15.758	10.148	-0.919	-8.518	-11.596	-12.240	-11.576	-9.677	-11.581	-14.052	-13.016	-9.264	-6.725	3.308	10.629	28.809	14.341	20.997	199.219
-10.682	-8.168	-8.636	-6.933	-5.612	-6.038	11.822	12.065	25.542	22.089	15.047	9.706	-0.393	-7.979	-11.460	-12.011	-11.312	-9.587	-11.186	-13.858	-12.620	-8.654	-6.196	3.880	10.799	28.703	14.686	20.691	203.125
-10.451	-7.905	-8.699	-6.694	-5.332	-6.067	11.741	11.346	24.361	21.273	14.092	9.117	0.279	-7.300	-11.195	-11.641	-10.905	-9.436	-10.623	-13.502	-12.081	-7.881	-5.554	4.503	10.910	28.351	14.931	20.167	207.031
-10.153	-7.645	-8.750	-6.461	-5.026	-6.108	11.577	10.525	22.921	20.228	12.965	8.422	1.081	-6.504	-10.835	-11.178	-10.402	-9.240	-9.947	-13.026	-11.432	-6.998	-4.838	5.162	10.982	27.811	15.087	19.474	210.938
-9.827	-7.422	-8.802	-6.253	-4.708	-6.156	11.371	9.661	21.325	19.035	11.750	7.668	1.986	-5.620	-10.422	-10.674	-9.856	-9.016	-9.217	-12.482	-10.712	-6.067	-4.087	5.842	11.038	27.150	15.171	18.673	214.844
-9.507	-7.262	-8.862	-6.083	-4.389	-6.202	11.167	8.809	19.684	17.781	10.533	6.902	2.957	-4.681	-10.002	-10.183	-9.327	-8.786	-8.501	-11.923	-9.961	-5.148	-3.338	6.532	11.100	26.439	15.212	17.828	218.750
-9.230	-7.181	-8.936	-5.959	-4.078	-6.234	11.001	8.022	18.108	16.553	9.391	6.170	3.949	-3.731	-9.622	-9.755	-8.866	-8.572	-7.857	-11.401	-9.223	-4.294	-2.623	7.221	11.193	25.751	15.236	17.003	222.656
-9.024	-7.185	-9.023	-5.882	-3.782	-6.243	10.902	7.347	16.697	15.427	8.389	5.508	4.909	-2.817	-9.321	-9.428	-8.516	-8.396	-7.332	-10.960	-8.536	-3.548	-1.967	7.898	11.337	25.150	15.268	16.255	226.562
-8.913	-7.274	-9.124	-5.848	-3.508	-6.220	10.881	6.818	15.532	14.466	7.569	4.947	5.783	-1.992	-9.129	-9.230	-8.303	-8.272	-6.957	-10.635	-7.940	-2.937	-1.388	8.544	11.544	24.687	15.327	15.630	230.469
-8.909	-7.440	-9.235	-5.857	-3.266	-6.164	10.939	6.465	14.668	13.712	6.956	4.502	6.517	-1.306	-9.064	-9.174	-8.234	-8.204	-6.743	-10.450	-7.471	-2.478	-0.898	9.139	11.825	24.396	15.421	15.158	234.375
-9.017	-7.675	-9.354	-5.904	-3.066	-6.078	11.061	6.307	14.133	13.185	6.554	4.180	7.069	-0.804	-9.127	-9.257	-8.301	-8.189	-6.682	-10.414	-7.155	-2.175	-0.503	9.657	12.179	24.291	15.544	14.853	238.281
-9.227	-7.968	-9.481	-5.989	-2.918	-5.971	11.228	6.359	13.926	12.884	6.352	3.978	7.410	-0.516	-9.307	-9.469	-8.480	-8.215	-6.755	-10.525	-7.012	-2.022	-0.207	10.073	12.594	24.361	15.683	14.712	242.188
-9.523	-8.308	-9.614	-6.111	-2.829	-5.850	11.419	6.625	14.025	12.791	6.328	3.886	7.533	-0.452	-9.583	-9.789	-8.742	-8.266	-6.934	-10.768	-7.045	-2.008	-0.012	10.366	13.052	24.578	15.812	14.716	246.094
-9.881	-8.682	-9.751	-6.269	-2.798	-5.727	11.616	7.100	14.385	12.875	6.453	3.888	7.456	-0.596	-9.926	-10.188	-9.052	-8.328	-7.187	-11.120	-7.240	-2.116	0.086	10.525	13.525	24.897	15.908	14.832	250.000
-10.275	-9.073	-9.889	-6.461	-2.817	-5.609	11.809	7.763	14.950	13.097	6.695	3.967	7.219	-0.907	-10.307	-10.639	-9.383	-8.389	-7.484	-11.545	-7.567	-2.322	0.091	10.554	13.983	25.263	15.950	15.021	253.906
-10.683	-9.468	-10.027	-6.680	-2.872	-5.503	11.996	8.574	15.651	13.416	7.020	4.103	6.887	-1.323	-10.701	-11.113	-9.712	-8.444	-7.797	-12.004	-7.979	-2.598	0.015	10.470	14.396	25.624	15.926	15.244	257.812
-11.089	-9.851	-10.167	-6.920	-2.944	-5.414	12.182	9.472	16.419	13.791	7.394	4.282	6.533	-1.769	-11.087	-11.584	-10.026	-8.495	-8.104	-12.455	-8.422	-2.912	-0.121	10.308	14.745	25.933	15.843	15.465	261.719
-11.483	-10.209	-10.315	-7.167	-3.009	-5.348	12.373	10.382	17.185	14.187	7.786	4.489	6.235	-2.165	-11.454	-12.029	-10.320	-8.551	-8.388	-12.858	-8.833	-3.227	-0.291	10.113	15.016	26.160	15.722	15.661	265.625
-11.863	-10.534	-10.479	-7.408	-3.049	-5.310	12.576	11.221	17.887	14.570	8.167	4.714	6.063	-2.439	-11.798	-12.431	-10.592	-8.623	-8.634	-13.176	-9.155	-3.505	-0.465	9.935	15.207	26.289	15.596	15.818	269.531
-12.232	-10.818	-10.671	-7.627	-3.046	-5.303	12.792	11.909	18.471	14.912	8.508	4.944	6.067	-2.534	-12.121	-12.774	-10.846	-8.722	-8.831	-13.380	-9.339	-3.710	-0.611	9.817	15.325	26.320	15.504	15.932	273.438
-12.592	-11.058	-10.903	-7.808	-2.992	-5.333	13.015	12.386	18.898	15.186	8.786	5.168	6.269	-2.419	-12.427	-13.045	-11.082	-8.856	-8.969	-13.452	-9.351	-3.811	-0.700	9.794	15.380	26.264	15.478	16.007	277.344
-12.945	-11.254	-11.179	-7.940	-2.884	-5.400	13.234	12.617	19.141	15.369	8.980	5.368	6.666	-2.085	-12.722	-13.237	-11.301	-9.022	-9.041	-13.384	-9.173	-3.786	-0.710	9.882	15.386	26.138	15.541	16.046	281.250
-13.291	-11.413	-11.497	-8.015	-2.727	-5.502	13.432	12.603	19.190	15.444	9.076	5.528	7.226	-1.550	-13.007	-13.347	-11.499	-9.209	-9.043	-13.181	-8.811	-3.626	-0.629	10.077	15.356	25.955	15.693	16.051	285.156
-13.624	-11.544	-11.846	-8.033	-2.534	-5.633	13.593	12.376	19.054	15.403	9.066	5.628	7.897	-0.852	-13.280	-13.379	-11.671	-9.395	-8.969	-12.861	-8.289	-3.331	-0.454	10.357	15.299	25.725	15.915	16.018	289.062
-13.936	-11.659	-12.206	-8.001	-2.323	-5.783	13.703	11.995	18.760	15.252	8.954	5.652	8.616	-0.048	-13.534	-13.341	-11.808	-9.554	-8.821	-12.451	-7.647	-2.917	-0.192	10.689	15.222	25.454	16.170	15.939	292.969
-14.219	-11.768	-12.554	-7.930	-2.111	-5.939	13.755	11.526	18.347	15.005	8.747	5.590	9.318	0.800	-13.760	-13.246	-11.898	-9.660	-8.600	-11.983	-6.935	-2.406	0.143	11.032	15.126	25.139	16.411	15.804	296.875
-14.463	-11.877	-12.865	-7.834	-1.916	-6.088	13.746	11.040	17.862	14.689	8.463	5.440	9.946	1.627	-13.948	-13.106	-11.929	-9.693	-8.309	-11.487	-6.207	-1.829	0.529	11.345	15.013	24.780	16.592	15.604	300.781
-14.660	-11.983	-13.120	-7.727	-1.750	-6.214	13.679	10.589	17.352	14.332	8.118	5.205	10.455	2.379	-14.088	-12.931	-11.887	-9.642	-7.954	-10.987	-5.508	-1.217	0.939	11.595	14.880	24.374	16.671	15.334	304.688
-14.806	-12.077	-13.304	-7.615	-1.615	-6.306	13.563	10.207	16.856	13.961	7.731	4.895	10.818	3.014	-14.171	-12.721	-11.763	-9.506	-7.545	-10.493	-4.870	-0.602	1.347	11.762	14.727	23.923	16.620	14.991	308.594
-14.896	-12.137	-13.411	-7.500	-1.509	-6.353	13.405	9.908	16.400	13.598	7.316	4.526	11.021	3.510	-14.192	-12.468	-11.549	-9.294	-7.088	-10.004	-4.310	-0.013	1.726	11.834	14.552	23.431	16.428	14.582	312.500
-14.929	-12.138	-13.444	-7.373	-1.418	-6.345	13.214	9.682	15.996	13.254	6.884	4.113	11.068	3.862	-14.148	-12.159	-11.246	-9.025	-6.596	-9.507	-3.827	0.527	2.053	11.813	14.351	22.907	16.098	14.116	316.406
-14.903	-12.052	-13.410	-7.221	-1.327	-6.277	12.996	9.509	15.645	12.931	6.447	3.677	10.969	4.079	-14.039	-11.778	-10.862	-8.721	-6.081	-8.982	-3.409	1.000	2.309	11.707	14.123	22.358	15.649	13.606	320.312
-14.817	-11.857	-13.323	-7.028	-1.218	-6.147	12.757	9.365	15.342	12.631	6.018	3.241	10.744	4.182	-13.867	-11.312	-10.411	-8.405	-5.556	-8.413	-3.038	1.395	2.481	11.530	13.866	21.794	15.105	13.069	324.219
-14.673	-11.536	-13.197	-6.782	-1.079	-5.956	12.502	9.228	15.078	12.352	5.617	2.830	10.416	4.195	-13.641	-10.758	-9.915	-8.103	-5.038	-7.790	-2.699	1.706	2.565	11.297	13.580	21.221	14.497	12.520	328.125
-14.472	-11.087	-13.045	-6.475	-0.905	-5.711	12.236	9.084	14.850	12.099	5.269	2.472	10.008	4.140	-13.372	-10.124	-9.398	-7.840	-4.542	-7.116	-2.382	1.932	2.564	11.021	13.266	20.640	13.853	11.976	332.031
-14.223	-10.520	-12.874	-6.111	-0.699	-5.424	11.969	8.928	14.657	11.879	5.003	2.194	9.549	4.037	-13.075	-9.431	-8.885	-7.637	-4.085	-6.407	-2.083	2.080	2.490	10.715	12.930	20.051	13.201	11.450	335.938
-13.936	-9.859	-12.688	-5.704	-0.474	-5.110	11.710	8.764	14.500	11.708	4.845	2.016	9.067	3.901	-12.771	-8.710	-8.400	-7.512	-3.679	-5.691	-1.808	2.158	2.361	10.390	12.578	19.451	12.563	10.953	339.844
-13.627	-9.135	-12.483	-5.276	-0.248	-4.787	11.471	8.602	14.381	11.595	4.812	1.948	8.592	3.746	-12.484	-7.998	-7.961	-7.472	-3.333	-5.001	-1.561	2.182	2.197	10.057	12.217	18.834	11.956	10.491	343.750
-13.316	-8.386	-12.256	-4.851	-0.038	-4.469	11.263	8.453	14.294	11.545	4.903	1.981	8.156	3.585	-12.237	-7.328	-7.580	-7.512	-3.049	-4.367	-1.348	2.169	2.022	9.731	11.859	18.202	11.395	10.065	347.656
-13.023	-7.655	-12.005	-4.456	0.140	-4.169	11.097	8.328	14.229	11.551	5.093	2.085	7.790	3.439	-12.050	-6.726	-7.260	-7.616	-2.822	-3.813	-1.168	2.140	1.859	9.428	11.516	17.563	10.892	9.674	351.562
-12.769	-6.982	-11.735	-4.118	0.278	-3.895	10.980	8.235	14.168	11.590	5.333	2.214	7.523	3.329	-11.934	-6.211	-6.999	-7.758	-2.640	-3.354	-1.010	2.118	1.731	9.168	11.204	16.939	10.458	9.315	355.469
-12.571	-6.405	-11.460	-3.857	0.377	-3.652	10.915	8.172	14.090	11.627	5.555	2.306	7.378	3.281	-11.893	-5.791	-6.788	-7.911	-2.491	-2.996	-0.861	2.123	1.655	8.969	10.944	16.366	10.107	8.990	359.375
-12.443	-5.958	-11.200	-3.693	0.440	-3.441	10.899	8.135	13.978	11.615	5.681	2.304	7.368	3.319	-11.922	-5.467	-6.617	-8.044	-2.362	-2.737	-0.707	2.172	1.644	8.852	10.761	15.893	9.853	8.707	363.281
-12.395	-5.667	-10.980	-3.637	0.478	-3.265	10.924	8.111	13.825	11.512	5.636	2.159	7.497	3.459	-12.008	-5.241	-6.481	-8.138	-2.243	-2.575	-0.536	2.274	1.708	8.830	10.684	15.577	9.713	8.482	367.188
-12.427	-5.543	-10.823	-3.694	0.500	-3.120	10.975	8.088	13.633	11.277	5.366	1.846	7.751	3.703	-12.131	-5.110	-6.375	-8.178	-2.132	-2.502	-0.346	2.430	1.848	8.909	10.736	15.466	9.696	8.330	371.094
-12.532	-5.584	-10.739	-3.856	0.514	-3.003	11.028	8.055	13.413	10.885	4.844	1.367	8.100	4.039	-12.267	-5.069	-6.297	-8.156	-2.031	-2.513	-0.142	2.633	2.060	9.084	10.929	15.582	9.802	8.263	375.000
-12.688	-5.767	-10.723	-4.105	0.528	-2.907	11.057	8.007	13.180	10.327	4.083	0.754	8.500	4.439	-12.390	-5.110	-6.248	-8.068	-1.941	-2.598	0.063	2.872	2.336	9.335	11.254	15.909	10.010	8.278	378.906
-12.860	-6.049	-10.755	-4.411	0.549	-2.820	11.032	7.942	12.945	9.613	3.129	0.058	8.898	4.865	-12.470	-5.216	-6.220	-7.908	-1.864	-2.741	0.252	3.131	2.662	9.629	11.674	16.381	10.273	8.345	382.812
-13.000	-6.372	-10.797	-4.731	0.582	-2.726	10.928	7.863	12.708	8.771	2.059	-0.658	9.236	5.274	-12.480	-5.358	-6.199	-7.669	-1.795	-2.918	0.414	3.396	3.025	9.925	12.128	16.884	10.526	8.412	386.719
-13.057	-6.666	-10.804	-5.011	0.636	-2.608	10.726	7.772	12.457	7.843	0.965	-1.333	9.462	5.631	-12.394	-5.500	-6.163	-7.346	-1.719	-3.098	0.544	3.657	3.408	10.175	12.535	17.279	10.684	8.407	390.625
-12.982	-6.864	-10.732	-5.199	0.718	-2.450	10.421	7.674	12.173	6.877	-0.058	-1.922	9.539	5.907	-12.191	-5.599	-6.083	-6.941	-1.619	-3.244	0.650	3.911	3.796	10.335	12.815	17.426	10.666	8.250	394.531
-12.745	-6.909	-10.548	-5.249	0.838	-2.239	10.025	7.571	11.837	5.926	-0.928	-2.401	9.449	6.093	-11.865	-5.618	-5.932	-6.467	-1.477	-3.321	0.750	4.155	4.172	10.370	12.901	17.217	10.407	7.877	398.438
-12.338	-6.773	-10.238	-5.132	1.000	-1.971	9.561	7.464	11.441	5.041	-1.587	-2.768	9.199	6.195	-11.427	-5.531	-5.693	-5.952	-1.280	-3.304	0.865	4.389	4.519	10.260	12.753	16.605	9.878	7.254	402.344
-11.784	-6.456	-9.814	-4.842	1.205	-1.649	9.067	7.359	10.991	4.265	-2.006	-3.038	8.822	6.235	-10.905	-5.333	-5.369	-5.438	-1.028	-3.179	1.020	4.612	4.822	10.008	12.372	15.613	9.095	6.394	406.250
-11.132	-5.992	-9.309	-4.403	1.448	-1.284	8.586	7.261	10.509	3.631	-2.189	-3.239	8.365	6.242	-10.344	-5.041	-4.979	-4.971	-0.738	-2.954	1.230	4.821	5.070	9.637	11.792	14.327	8.122	5.353	410.156
-10.444	-5.439	-8.768	-3.858	1.719	-0.889	8.159	7.179	10.023	3.152	-2.170	-3.402	7.889	6.247	-9.795	-4.689	-4.559	-4.593	-0.436	-2.650	1.501	5.012	5.256	9.188	11.073	12.879	7.052	4.222	414.062
-9.790	-4.866	-8.242	-3.267	2.009	-0.482	7.817	7.122	9.561	2.827	-2.001	-3.558	7.449	6.276	-9.304	-4.320	-4.152	-4.329	-0.150	-2.298	1.828	5.179	5.382	8.710	10.286	11.407	5.994	3.103	417.969
-9.223	-4.335	-7.770	-2.688	2.307	-0.079	7.577	7.094	9.142	2.636	-1.747	-3.730	7.084	6.345	-8.905	-3.973	-3.794	-4.184	0.092	-1.931	2.195	5.320	5.455	8.246	9.492	10.027	5.044	2.086	421.875
-8.775	-3.893	-7.374	-2.169	2.603	0.308	7.436	7.095	8.771	2.552	-1.473	-3.930	6.813	6.454	-8.607	-3.676	-3.508	-4.139	0.278	-1.579	2.578	5.434	5.485	7.828	8.733	8.810	4.266	1.230	425.781
-8.449	-3.559	-7.052	-1.743	2.891	0.672	7.377	7.119	8.440	2.540	-1.231	-4.163	6.632	6.588	-8.400	-3.439	-3.300	-4.157	0.409	-1.258	2.950	5.521	5.482	7.467	8.025	7.775	3.683	0.554	429.688
-8.220	-3.326	-6.784	-1.416	3.166	1.008	7.366	7.156	8.132	2.562	-1.063	-4.424	6.516	6.723	-8.249	-3.252	-3.151	-4.192	0.502	-0.974	3.285	5.586	5.454	7.153	7.366	6.901	3.277	0.040	433.594
-8.041	-3.166	-6.535	-1.175	3.425	1.317	7.361	7.195	7.815	2.576	-1.001	-4.706	6.427	6.828	-8.108	-3.091	-3.030	-4.197	0.585	-0.723	3.564	5.635	5.413	6.865	6.738	6.136	2.997	-0.364	437.500
-7.857	-3.034	-6.266	-0.991	3.667	1.600	7.316	7.219	7.451	2.532	-1.075	-5.012	6.327	6.882	-7.927	-2.921	-2.893	-4.131	0.693	-0.485	3.783	5.679	5.369	6.576	6.123	5.421	2.772	-0.725	441.406
-7.611	-2.881	-5.943	-0.819	3.892	1.862	7.187	7.208	6.994	2.376	-1.315	-5.354	6.187	6.876	-7.659	-2.701	-2.695	-3.963	0.863	-0.235	3.950	5.738	5.340	6.263	5.510	4.702	2.529	-1.114	445.312
-7.261	-2.659	-5.542	-0.613	4.106	2.105	6.941	7.137	6.400	2.052	-1.750	-5.755	5.991	6.820	-7.272	-2.396	-2.400	-3.680	1.126	0.056	4.094	5.835	5.345	5.917	4.897	3.941	2.209	-1.594	449.219
-6.784	-2.338	-5.059	-0.334	4.313	2.330	6.557	6.982	5.636	1.516	-2.400	-6.243	5.740	6.741	-6.755	-1.981	-1.984	-3.285	1.500	0.417	4.252	5.996	5.402	5.541	4.294	3.120	1.773	-2.203	453.125
-6.183	-1.906	-4.508	0.040	4.517	2.534	6.038	6.723	4.693	0.754	-3.263	-6.831	5.448	6.676	-6.119	-1.448	-1.446	-2.795	1.987	0.865	4.462	6.241	5.526	5.154	3.717	2.241	1.209	-2.951	457.031
-5.490	-1.374	-3.921	0.507	4.716	2.707	5.407	6.355	3.601	-0.210	-4.298	-7.511	5.138	6.656	-5.398	-0.815	-0.808	-2.246	2.565	1.397	4.750	6.575	5.719	4.776	3.187	1.328	0.540	-3.810	460.938
-4.759	-0.782	-3.347	1.036	4.898	2.833	4.708	5.895	2.433	-1.300	-5.419	-8.238	4.834	6.698	-4.643	-0.123	-0.117	-1.679	3.195	1.990	5.117	6.986	5.970	4.433	2.725	0.421	-0.191	-4.722	464.844
-4.061	-0.186	-2.839	1.574	5.043	2.895	4.002	5.379	1.294	-2.402	-6.504	-8.935	4.555	6.799	-3.922	0.568	0.563	-1.147	3.818	2.596	5.538	7.442	6.250	4.144	2.348	-0.425	-0.918	-5.602	468.750
-3.469	0.349	-2.450	2.054	5.126	2.877	3.353	4.859	0.307	-3.379	-7.409	-9.502	4.312	6.933	-3.299	1.185	1.162	-0.697	4.368	3.155	5.965	7.892	6.523	3.918	2.071	-1.154	-1.571	-6.354	472.656
-3.042	0.762	-2.219	2.409	5.120	2.769	2.820	4.394	-0.414	-4.103	-8.002	-9.844	4.109	7.058	-2.832	1.662	1.614	-0.370	4.785	3.605	6.338	8.284	6.749	3.762	1.902	-1.712	-2.089	-6.893	476.562
-2.818	1.010	-2.165	2.594	5.010	2.571	2.441	4.034	-0.793	-4.488	-8.194	-9.892	3.938	7.130	-2.556	1.947	1.872	-0.189	5.022	3.895	6.598	8.567	6.894	3.670	1.844	-2.058	-2.425	-7.161	480.469
-2.800	1.074	-2.281	2.587	4.791	2.298	2.227	3.810	-0.807	-4.509	-7.963	-9.626	3.789	7.110	-2.478	2.020	1.919	-0.155	5.058	4.000	6.703	8.711	6.942	3.638	1.896	-2.172	-2.560	-7.136	484.375
-2.960	0.966	-2.532	2.402	4.474	1.970	2.160	3.729	-0.494	-4.214	-7.365	-9.085	3.644	6.975	-2.574	1.892	1.766	-0.246	4.904	3.921	6.636	8.705	6.895	3.653	2.052	-2.058	-2.506	-6.842	488.281
-3.241	0.722	-2.869	2.079	4.085	1.618	2.197	3.771	0.057	-3.709	-6.518	-8.357	3.488	6.720	-2.794	1.605	1.458	-0.423	4.596	3.689	6.408	8.565	6.772	3.706	2.301	-1.741	-2.299	-6.339	492.188
-3.573	0.395	-3.229	1.676	3.658	1.273	2.281	3.899	0.727	-3.131	-5.581	-7.565	3.306	6.359	-3.075	1.222	1.056	-0.634	4.194	3.358	6.054	8.327	6.607	3.781	2.625	-1.269	-1.997	-5.713	496.094
-3.883	0.041	-3.555	1.255	3.230	0.963	2.355	4.065	1.395	-2.617	-4.713	-6.837	3.086	5.917	-3.353	0.812	0.630	-0.826	3.763	2.987	5.625	8.036	6.434	3.862	3.002	-0.705	-1.667	-5.059	500.000
-4.112	-0.285	-3.801	0.872	2.832	0.708	2.374	4.224	1.962	-2.266	-4.044	-6.277	2.821	5.429	-3.572	0.441	0.244	-0.955	3.366	2.634	5.173	7.738	6.284	3.929	3.402	-0.118	-1.375	-4.466	503.906
-4.224	-0.545	-3.935	0.564	2.488	0.523	2.309	4.342	2.367	-2.128	-3.643	-5.949	2.511	4.926	-3.701	0.154	-0.055	-0.992	3.051	2.344	4.748	7.468	6.176	3.963	3.791	0.421	-1.176	-4.002	507.812
-4.206	-0.715	-3.947	0.350	2.208	0.411	2.155	4.402	2.595	-2.196	-3.519	-5.863	2.158	4.436	-3.727	-0.024	-0.239	-0.930	2.847	2.142	4.381	7.250	6.115	3.942	4.133	0.851	-1.105	-3.711	511.719
-4.067	-0.784	-3.838	0.231	1.994	0.369	1.918	4.398	2.663	-2.424	-3.627	-5.987	1.766	3.980	-3.658	-0.089	-0.303	-0.773	2.764	2.036	4.092	7.094	6.099	3.851	4.395	1.124	-1.180	-3.606	515.625
-3.833	-0.754	-3.622	0.199	1.836	0.388	1.614	4.334	2.605	-2.749	-3.893	-6.262	1.343	3.571	-3.510	-0.052	-0.250	-0.539	2.797	2.019	3.884	7.001	6.121	3.681	4.555	1.208	-1.400	-3.683	519.531
-3.531	-0.627	-3.316	0.245	1.725	0.456	1.256	4.218	2.456	-3.120	-4.240	-6.619	0.894	3.220	-3.298	0.071	-0.095	-0.247	2.932	2.077	3.755	6.965	6.179	3.429	4.601	1.091	-1.754	-3.922	523.438
-3.183	-0.409	-2.935	0.362	1.652	0.566	0.854	4.054	2.233	-3.509	-4.616	-7.007	0.427	2.932	-3.035	0.264	0.149	0.088	3.151	2.200	3.698	6.983	6.275	3.105	4.534	0.776	-2.224	-4.303	527.344
-2.801	-0.105	-2.494	0.551	1.618	0.715	0.409	3.844	1.936	-3.925	-5.001	-7.402	-0.051	2.715	-2.723	0.514	0.470	0.458	3.440	2.376	3.710	7.053	6.418	2.726	4.367	0.280	-2.793	-4.807	531.250
-2.388	0.278	-2.005	0.815	1.624	0.903	-0.077	3.589	1.544	-4.398	-5.411	-7.809	-0.528	2.577	-2.359	0.815	0.858	0.861	3.785	2.602	3.786	7.177	6.619	2.316	4.123	-0.371	-3.443	-5.419	535.156
-1.939	0.729	-1.482	1.155	1.677	1.137	-0.598	3.293	1.039	-4.965	-5.880	-8.255	-0.993	2.520	-1.939	1.160	1.303	1.297	4.172	2.870	3.923	7.354	6.884	1.906	3.830	-1.140	-4.155	-6.125	539.062
-1.453	1.226	-0.940	1.562	1.780	1.417	-1.137	2.969	0.411	-5.646	-6.441	-8.767	-1.430	2.543	-1.469	1.537	1.789	1.761	4.585	3.168	4.111	7.575	7.213	1.523	3.518	-1.981	-4.904	-6.903	542.969
-0.940	1.740	-0.401	2.012	1.929	1.738	-1.668	2.638	-0.322	-6.429	-7.106	-9.361	-1.828	2.630	-0.964	1.924	2.291	2.245	5.001	3.475	4.330	7.825	7.589	1.195	3.215	-2.842	-5.656	-7.716	546.875
-0.422	2.231	0.107	2.467	2.108	2.082	-2.155	2.330	-1.115	-7.265	-7.852	-10.021	-2.172	2.753	-0.453	2.289	2.777	2.731	5.391	3.758	4.550	8.078	7.984	0.939	2.949	-3.659	-6.365	-8.512	550.781
0.068	2.657	0.554	2.879	2.290	2.420	-2.558	2.076	-1.897	-8.077	-8.621	-10.701	-2.455	2.876	0.021	2.596	3.207	3.196	5.721	3.980	4.732	8.302	8.361	0.768	2.743	-4.368	-6.978	-9.226	554.688
0.489	2.977	0.910	3.195	2.440	2.714	-2.852	1.902	-2.590	-8.775	-9.328	-11.328	-2.673	2.955	0.418	2.805	3.542	3.611	5.957	4.105	4.838	8.466	8.681	0.683	2.618	-4.911	-7.443	-9.790	558.594
0.809	3.161	1.157	3.374	2.524	2.924	-3.024	1.821	-3.126	-9.282	-9.883	-11.817	-2.826	2.955	0.702	2.891	3.753	3.951	6.075	4.109	4.838	8.546	8.914	0.677	2.586	-5.247	-7.713	-10.148	562.500
1.009	3.194	1.290	3.392	2.513	3.020	-3.084	1.829	-3.467	-9.557	-10.217	-12.097	-2.918	2.853	0.855	2.845	3.825	4.198	6.066	3.985	4.717	8.533	9.042	0.736	2.650	-5.361	-7.763	-10.270	566.406
1.091	3.087	1.320	3.251	2.396	2.985	-3.067	1.907	-3.617	-9.604	-10.294	-12.127	-2.955	2.647	0.882	2.681	3.765	4.346	5.938	3.750	4.486	8.436	9.069	0.842	2.799	-5.271	-7.595	-10.162	570.312
1.083	2.868	1.277	2.983	2.180	2.826	-3.017	2.021	-3.620	-9.474	-10.129	-11.907	-2.945	2.359	0.813	2.436	3.600	4.403	5.720	3.442	4.175	8.278	9.014	0.974	3.007	-5.034	-7.243	-9.871	574.219
1.035	2.590	1.204	2.642	1.891	2.572	-2.990	2.130	-3.555	-9.258	-9.786	-11.485	-2.896	2.029	0.694	2.162	3.377	4.389	5.454	3.113	3.835	8.093	8.912	1.109	3.235	-4.732	-6.771	-9.476	578.125
1.003	2.315	1.150	2.295	1.571	2.271	-3.032	2.191	-3.511	-9.062	-9.359	-10.944	-2.820	1.705	0.585	1.922	3.150	4.336	5.191	2.821	3.521	7.919	8.801	1.226	3.430	-4.463	-6.266	-9.076	582.031
1.047	2.108	1.161	2.010	1.272	1.980	-3.177	2.171	-3.571	-8.983	-8.961	-10.393	-2.733	1.436	0.541	1.770	2.974	4.277	4.982	2.617	3.287	7.791	8.718	1.300	3.539	-4.324	-5.823	-8.770	585.938
1.212	2.026	1.271	1.847	1.043	1.761	-3.438	2.047	-3.793	-9.092	-8.694	-9.938	-2.654	1.260	0.612	1.752	2.899	4.248	4.866	2.541	3.174	7.732	8.688	1.311	3.514	-4.393	-5.536	-8.643	589.844
1.523	2.107	1.499	1.848	0.925	1.664	-3.805	1.815	-4.198	-9.419	-8.630	-9.669	-2.607	1.193	0.825	1.889	2.957	4.275	4.871	2.610	3.201	7.749	8.723	1.240	3.321	-4.719	-5.481	-8.753	593.750
1.978	2.367	1.847	2.030	0.945	1.723	-4.253	1.489	-4.769	-9.952	-8.801	-9.642	-2.620	1.231	1.187	2.182	3.162	4.381	5.002	2.820	3.364	7.835	8.820	1.070	2.949	-5.313	-5.706	-9.120	597.656
2.558	2.799	2.299	2.389	1.108	1.951	-4.748	1.098	-5.458	-10.646	-9.196	-9.872	-2.719	1.349	1.687	2.610	3.508	4.574	5.248	3.149	3.636	7.972	8.962	0.792	2.412	-6.150	-6.227	-9.731	601.562
3.224	3.375	2.831	2.901	1.398	2.340	-5.254	0.682	-6.202	-11.435	-9.766	-10.332	-2.929	1.509	2.294	3.137	3.973	4.854	5.581	3.559	3.976	8.132	9.123	0.408	1.753	-7.174	-7.025	-10.541	605.469
3.931	4.049	3.411	3.527	1.781	2.861	-5.742	0.281	-6.931	-12.251	-10.439	-10.959	-3.264	1.664	2.967	3.718	4.520	5.211	5.965	4.003	4.332	8.287	9.280	-0.072	1.032	-8.310	-8.047	-11.486	609.375
4.633	4.768	4.006	4.214	2.208	3.469	-6.193	-0.068	-7.585	-13.036	-11.134	-11.671	-3.723	1.771	3.661	4.305	5.105	5.624	6.359	4.431	4.653	8.413	9.412	-0.625	0.322	-9.472	-9.215	-12.489	613.281
5.289	5.475	4.588	4.907	2.625	4.111	-6.600	-0.342	-8.126	-13.748	-11.777	-12.376	-4.286	1.801	4.330	4.852	5.679	6.066	6.722	4.795	4.894	8.492	9.506	-1.218	-0.304	-10.572	-10.429	-13.470	617.188
5.868	6.116	5.128	5.544	2.976	4.726	-6.963	-0.528	-8.533	-14.361	-12.312	-12.989	-4.915	1.739	4.931	5.313	6.193	6.509	7.018	5.055	5.025	8.512	9.557	-1.809	-0.780	-11.528	-11.584	-14.356	621.094
6.341	6.640	5.600	6.067	3.215	5.259	-7.282	-0.630	-8.808	-14.864	-12.705	-13.441	-5.552	1.592	5.430	5.652	6.602	6.922	7.220	5.178	5.033	8.470	9.565	-2.350	-1.059	-12.268	-12.575	-15.076	625.000
6.688	7.007	5.978	6.425	3.311	5.659	-7.555	-0.658	-8.965	-15.249	-12.943	-13.686	-6.127	1.383	5.796	5.836	6.869	7.275	7.307	5.146	4.921	8.368	9.533	-2.793	-1.115	-12.731	-13.305	-15.572	628.906
6.891	7.184	6.235	6.576	3.248	5.888	-7.772	-0.631	-9.023	-15.510	-13.031	-13.702	-6.569	1.149	6.007	5.843	6.964	7.545	7.268	4.952	4.704	8.211	9.465	-3.093	-0.947	-12.874	-13.699	-15.793	632.812
6.936	7.151	6.343	6.496	3.031	5.923	-7.916	-0.568	-8.996	-15.637	-12.983	-13.489	-6.814	0.931	6.048	5.658	6.873	7.713	7.101	4.602	4.409	8.006	9.364	-3.215	-0.577	-12.668	-13.704	-15.705	636.719
6.813	6.902	6.282	6.181	2.679	5.757	-7.965	-0.485	-8.893	-15.615	-12.817	-13.067	-6.816	0.762	5.916	5.283	6.596	7.766	6.814	4.113	4.061	7.763	9.233	-3.138	-0.044	-12.109	-13.303	-15.288	640.625
6.522	6.446	6.041	5.649	2.221	5.405	-7.897	-0.396	-8.713	-15.430	-12.550	-12.469	-6.561	0.665	5.616	4.733	6.148	7.701	6.421	3.513	3.685	7.488	9.077	-2.861	0.595	-11.221	-12.515	-14.550	644.531
6.073	5.814	5.627	4.941	1.695	4.897	-7.700	-0.307	-8.449	-15.071	-12.195	-11.740	-6.065	0.646	5.172	4.039	5.562	7.524	5.950	2.836	3.301	7.194	8.899	-2.407	1.277	-10.063	-11.403	-13.528	648.438
5.498	5.054	5.071	4.117	1.143	4.282	-7.375	-0.221	-8.098	-14.547	-11.771	-10.934	-5.379	0.691	4.619	3.249	4.889	7.254	5.436	2.124	2.923	6.892	8.707	-1.820	1.936	-8.729	-10.067	-12.296	652.344
4.847	4.235	4.427	3.251	0.603	3.618	-6.945	-0.141	-7.670	-13.888	-11.301	-10.113	-4.579	0.775	4.012	2.425	4.191	6.925	4.921	1.424	2.564	6.601	8.513	-1.164	2.506	-7.346	-8.639	-10.965	656.250
4.189	3.434	3.765	2.421	0.114	2.972	-6.452	-0.069	-7.191	-13.149	-10.822	-9.343	-3.759	0.866	3.416	1.639	3.540	6.578	4.458	0.787	2.236	6.343	8.332	-0.513	2.931	-6.065	-7.273	-9.670	660.156
3.603	2.734	3.163	1.701	-0.293	2.405	-5.959	-0.009	-6.711	-12.413	-10.383	-8.690	-3.016	0.934	2.903	0.965	3.009	6.267	4.096	0.260	1.953	6.147	8.186	0.057	3.169	-5.039	-6.124	-8.560	664.062
3.172	2.210	2.699	1.155	-0.595	1.971	-5.541	0.029	-6.296	-11.781	-10.042	-8.217	-2.438	0.957	2.544	0.471	2.665	6.046	3.885	-0.111	1.732	6.040	8.099	0.476	3.197	-4.407	-5.329	-7.773	667.969
2.964	1.921	2.433	0.830	-0.776	1.705	-5.274	0.032	-6.025	-11.354	-9.860	-7.971	-2.093	0.924	2.398	0.213	2.560	5.966	3.861	-0.291	1.591	6.048	8.093	0.693	3.011	-4.266	-4.988	-7.415	671.875
3.026	1.903	2.400	0.747	-0.830	1.627	-5.221	-0.018	-5.966	-11.224	-9.887	-7.982	-2.020	0.838	2.506	0.224	2.720	6.065	4.043	-0.259	1.547	6.184	8.182	0.683	2.633	-4.654	-5.149	-7.542	675.781
3.372	2.163	2.608	0.905	-0.765	1.730	-5.423	-0.138	-6.171	-11.450	-10.155	-8.255	-2.226	0.713	2.881	0.511	3.145	6.362	4.429	-0.013	1.608	6.446	8.372	0.446	2.104	-5.540	-5.799	-8.149	679.688
3.980	2.676	3.033	1.276	-0.598	1.990	-5.889	-0.341	-6.653	-12.050	-10.665	-8.765	-2.686	0.570	3.503	1.052	3.802	6.849	4.991	0.428	1.775	6.817	8.652	0.012	1.479	-6.825	-6.864	-9.166	683.594
4.792	3.390	3.622	1.808	-0.356	2.363	-6.595	-0.630	-7.383	-12.994	-11.386	-9.462	-3.344	0.430	4.321	1.797	4.633	7.493	5.679	1.025	2.034	7.262	8.998	-0.565	0.826	-8.358	-8.221	-10.473	687.500
5.722	4.230	4.304	2.433	-0.075	2.794	-7.482	-0.992	-8.290	-14.201	-12.254	-10.275	-4.126	0.313	5.259	2.674	5.557	8.235	6.430	1.722	2.359	7.737	9.373	-1.218	0.208	-9.956	-9.717	-11.914	691.406
6.671	5.110	4.998	3.073	0.208	3.222	-8.467	-1.398	-9.272	-15.554	-13.179	-11.118	-4.951	0.229	6.227	3.597	6.485	8.996	7.170	2.454	2.716	8.190	9.738	-1.874	-0.317	-11.440	-11.191	-13.326	695.312
7.539	5.941	5.627	3.654	0.459	3.589	-9.455	-1.811	-10.213	-16.911	-14.063	-11.905	-5.733	0.181	7.131	4.480	7.332	9.694	7.830	3.152	3.062	8.577	10.050	-2.465	-0.709	-12.655	-12.498	-14.564	699.219
8.241	6.648	6.127	4.118	0.648	3.849	-10.346	-2.192	-11.005	-18.126	-14.808	-12.555	-6.403	0.164	7.888	5.243	8.023	10.252	8.354	3.757	3.357	8.863	10.275	-2.935	-0.948	-13.500	-13.524	-15.515	703.125
8.720	7.179	6.453	4.426	0.757	3.969	-11.055	-2.509	-11.566	-19.069	-15.335	-13.009	-6.905	0.170	8.435	5.829	8.507	10.613	8.701	4.222	3.569	9.027	10.392	-3.246	-1.033	-13.929	-14.197	-16.113	707.031
8.947	7.505	6.584	4.567	0.782	3.939	-11.515	-2.744	-11.849	-19.641	-15.593	-13.229	-7.205	0.189	8.735	6.203	8.757	10.747	8.853	4.519	3.678	9.065	10.389	-3.383	-0.980	-13.954	-14.488	-16.335	710.938
8.923	7.622	6.523	4.554	0.729	3.765	-11.686	-2.893	-11.853	-19.784	-15.559	-13.200	-7.290	0.213	8.775	6.353	8.767	10.650	8.810	4.640	3.678	8.986	10.271	-3.346	-0.818	-13.631	-14.407	-16.199	714.844
8.673	7.548	6.286	4.413	0.611	3.473	-11.560	-2.969	-11.607	-19.489	-15.241	-12.933	-7.164	0.239	8.571	6.290	8.558	10.350	8.593	4.593	3.577	8.808	10.052	-3.155	-0.583	-13.041	-13.989	-15.750	718.750
8.241	7.312	5.905	4.182	0.451	3.098	-11.155	-2.991	-11.173	-18.794	-14.676	-12.457	-6.844	0.269	8.156	6.044	8.164	9.893	8.233	4.397	3.395	8.555	9.753	-2.835	-0.312	-12.276	-13.291	-15.052	722.656
7.680	6.952	5.418	3.897	0.269	2.680	-10.519	-2.981	-10.624	-17.778	-13.921	-11.818	-6.361	0.309	7.582	5.653	7.636	9.343	7.775	4.083	3.162	8.254	9.405	-2.419	-0.039	-11.423	-12.376	-14.176	726.562
7.049	6.509	4.867	3.589	0.083	2.257	-9.722	-2.962	-10.039	-16.553	-13.051	-11.072	-5.750	0.367	6.911	5.166	7.028	8.763	7.266	3.685	2.908	7.931	9.040	-1.942	0.206	-10.558	-11.314	-13.196	730.469
6.402	6.022	4.296	3.283	-0.095	1.861	-8.849	-2.951	-9.490	-15.252	-12.149	-10.278	-5.054	0.452	6.210	4.630	6.401	8.219	6.756	3.241	2.664	7.613	8.689	-1.437	0.404	-9.741	-10.178	-12.186	734.375
5.791	5.525	3.747	2.993	-0.257	1.517	-7.994	-2.960	-9.038	-14.013	-11.304	-9.500	-4.322	0.568	5.545	4.096	5.812	7.762	6.290	2.791	2.458	7.327	8.386	-0.939	0.544	-9.022	-9.042	-11.219	738.281
5.261	5.052	3.261	2.729	-0.404	1.236	-7.248	-3.000	-8.728	-12.965	-10.599	-8.795	-3.607	0.713	4.978	3.608	5.311	7.432	5.908	2.373	2.308	7.096	8.157	-0.480	0.624	-8.437	-7.982	-10.359	742.188
4.847	4.631	2.872	2.498	-0.536	1.025	-6.687	-3.076	-8.588	-12.214	-10.104	-8.212	-2.961	0.879	4.558	3.205	4.938	7.249	5.642	2.022	2.226	6.941	8.024	-0.089	0.653	-8.008	-7.071	-9.663	746.094
4.575	4.287	2.608	2.306	-0.657	0.882	-6.369	-3.195	-8.627	-11.826	-9.868	-7.786	-2.435	1.051	4.314	2.914	4.720	7.218	5.508	1.766	2.215	6.875	7.997	0.206	0.644	-7.749	-6.373	-9.173	750.000
4.460	4.036	2.485	2.158	-0.768	0.802	-6.318	-3.356	-8.835	-11.828	-9.909	-7.538	-2.068	1.212	4.257	2.752	4.663	7.327	5.508	1.622	2.270	6.903	8.075	0.388	0.615	-7.658	-5.937	-8.909	753.906
4.499	3.889	2.501	2.064	-0.866	0.777	-6.529	-3.556	-9.185	-12.195	-10.208	-7.467	-1.884	1.346	4.372	2.719	4.758	7.554	5.628	1.596	2.381	7.017	8.246	0.449	0.583	-7.719	-5.786	-8.872	757.812
4.677	3.845	2.641	2.029	-0.948	0.798	-6.962	-3.786	-9.633	-12.864	-10.714	-7.556	-1.888	1.439	4.627	2.802	4.975	7.868	5.843	1.678	2.533	7.199	8.484	0.396	0.561	-7.905	-5.912	-9.038	761.719
4.959	3.890	2.871	2.056	-1.010	0.852	-7.551	-4.028	-10.126	-13.738	-11.348	-7.776	-2.065	1.485	4.972	2.976	5.271	8.234	6.116	1.849	2.708	7.420	8.758	0.245	0.561	-8.178	-6.277	-9.363	765.625
5.302	4.002	3.147	2.139	-1.047	0.927	-8.218	-4.260	-10.605	-14.704	-12.014	-8.085	-2.385	1.484	5.355	3.207	5.600	8.614	6.413	2.082	2.890	7.652	9.038	0.023	0.587	-8.497	-6.819	-9.793	769.531
5.654	4.151	3.419	2.268	-1.059	1.008	-8.879	-4.456	-11.016	-15.653	-12.617	-8.444	-2.806	1.443	5.724	3.460	5.916	8.975	6.700	2.347	3.060	7.864	9.296	-0.239	0.637	-8.820	-7.461	-10.272	773.438
5.965	4.305	3.644	2.426	-1.051	1.080	-9.465	-4.593	-11.317	-16.494	-13.078	-8.815	-3.285	1.369	6.039	3.703	6.182	9.289	6.958	2.615	3.207	8.035	9.516	-0.510	0.706	-9.117	-8.126	-10.750	777.344
6.196	4.436	3.784	2.594	-1.027	1.130	-9.925	-4.655	-11.481	-17.167	-13.348	-9.169	-3.782	1.274	6.277	3.912	6.379	9.537	7.176	2.866	3.322	8.152	9.689	-0.768	0.786	-9.368	-8.752	-11.191	781.250
6.325	4.526	3.824	2.755	-0.995	1.151	-10.241	-4.635	-11.505	-17.651	-13.409	-9.490	-4.269	1.169	6.433	4.075	6.499	9.716	7.358	3.087	3.404	8.213	9.818	-0.998	0.868	-9.569	-9.301	-11.576	785.156
6.350	4.566	3.764	2.899	-0.960	1.140	-10.421	-4.542	-11.405	-17.962	-13.281	-9.772	-4.731	1.061	6.516	4.192	6.553	9.833	7.512	3.276	3.458	8.224	9.914	-1.199	0.946	-9.724	-9.760	-11.904	789.062
6.294	4.564	3.626	3.022	-0.928	1.103	-10.499	-4.393	-11.219	-18.147	-13.017	-10.022	-5.165	0.957	6.547	4.273	6.560	9.906	7.651	3.440	3.492	8.200	9.989	-1.374	1.017	-9.848	-10.143	-12.188	792.969
6.191	4.534	3.444	3.130	-0.900	1.052	-10.525	-4.216	-10.992	-18.271	-12.683	-10.254	-5.577	0.858	6.555	4.332	6.544	9.960	7.787	3.588	3.518	8.161	10.058	-1.532	1.081	-9.958	-10.477	-12.446	796.875
