FP1	F3	F7	FC3	C3	C5	P3	P7	PO7	PO3	O1	Oz	Pz	CPz	FP2	Fz	F4	F8	FC4	FCz	Cz	C4	C6	P4	P8	PO8	PO4	O2	time
0.363	-0.425	-0.145	0.116	0.130	0.585	-1.371	-0.705	-0.502	-0.506	-0.685	-0.609	-0.007	0.240	0.934	0.630	0.162	1.984	0.664	0.871	0.572	0.655	0.695	-0.194	0.317	-0.427	-0.212	-1.065	-199.219
0.364	-0.172	-0.057	0.294	0.209	0.457	-1.392	-0.763	-0.678	-0.519	-0.814	-0.623	0.067	0.274	0.931	0.651	0.394	1.301	0.789	0.905	0.641	0.743	0.643	-0.131	0.190	-0.426	-0.281	-0.919	-195.312
0.374	0.069	0.031	0.462	0.286	0.341	-1.403	-0.810	-0.829	-0.523	-0.929	-0.631	0.141	0.302	0.907	0.664	0.597	0.696	0.881	0.925	0.701	0.807	0.587	-0.071	0.062	-0.429	-0.335	-0.787	-191.406
0.402	0.284	0.120	0.611	0.360	0.251	-1.393	-0.840	-0.937	-0.509	-1.017	-0.634	0.217	0.320	0.847	0.663	0.747	0.227	0.916	0.919	0.745	0.831	0.525	-0.011	-0.065	-0.441	-0.355	-0.681	-187.500
0.448	0.460	0.207	0.730	0.429	0.196	-1.356	-0.843	-0.988	-0.472	-1.066	-0.629	0.295	0.331	0.749	0.644	0.830	-0.079	0.884	0.884	0.771	0.811	0.459	0.049	-0.189	-0.464	-0.333	-0.610	-183.594
0.500	0.588	0.282	0.810	0.493	0.175	-1.288	-0.815	-0.971	-0.411	-1.069	-0.615	0.380	0.336	0.623	0.607	0.846	-0.228	0.785	0.822	0.778	0.747	0.387	0.111	-0.304	-0.494	-0.266	-0.577	-179.688
0.541	0.662	0.338	0.845	0.547	0.183	-1.187	-0.750	-0.887	-0.327	-1.021	-0.589	0.473	0.343	0.488	0.555	0.804	-0.257	0.633	0.739	0.768	0.650	0.312	0.174	-0.405	-0.528	-0.162	-0.578	-175.781
0.550	0.682	0.365	0.832	0.589	0.211	-1.055	-0.649	-0.744	-0.225	-0.923	-0.554	0.572	0.355	0.368	0.492	0.717	-0.217	0.451	0.647	0.744	0.535	0.238	0.239	-0.485	-0.558	-0.031	-0.603	-171.875
0.517	0.651	0.363	0.775	0.615	0.253	-0.899	-0.518	-0.558	-0.116	-0.785	-0.513	0.669	0.374	0.282	0.421	0.598	-0.164	0.264	0.554	0.710	0.421	0.167	0.304	-0.537	-0.578	0.112	-0.642	-167.969
0.440	0.579	0.337	0.682	0.622	0.302	-0.725	-0.368	-0.350	-0.010	-0.623	-0.470	0.749	0.397	0.238	0.345	0.461	-0.140	0.095	0.467	0.664	0.325	0.105	0.364	-0.556	-0.579	0.256	-0.681	-164.062
0.328	0.479	0.299	0.567	0.610	0.356	-0.548	-0.212	-0.145	0.081	-0.455	-0.432	0.798	0.416	0.229	0.266	0.314	-0.163	-0.038	0.387	0.606	0.255	0.054	0.416	-0.543	-0.560	0.393	-0.706	-160.156
0.200	0.364	0.264	0.445	0.576	0.410	-0.381	-0.062	0.038	0.147	-0.302	-0.404	0.801	0.422	0.237	0.183	0.166	-0.229	-0.128	0.312	0.534	0.215	0.018	0.452	-0.499	-0.518	0.517	-0.706	-156.250
0.071	0.250	0.246	0.329	0.522	0.463	-0.238	0.073	0.185	0.183	-0.180	-0.387	0.748	0.404	0.239	0.097	0.024	-0.317	-0.179	0.237	0.444	0.196	-0.005	0.469	-0.428	-0.453	0.625	-0.672	-152.344
-0.045	0.150	0.251	0.230	0.450	0.510	-0.131	0.188	0.290	0.187	-0.096	-0.377	0.638	0.354	0.211	0.009	-0.106	-0.399	-0.199	0.154	0.338	0.186	-0.018	0.465	-0.336	-0.368	0.711	-0.600	-148.438
-0.143	0.072	0.278	0.152	0.363	0.543	-0.065	0.284	0.355	0.162	-0.051	-0.369	0.481	0.271	0.145	-0.079	-0.216	-0.452	-0.203	0.060	0.215	0.167	-0.026	0.438	-0.226	-0.265	0.769	-0.492	-144.531
-0.222	0.018	0.319	0.094	0.264	0.556	-0.038	0.363	0.386	0.111	-0.039	-0.355	0.293	0.159	0.044	-0.162	-0.301	-0.466	-0.205	-0.047	0.083	0.129	-0.036	0.393	-0.102	-0.151	0.792	-0.352	-140.625
-0.284	-0.016	0.360	0.050	0.156	0.539	-0.046	0.425	0.394	0.043	-0.049	-0.328	0.098	0.028	-0.073	-0.235	-0.355	-0.441	-0.217	-0.163	-0.050	0.065	-0.052	0.334	0.030	-0.032	0.773	-0.193	-136.719
-0.324	-0.041	0.386	0.008	0.045	0.486	-0.077	0.472	0.384	-0.036	-0.071	-0.285	-0.079	-0.104	-0.175	-0.291	-0.377	-0.388	-0.241	-0.279	-0.174	-0.022	-0.075	0.266	0.166	0.081	0.710	-0.030	-132.812
-0.337	-0.069	0.386	-0.040	-0.067	0.397	-0.119	0.497	0.364	-0.120	-0.095	-0.227	-0.219	-0.222	-0.234	-0.324	-0.365	-0.318	-0.275	-0.384	-0.276	-0.122	-0.106	0.195	0.297	0.177	0.603	0.119	-128.906
-0.312	-0.109	0.353	-0.103	-0.174	0.276	-0.160	0.497	0.335	-0.208	-0.112	-0.160	-0.310	-0.310	-0.228	-0.330	-0.324	-0.237	-0.310	-0.466	-0.349	-0.220	-0.139	0.125	0.414	0.244	0.462	0.237	-125.000
-0.240	-0.169	0.291	-0.179	-0.271	0.132	-0.189	0.467	0.298	-0.299	-0.120	-0.092	-0.346	-0.357	-0.150	-0.309	-0.258	-0.148	-0.334	-0.513	-0.385	-0.301	-0.168	0.058	0.507	0.271	0.296	0.308	-121.094
-0.123	-0.244	0.208	-0.265	-0.355	-0.019	-0.199	0.405	0.252	-0.395	-0.120	-0.034	-0.334	-0.360	-0.014	-0.261	-0.175	-0.046	-0.335	-0.520	-0.383	-0.352	-0.185	-0.006	0.565	0.251	0.121	0.324	-117.188
0.027	-0.322	0.116	-0.349	-0.421	-0.160	-0.186	0.312	0.199	-0.497	-0.113	0.006	-0.285	-0.321	0.156	-0.192	-0.084	0.073	-0.305	-0.485	-0.346	-0.362	-0.183	-0.066	0.585	0.184	-0.049	0.281	-113.281
0.179	-0.384	0.029	-0.418	-0.465	-0.276	-0.154	0.195	0.138	-0.603	-0.104	0.020	-0.215	-0.250	0.325	-0.107	0.009	0.207	-0.239	-0.412	-0.281	-0.327	-0.155	-0.123	0.566	0.076	-0.203	0.184	-109.375
0.299	-0.410	-0.041	-0.459	-0.483	-0.351	-0.107	0.060	0.071	-0.710	-0.096	0.008	-0.138	-0.159	0.464	-0.013	0.098	0.344	-0.139	-0.310	-0.200	-0.249	-0.101	-0.173	0.514	-0.058	-0.330	0.049	-105.469
0.354	-0.386	-0.090	-0.464	-0.476	-0.381	-0.055	-0.084	0.001	-0.809	-0.092	-0.024	-0.069	-0.065	0.549	0.082	0.182	0.468	-0.015	-0.193	-0.113	-0.140	-0.025	-0.213	0.441	-0.201	-0.424	-0.105	-101.562
0.324	-0.308	-0.116	-0.436	-0.445	-0.367	-0.006	-0.226	-0.066	-0.888	-0.087	-0.067	-0.017	0.019	0.568	0.168	0.258	0.556	0.116	-0.079	-0.036	-0.014	0.063	-0.239	0.359	-0.326	-0.481	-0.249	-97.656
0.211	-0.188	-0.127	-0.383	-0.396	-0.321	0.035	-0.356	-0.124	-0.933	-0.074	-0.101	0.014	0.079	0.519	0.233	0.323	0.594	0.234	0.014	0.019	0.106	0.151	-0.247	0.281	-0.412	-0.497	-0.355	-93.750
0.038	-0.048	-0.132	-0.322	-0.339	-0.259	0.069	-0.463	-0.163	-0.930	-0.043	-0.109	0.023	0.109	0.406	0.265	0.372	0.574	0.317	0.068	0.042	0.199	0.222	-0.234	0.216	-0.438	-0.472	-0.395	-89.844
-0.155	0.081	-0.146	-0.272	-0.284	-0.198	0.101	-0.534	-0.173	-0.868	0.022	-0.075	0.015	0.104	0.240	0.254	0.394	0.499	0.348	0.070	0.027	0.247	0.263	-0.201	0.167	-0.391	-0.404	-0.351	-85.938
-0.324	0.170	-0.175	-0.248	-0.240	-0.154	0.139	-0.558	-0.145	-0.739	0.129	0.013	-0.004	0.067	0.036	0.191	0.379	0.384	0.314	0.013	-0.030	0.236	0.265	-0.151	0.137	-0.270	-0.297	-0.214	-82.031
-0.432	0.196	-0.225	-0.258	-0.216	-0.135	0.193	-0.526	-0.075	-0.541	0.286	0.159	-0.027	0.001	-0.189	0.073	0.313	0.249	0.214	-0.102	-0.123	0.163	0.222	-0.088	0.122	-0.086	-0.155	0.009	-78.125
-0.463	0.149	-0.291	-0.303	-0.213	-0.142	0.270	-0.436	0.038	-0.281	0.488	0.354	-0.050	-0.086	-0.411	-0.094	0.189	0.113	0.054	-0.264	-0.244	0.033	0.139	-0.021	0.121	0.145	0.014	0.298	-74.219
-0.425	0.030	-0.364	-0.376	-0.232	-0.173	0.372	-0.292	0.187	0.028	0.724	0.585	-0.070	-0.185	-0.611	-0.295	0.006	-0.008	-0.149	-0.455	-0.380	-0.139	0.024	0.043	0.134	0.395	0.203	0.621	-70.312
-0.351	-0.145	-0.430	-0.464	-0.266	-0.220	0.496	-0.105	0.359	0.364	0.972	0.829	-0.085	-0.285	-0.770	-0.512	-0.226	-0.106	-0.370	-0.651	-0.514	-0.331	-0.106	0.101	0.160	0.639	0.400	0.943	-66.406
-0.286	-0.353	-0.473	-0.554	-0.309	-0.275	0.632	0.104	0.532	0.701	1.203	1.060	-0.095	-0.373	-0.879	-0.718	-0.486	-0.175	-0.581	-0.826	-0.631	-0.519	-0.233	0.148	0.201	0.851	0.590	1.227	-62.500
-0.270	-0.566	-0.483	-0.631	-0.350	-0.326	0.768	0.312	0.686	1.006	1.389	1.253	-0.102	-0.439	-0.937	-0.889	-0.743	-0.218	-0.753	-0.956	-0.718	-0.676	-0.336	0.186	0.256	1.016	0.755	1.445	-58.594
-0.326	-0.758	-0.455	-0.683	-0.380	-0.363	0.890	0.494	0.797	1.250	1.503	1.386	-0.106	-0.475	-0.955	-1.004	-0.964	-0.238	-0.862	-1.026	-0.763	-0.783	-0.400	0.216	0.321	1.121	0.876	1.578	-54.688
-0.449	-0.903	-0.396	-0.700	-0.389	-0.377	0.986	0.628	0.849	1.408	1.527	1.443	-0.108	-0.477	-0.946	-1.049	-1.118	-0.241	-0.893	-1.027	-0.762	-0.828	-0.418	0.239	0.388	1.166	0.933	1.618	-50.781
-0.605	-0.979	-0.315	-0.677	-0.371	-0.361	1.048	0.701	0.832	1.465	1.453	1.415	-0.111	-0.444	-0.922	-1.019	-1.183	-0.232	-0.845	-0.960	-0.716	-0.810	-0.391	0.252	0.444	1.153	0.913	1.566	-46.875
-0.743	-0.972	-0.232	-0.611	-0.325	-0.317	1.070	0.710	0.748	1.417	1.285	1.303	-0.116	-0.383	-0.890	-0.918	-1.150	-0.217	-0.727	-0.833	-0.633	-0.740	-0.330	0.250	0.471	1.086	0.810	1.433	-42.969
-0.812	-0.877	-0.163	-0.504	-0.253	-0.249	1.054	0.661	0.606	1.275	1.040	1.115	-0.130	-0.302	-0.847	-0.756	-1.025	-0.195	-0.558	-0.660	-0.523	-0.633	-0.252	0.225	0.454	0.973	0.625	1.232	-39.062
-0.772	-0.699	-0.121	-0.362	-0.165	-0.168	1.002	0.567	0.422	1.058	0.742	0.865	-0.158	-0.213	-0.785	-0.552	-0.828	-0.166	-0.363	-0.458	-0.400	-0.507	-0.173	0.168	0.382	0.819	0.368	0.977	-35.156
-0.614	-0.454	-0.108	-0.196	-0.068	-0.088	0.923	0.450	0.218	0.796	0.422	0.573	-0.207	-0.127	-0.693	-0.325	-0.587	-0.126	-0.168	-0.240	-0.276	-0.381	-0.112	0.072	0.250	0.630	0.055	0.685	-31.250
-0.354	-0.167	-0.117	-0.017	0.027	-0.020	0.829	0.332	0.015	0.525	0.112	0.261	-0.280	-0.055	-0.562	-0.095	-0.336	-0.075	0.005	-0.024	-0.165	-0.269	-0.079	-0.065	0.061	0.411	-0.294	0.371	-27.344
-0.034	0.132	-0.130	0.159	0.113	0.031	0.739	0.236	-0.164	0.278	-0.156	-0.044	-0.379	-0.002	-0.389	0.122	-0.109	-0.014	0.136	0.178	-0.073	-0.183	-0.083	-0.241	-0.172	0.170	-0.654	0.052	-23.438
0.292	0.411	-0.127	0.319	0.185	0.065	0.669	0.184	-0.300	0.090	-0.354	-0.317	-0.501	0.028	-0.182	0.308	0.064	0.054	0.213	0.353	-0.007	-0.129	-0.125	-0.446	-0.430	-0.083	-0.998	-0.257	-19.531
0.575	0.642	-0.093	0.451	0.244	0.087	0.639	0.189	-0.377	-0.017	-0.461	-0.535	-0.637	0.035	0.047	0.451	0.159	0.123	0.227	0.490	0.031	-0.114	-0.201	-0.664	-0.691	-0.333	-1.297	-0.536	-15.625
0.776	0.801	-0.022	0.545	0.289	0.106	0.661	0.254	-0.386	-0.030	-0.463	-0.679	-0.777	0.022	0.275	0.542	0.163	0.191	0.178	0.576	0.042	-0.139	-0.306	-0.875	-0.931	-0.561	-1.521	-0.764	-11.719
0.879	0.874	0.074	0.593	0.318	0.127	0.739	0.377	-0.328	0.051	-0.360	-0.733	-0.904	-0.010	0.478	0.574	0.075	0.254	0.070	0.605	0.024	-0.203	-0.428	-1.059	-1.125	-0.748	-1.644	-0.920	-7.812
0.889	0.858	0.176	0.590	0.328	0.150	0.869	0.544	-0.206	0.213	-0.159	-0.693	-1.007	-0.057	0.632	0.545	-0.091	0.307	-0.087	0.573	-0.023	-0.301	-0.554	-1.197	-1.257	-0.871	-1.649	-0.982	-3.906
0.822	0.758	0.253	0.534	0.311	0.168	1.039	0.735	-0.033	0.432	0.119	-0.560	-1.074	-0.119	0.715	0.459	-0.312	0.342	-0.277	0.480	-0.097	-0.423	-0.673	-1.276	-1.315	-0.916	-1.529	-0.939	0.000
0.699	0.587	0.281	0.425	0.258	0.172	1.230	0.927	0.175	0.681	0.450	-0.348	-1.101	-0.194	0.718	0.322	-0.558	0.350	-0.481	0.333	-0.199	-0.553	-0.773	-1.292	-1.298	-0.871	-1.292	-0.788	3.906
0.540	0.363	0.240	0.268	0.164	0.150	1.419	1.100	0.398	0.928	0.803	-0.077	-1.089	-0.284	0.642	0.144	-0.797	0.322	-0.680	0.142	-0.327	-0.675	-0.844	-1.245	-1.212	-0.735	-0.960	-0.536	7.812
0.360	0.107	0.128	0.072	0.027	0.098	1.587	1.235	0.618	1.150	1.147	0.226	-1.046	-0.387	0.497	-0.063	-1.004	0.254	-0.856	-0.081	-0.477	-0.774	-0.881	-1.146	-1.068	-0.519	-0.562	-0.204	11.719
0.169	-0.161	-0.046	-0.150	-0.146	0.017	1.720	1.326	0.816	1.327	1.454	0.533	-0.980	-0.503	0.302	-0.286	-1.163	0.150	-0.996	-0.320	-0.641	-0.837	-0.882	-1.008	-0.885	-0.240	-0.135	0.178	15.625
-0.029	-0.421	-0.260	-0.382	-0.340	-0.083	1.812	1.368	0.979	1.451	1.702	0.817	-0.903	-0.628	0.078	-0.512	-1.265	0.021	-1.093	-0.562	-0.812	-0.862	-0.851	-0.851	-0.682	0.076	0.288	0.577	19.531
-0.229	-0.654	-0.484	-0.607	-0.536	-0.189	1.864	1.369	1.095	1.521	1.875	1.055	-0.823	-0.754	-0.155	-0.728	-1.314	-0.116	-1.151	-0.795	-0.975	-0.852	-0.794	-0.692	-0.477	0.401	0.680	0.961	23.438
-0.430	-0.845	-0.691	-0.805	-0.711	-0.286	1.881	1.334	1.156	1.543	1.966	1.229	-0.748	-0.872	-0.374	-0.920	-1.318	-0.246	-1.176	-1.003	-1.118	-0.813	-0.721	-0.545	-0.284	0.706	1.020	1.302	27.344
-0.620	-0.979	-0.857	-0.956	-0.845	-0.362	1.874	1.271	1.160	1.527	1.971	1.330	-0.681	-0.971	-0.561	-1.076	-1.286	-0.354	-1.176	-1.175	-1.227	-0.756	-0.639	-0.422	-0.111	0.967	1.296	1.582	31.250
-0.784	-1.047	-0.968	-1.046	-0.926	-0.413	1.853	1.188	1.104	1.482	1.894	1.352	-0.624	-1.040	-0.697	-1.183	-1.231	-0.428	-1.160	-1.297	-1.290	-0.693	-0.558	-0.329	0.034	1.167	1.501	1.788	35.156
-0.901	-1.045	-1.022	-1.064	-0.946	-0.439	1.825	1.087	0.993	1.418	1.746	1.299	-0.578	-1.072	-0.773	-1.234	-1.163	-0.460	-1.134	-1.360	-1.299	-0.629	-0.481	-0.269	0.149	1.298	1.633	1.921	39.062
-0.952	-0.974	-1.027	-1.009	-0.907	-0.446	1.798	0.973	0.840	1.345	1.550	1.183	-0.542	-1.062	-0.786	-1.228	-1.095	-0.446	-1.101	-1.360	-1.252	-0.569	-0.412	-0.238	0.234	1.364	1.693	1.988	42.969
-0.931	-0.847	-1.004	-0.889	-0.815	-0.441	1.778	0.854	0.669	1.280	1.341	1.023	-0.512	-1.012	-0.748	-1.172	-1.041	-0.391	-1.062	-1.300	-1.154	-0.517	-0.353	-0.232	0.287	1.379	1.685	2.008	46.875
-0.855	-0.684	-0.979	-0.724	-0.686	-0.431	1.772	0.743	0.515	1.241	1.166	0.851	-0.484	-0.929	-0.685	-1.083	-1.018	-0.309	-1.020	-1.195	-1.021	-0.476	-0.305	-0.245	0.313	1.369	1.622	2.009	50.781
-0.761	-0.516	-0.980	-0.543	-0.536	-0.419	1.791	0.663	0.428	1.256	1.084	0.709	-0.454	-0.826	-0.632	-0.985	-1.039	-0.228	-0.984	-1.067	-0.873	-0.452	-0.272	-0.270	0.315	1.367	1.526	2.026	54.688
-0.706	-0.383	-1.033	-0.383	-0.391	-0.408	1.848	0.640	0.461	1.353	1.158	0.646	-0.416	-0.721	-0.628	-0.913	-1.119	-0.186	-0.964	-0.951	-0.738	-0.453	-0.260	-0.296	0.304	1.409	1.430	2.097	58.594
-0.750	-0.329	-1.159	-0.282	-0.277	-0.403	1.956	0.703	0.668	1.564	1.444	0.709	-0.367	-0.633	-0.715	-0.903	-1.266	-0.226	-0.980	-0.885	-0.647	-0.491	-0.278	-0.317	0.291	1.531	1.373	2.262	62.500
-0.946	-0.395	-1.371	-0.278	-0.221	-0.409	2.125	0.876	1.092	1.912	1.983	0.941	-0.307	-0.582	-0.930	-0.988	-1.486	-0.386	-1.050	-0.905	-0.629	-0.576	-0.334	-0.321	0.291	1.763	1.399	2.556	66.406
-1.319	-0.610	-1.670	-0.398	-0.247	-0.434	2.360	1.175	1.758	2.407	2.792	1.369	-0.240	-0.585	-1.299	-1.195	-1.778	-0.688	-1.191	-1.044	-0.709	-0.718	-0.432	-0.301	0.320	2.126	1.545	3.003	70.312
-1.864	-0.985	-2.047	-0.655	-0.372	-0.489	2.654	1.605	2.663	3.044	3.854	1.996	-0.174	-0.653	-1.833	-1.537	-2.141	-1.134	-1.415	-1.320	-0.901	-0.922	-0.576	-0.251	0.388	2.623	1.832	3.608	74.219
-2.542	-1.512	-2.485	-1.046	-0.601	-0.587	2.992	2.155	3.780	3.797	5.122	2.804	-0.121	-0.791	-2.513	-2.012	-2.572	-1.699	-1.728	-1.735	-1.208	-1.187	-0.764	-0.167	0.502	3.243	2.256	4.356	78.125
-3.294	-2.161	-2.958	-1.551	-0.927	-0.737	3.353	2.805	5.053	4.623	6.527	3.752	-0.091	-0.996	-3.298	-2.602	-3.067	-2.339	-2.125	-2.275	-1.618	-1.507	-0.992	-0.053	0.660	3.955	2.791	5.213	82.031
-4.055	-2.887	-3.440	-2.135	-1.332	-0.941	3.715	3.521	6.409	5.471	7.978	4.782	-0.093	-1.256	-4.119	-3.279	-3.624	-2.994	-2.593	-2.908	-2.109	-1.871	-1.251	0.085	0.852	4.714	3.385	6.124	85.938
-4.768	-3.639	-3.905	-2.754	-1.781	-1.191	4.059	4.262	7.761	6.284	9.386	5.830	-0.130	-1.554	-4.892	-4.001	-4.235	-3.600	-3.108	-3.593	-2.643	-2.262	-1.530	0.236	1.064	5.464	3.980	7.027	89.844
-5.393	-4.360	-4.327	-3.357	-2.235	-1.468	4.368	4.980	9.017	7.009	10.659	6.826	-0.198	-1.862	-5.538	-4.723	-4.885	-4.104	-3.639	-4.276	-3.174	-2.653	-1.811	0.389	1.277	6.147	4.515	7.858	93.750
-5.906	-4.998	-4.685	-3.895	-2.647	-1.744	4.633	5.625	10.086	7.600	11.718	7.708	-0.288	-2.151	-5.997	-5.394	-5.542	-4.465	-4.144	-4.904	-3.653	-3.014	-2.071	0.532	1.470	6.705	4.941	8.557	97.656
-6.293	-5.507	-4.957	-4.322	-2.976	-1.982	4.847	6.146	10.885	8.020	12.496	8.419	-0.388	-2.387	-6.242	-5.967	-6.160	-4.661	-4.579	-5.424	-4.035	-3.311	-2.287	0.654	1.623	7.090	5.229	9.079	101.562
-6.544	-5.849	-5.120	-4.603	-3.188	-2.147	5.002	6.500	11.347	8.244	12.944	8.918	-0.485	-2.546	-6.281	-6.394	-6.677	-4.687	-4.899	-5.791	-4.281	-3.513	-2.436	0.750	1.717	7.266	5.367	9.393	105.469
-6.649	-5.997	-5.155	-4.714	-3.263	-2.208	5.090	6.657	11.431	8.258	13.029	9.174	-0.569	-2.607	-6.154	-6.639	-7.033	-4.554	-5.071	-5.975	-4.371	-3.595	-2.500	0.814	1.736	7.211	5.359	9.484	109.375
-6.602	-5.934	-5.049	-4.645	-3.197	-2.145	5.104	6.607	11.122	8.058	12.743	9.175	-0.632	-2.564	-5.911	-6.677	-7.171	-4.283	-5.072	-5.959	-4.299	-3.546	-2.470	0.845	1.668	6.926	5.215	9.357	113.281
-6.400	-5.660	-4.798	-4.403	-3.002	-1.953	5.036	6.357	10.441	7.654	12.101	8.923	-0.673	-2.421	-5.605	-6.501	-7.059	-3.901	-4.901	-5.745	-4.078	-3.368	-2.348	0.845	1.512	6.429	4.951	9.026	117.188
-6.049	-5.189	-4.411	-4.009	-2.701	-1.640	4.885	5.937	9.440	7.070	11.142	8.438	-0.691	-2.192	-5.268	-6.124	-6.693	-3.441	-4.574	-5.352	-3.731	-3.075	-2.146	0.819	1.274	5.755	4.583	8.517	121.094
-5.570	-4.554	-3.911	-3.496	-2.325	-1.232	4.658	5.391	8.202	6.344	9.932	7.751	-0.690	-1.897	-4.917	-5.579	-6.101	-2.939	-4.121	-4.812	-3.290	-2.691	-1.885	0.774	0.967	4.954	4.123	7.866	125.000
-4.991	-3.804	-3.333	-2.907	-1.909	-0.762	4.368	4.774	6.827	5.523	8.554	6.905	-0.673	-1.561	-4.548	-4.915	-5.338	-2.431	-3.583	-4.169	-2.791	-2.245	-1.589	0.716	0.611	4.080	3.588	7.108	128.906
-4.350	-2.995	-2.718	-2.288	-1.483	-0.271	4.038	4.144	5.428	4.665	7.104	5.952	-0.645	-1.206	-4.150	-4.193	-4.479	-1.954	-3.006	-3.472	-2.266	-1.769	-1.287	0.652	0.228	3.192	2.999	6.284	132.812
-3.685	-2.194	-2.109	-1.684	-1.073	0.203	3.697	3.554	4.116	3.832	5.685	4.951	-0.608	-0.856	-3.717	-3.475	-3.608	-1.539	-2.432	-2.769	-1.747	-1.296	-1.005	0.585	-0.162	2.346	2.387	5.436	136.719
-3.035	-1.460	-1.549	-1.137	-0.699	0.626	3.373	3.051	2.990	3.083	4.399	3.966	-0.564	-0.529	-3.257	-2.820	-2.807	-1.206	-1.904	-2.109	-1.260	-0.859	-0.766	0.513	-0.542	1.588	1.790	4.609	140.625
-2.436	-0.849	-1.071	-0.679	-0.378	0.974	3.096	2.673	2.129	2.469	3.335	3.061	-0.519	-0.244	-2.795	-2.276	-2.147	-0.970	-1.458	-1.534	-0.829	-0.488	-0.591	0.434	-0.900	0.956	1.251	3.848	144.531
-1.922	-0.397	-0.699	-0.332	-0.119	1.232	2.891	2.441	1.587	2.031	2.566	2.296	-0.474	-0.015	-2.372	-1.880	-1.680	-0.835	-1.123	-1.077	-0.476	-0.211	-0.493	0.343	-1.223	0.480	0.816	3.198	148.438
-1.526	-0.127	-0.448	-0.104	0.068	1.398	2.777	2.366	1.386	1.795	2.139	1.723	-0.434	0.142	-2.035	-1.652	-1.432	-0.799	-0.922	-0.767	-0.217	-0.046	-0.479	0.238	-1.505	0.174	0.520	2.701	152.344
-1.284	-0.038	-0.320	0.003	0.179	1.477	2.766	2.445	1.523	1.771	2.077	1.383	-0.406	0.218	-1.832	-1.595	-1.408	-0.860	-0.866	-0.617	-0.068	-0.007	-0.550	0.117	-1.735	0.045	0.384	2.391	156.250
-1.228	-0.115	-0.310	0.001	0.210	1.478	2.859	2.664	1.968	1.952	2.373	1.297	-0.395	0.203	-1.799	-1.705	-1.587	-1.009	-0.958	-0.634	-0.041	-0.097	-0.698	-0.014	-1.906	0.091	0.411	2.293	160.156
-1.381	-0.324	-0.403	-0.098	0.163	1.414	3.049	3.000	2.674	2.317	2.997	1.470	-0.410	0.094	-1.951	-1.962	-1.935	-1.238	-1.186	-0.815	-0.139	-0.307	-0.910	-0.148	-2.009	0.300	0.582	2.417	164.062
-1.747	-0.631	-0.581	-0.276	0.041	1.297	3.320	3.424	3.581	2.833	3.896	1.885	-0.457	-0.107	-2.286	-2.345	-2.405	-1.536	-1.533	-1.148	-0.361	-0.620	-1.169	-0.273	-2.038	0.655	0.866	2.757	167.969
-2.306	-1.001	-0.827	-0.522	-0.147	1.139	3.649	3.906	4.627	3.462	5.006	2.508	-0.539	-0.390	-2.779	-2.828	-2.953	-1.891	-1.970	-1.614	-0.700	-1.015	-1.456	-0.376	-1.989	1.134	1.226	3.292	171.875
-3.012	-1.407	-1.123	-0.825	-0.390	0.948	4.011	4.421	5.753	4.163	6.257	3.293	-0.658	-0.741	-3.395	-3.386	-3.540	-2.293	-2.471	-2.190	-1.141	-1.465	-1.757	-0.447	-1.861	1.714	1.622	3.986	175.781
-3.797	-1.836	-1.453	-1.181	-0.674	0.734	4.383	4.949	6.909	4.902	7.578	4.184	-0.806	-1.139	-4.090	-3.997	-4.142	-2.732	-3.009	-2.849	-1.662	-1.945	-2.057	-0.476	-1.655	2.368	2.023	4.792	179.688
-4.583	-2.286	-1.804	-1.584	-0.981	0.509	4.743	5.476	8.052	5.647	8.903	5.120	-0.971	-1.561	-4.823	-4.642	-4.747	-3.195	-3.562	-3.563	-2.238	-2.434	-2.348	-0.462	-1.379	3.068	2.409	5.656	183.594
-5.297	-2.756	-2.161	-2.027	-1.291	0.287	5.080	5.997	9.148	6.377	10.173	6.044	-1.138	-1.982	-5.552	-5.300	-5.352	-3.669	-4.115	-4.303	-2.840	-2.914	-2.625	-0.406	-1.042	3.785	2.768	6.519	187.500
-5.881	-3.245	-2.509	-2.495	-1.584	0.085	5.384	6.508	10.167	7.068	11.334	6.898	-1.291	-2.379	-6.241	-5.954	-5.955	-4.133	-4.652	-5.036	-3.435	-3.371	-2.885	-0.317	-0.658	4.489	3.093	7.326	191.406
-6.307	-3.736	-2.832	-2.963	-1.837	-0.079	5.652	7.002	11.083	7.701	12.339	7.631	-1.417	-2.734	-6.860	-6.580	-6.549	-4.565	-5.162	-5.730	-3.993	-3.793	-3.122	-0.208	-0.248	5.146	3.381	8.026	195.312
-6.576	-4.202	-3.110	-3.398	-2.033	-0.190	5.881	7.468	11.870	8.254	13.148	8.201	-1.506	-3.032	-7.384	-7.154	-7.114	-4.940	-5.627	-6.352	-4.484	-4.171	-3.332	-0.094	0.167	5.727	3.629	8.578	199.219
-6.715	-4.605	-3.325	-3.764	-2.162	-0.243	6.070	7.892	12.506	8.702	13.731	8.577	-1.557	-3.261	-7.796	-7.648	-7.616	-5.239	-6.027	-6.872	-4.884	-4.494	-3.507	0.011	0.562	6.206	3.829	8.954	203.125
-6.764	-4.905	-3.462	-4.032	-2.219	-0.238	6.218	8.252	12.972	9.026	14.070	8.743	-1.572	-3.418	-8.084	-8.036	-8.016	-5.450	-6.343	-7.265	-5.176	-4.753	-3.639	0.095	0.917	6.564	3.971	9.145	207.031
-6.770	-5.069	-3.514	-4.182	-2.208	-0.186	6.324	8.532	13.261	9.214	14.162	8.701	-1.558	-3.501	-8.247	-8.297	-8.274	-5.574	-6.556	-7.516	-5.352	-4.939	-3.721	0.152	1.213	6.794	4.046	9.156	210.938
-6.766	-5.082	-3.483	-4.210	-2.138	-0.104	6.391	8.717	13.379	9.265	14.027	8.475	-1.520	-3.514	-8.292	-8.421	-8.366	-5.623	-6.658	-7.619	-5.413	-5.049	-3.750	0.179	1.443	6.901	4.046	9.013	214.844
-6.773	-4.956	-3.386	-4.131	-2.023	-0.010	6.423	8.803	13.343	9.194	13.701	8.108	-1.463	-3.462	-8.236	-8.411	-8.288	-5.619	-6.651	-7.584	-5.370	-5.083	-3.729	0.181	1.605	6.903	3.974	8.753	218.750
-6.789	-4.726	-3.254	-3.977	-1.879	0.079	6.430	8.796	13.186	9.031	13.239	7.658	-1.387	-3.353	-8.101	-8.285	-8.065	-5.591	-6.552	-7.434	-5.241	-5.046	-3.665	0.165	1.707	6.826	3.840	8.424	222.656
-6.800	-4.447	-3.124	-3.787	-1.726	0.148	6.425	8.713	12.949	8.814	12.710	7.192	-1.290	-3.195	-7.910	-8.074	-7.745	-5.568	-6.389	-7.200	-5.051	-4.953	-3.573	0.141	1.761	6.705	3.670	8.077	226.562
-6.781	-4.182	-3.036	-3.605	-1.580	0.189	6.426	8.575	12.678	8.591	12.182	6.777	-1.165	-2.999	-7.686	-7.821	-7.392	-5.573	-6.200	-6.920	-4.825	-4.821	-3.468	0.122	1.780	6.574	3.493	7.762	230.469
-6.715	-3.989	-3.022	-3.469	-1.457	0.197	6.448	8.403	12.413	8.404	11.720	6.471	-1.008	-2.775	-7.449	-7.569	-7.072	-5.617	-6.020	-6.633	-4.589	-4.668	-3.366	0.119	1.779	6.464	3.346	7.521	234.375
-6.596	-3.910	-3.097	-3.403	-1.369	0.169	6.504	8.217	12.186	8.285	11.372	6.311	-0.814	-2.534	-7.222	-7.358	-6.838	-5.702	-5.876	-6.373	-4.363	-4.510	-3.275	0.143	1.769	6.396	3.261	7.385	238.281
-6.441	-3.958	-3.263	-3.413	-1.324	0.101	6.598	8.028	12.014	8.253	11.164	6.314	-0.585	-2.285	-7.027	-7.217	-6.719	-5.820	-5.781	-6.165	-4.161	-4.354	-3.198	0.205	1.759	6.386	3.263	7.367	242.188
-6.280	-4.124	-3.502	-3.488	-1.324	-0.007	6.730	7.841	11.903	8.308	11.095	6.469	-0.324	-2.037	-6.888	-7.156	-6.716	-5.956	-5.735	-6.019	-3.991	-4.205	-3.128	0.307	1.758	6.434	3.362	7.466	246.094
-6.149	-4.373	-3.783	-3.603	-1.366	-0.153	6.891	7.659	11.841	8.434	11.143	6.744	-0.040	-1.795	-6.822	-7.173	-6.807	-6.092	-5.723	-5.937	-3.851	-4.059	-3.054	0.452	1.769	6.533	3.552	7.665	250.000
-6.079	-4.661	-4.066	-3.727	-1.439	-0.330	7.065	7.480	11.813	8.606	11.266	7.091	0.255	-1.563	-6.837	-7.249	-6.953	-6.215	-5.731	-5.907	-3.738	-3.914	-2.969	0.633	1.797	6.669	3.810	7.933	253.906
-6.085	-4.940	-4.311	-3.829	-1.530	-0.523	7.237	7.307	11.796	8.788	11.414	7.457	0.547	-1.343	-6.930	-7.356	-7.115	-6.315	-5.745	-5.912	-3.643	-3.771	-2.870	0.841	1.842	6.823	4.104	8.235	257.812
-6.165	-5.171	-4.485	-3.887	-1.621	-0.711	7.389	7.144	11.770	8.949	11.539	7.790	0.825	-1.135	-7.084	-7.466	-7.259	-6.387	-5.756	-5.931	-3.557	-3.632	-2.759	1.061	1.900	6.976	4.393	8.533	261.719
-6.300	-5.327	-4.570	-3.887	-1.698	-0.871	7.509	6.997	11.719	9.063	11.602	8.050	1.079	-0.942	-7.267	-7.552	-7.361	-6.426	-5.763	-5.945	-3.473	-3.504	-2.646	1.280	1.963	7.109	4.642	8.789	265.625
-6.465	-5.400	-4.567	-3.834	-1.750	-0.984	7.587	6.873	11.634	9.112	11.579	8.209	1.302	-0.763	-7.444	-7.599	-7.409	-6.429	-5.768	-5.939	-3.384	-3.389	-2.537	1.487	2.020	7.208	4.825	8.978	269.531
-6.635	-5.396	-4.495	-3.740	-1.773	-1.040	7.620	6.776	11.510	9.090	11.462	8.256	1.493	-0.599	-7.577	-7.599	-7.403	-6.388	-5.766	-5.905	-3.287	-3.287	-2.437	1.675	2.059	7.265	4.928	9.078	273.438
-6.793	-5.329	-4.388	-3.624	-1.769	-1.039	7.609	6.706	11.349	9.001	11.258	8.195	1.655	-0.447	-7.642	-7.552	-7.344	-6.301	-5.753	-5.837	-3.182	-3.188	-2.344	1.841	2.072	7.275	4.950	9.083	277.344
-6.934	-5.217	-4.282	-3.508	-1.744	-0.990	7.563	6.659	11.155	8.855	10.987	8.039	1.793	-0.306	-7.630	-7.466	-7.236	-6.167	-5.713	-5.736	-3.067	-3.081	-2.248	1.987	2.051	7.238	4.902	8.994	281.250
-7.058	-5.075	-4.207	-3.404	-1.702	-0.906	7.496	6.626	10.934	8.668	10.669	7.808	1.914	-0.172	-7.555	-7.347	-7.078	-5.990	-5.630	-5.605	-2.943	-2.949	-2.138	2.117	1.997	7.157	4.800	8.819	285.156
-7.169	-4.912	-4.181	-3.319	-1.648	-0.801	7.420	6.595	10.690	8.453	10.327	7.522	2.024	-0.041	-7.449	-7.204	-6.867	-5.782	-5.483	-5.445	-2.810	-2.780	-1.999	2.233	1.915	7.033	4.667	8.574	289.062
-7.266	-4.729	-4.200	-3.251	-1.583	-0.687	7.349	6.556	10.431	8.224	9.977	7.197	2.127	0.090	-7.354	-7.041	-6.600	-5.559	-5.259	-5.260	-2.668	-2.567	-1.821	2.338	1.815	6.872	4.521	8.277	292.969
-7.337	-4.529	-4.250	-3.188	-1.508	-0.572	7.287	6.503	10.160	7.988	9.631	6.848	2.223	0.224	-7.308	-6.860	-6.277	-5.338	-4.948	-5.051	-2.517	-2.310	-1.604	2.432	1.707	6.676	4.379	7.946	296.875
-7.364	-4.313	-4.304	-3.119	-1.422	-0.462	7.235	6.431	9.886	7.753	9.294	6.484	2.309	0.360	-7.333	-6.664	-5.909	-5.136	-4.555	-4.822	-2.358	-2.020	-1.353	2.510	1.603	6.450	4.254	7.599	300.781
-7.330	-4.085	-4.336	-3.028	-1.322	-0.361	7.190	6.343	9.615	7.523	8.969	6.114	2.384	0.498	-7.422	-6.455	-5.515	-4.965	-4.098	-4.576	-2.192	-1.715	-1.085	2.570	1.510	6.204	4.151	7.250	304.688
-7.224	-3.853	-4.329	-2.904	-1.211	-0.272	7.146	6.246	9.356	7.302	8.659	5.748	2.444	0.634	-7.548	-6.238	-5.125	-4.835	-3.606	-4.316	-2.020	-1.417	-0.821	2.609	1.433	5.944	4.072	6.911	308.594
-7.054	-3.626	-4.278	-2.743	-1.088	-0.194	7.099	6.146	9.119	7.096	8.369	5.397	2.490	0.767	-7.669	-6.018	-4.770	-4.749	-3.117	-4.049	-1.842	-1.144	-0.580	2.626	1.371	5.684	4.015	6.594	312.500
-6.844	-3.414	-4.193	-2.544	-0.954	-0.125	7.050	6.053	8.911	6.913	8.106	5.076	2.528	0.896	-7.743	-5.802	-4.480	-4.710	-2.668	-3.778	-1.660	-0.913	-0.381	2.624	1.321	5.433	3.976	6.304	316.406
-6.632	-3.221	-4.091	-2.313	-0.811	-0.060	7.005	5.969	8.736	6.761	7.877	4.800	2.564	1.022	-7.739	-5.594	-4.269	-4.716	-2.291	-3.509	-1.472	-0.729	-0.233	2.610	1.278	5.201	3.950	6.046	320.312
-6.459	-3.043	-3.994	-2.060	-0.659	0.006	6.973	5.893	8.589	6.649	7.688	4.583	2.608	1.146	-7.647	-5.398	-4.143	-4.765	-2.008	-3.247	-1.282	-0.591	-0.134	2.594	1.240	4.992	3.931	5.820	324.219
-6.356	-2.870	-3.922	-1.795	-0.497	0.078	6.965	5.818	8.461	6.578	7.537	4.434	2.669	1.273	-7.478	-5.212	-4.089	-4.852	-1.825	-2.995	-1.088	-0.492	-0.078	2.587	1.201	4.809	3.915	5.624	328.125
-6.340	-2.684	-3.886	-1.528	-0.325	0.161	6.986	5.734	8.335	6.543	7.416	4.351	2.753	1.402	-7.257	-5.033	-4.086	-4.969	-1.734	-2.755	-0.894	-0.422	-0.052	2.596	1.164	4.649	3.897	5.456	332.031
-6.404	-2.470	-3.888	-1.265	-0.144	0.254	7.039	5.628	8.191	6.529	7.307	4.325	2.862	1.534	-7.018	-4.857	-4.109	-5.104	-1.714	-2.529	-0.701	-0.369	-0.039	2.628	1.129	4.507	3.872	5.313	335.938
-6.526	-2.222	-3.923	-1.014	0.040	0.354	7.117	5.494	8.009	6.516	7.192	4.339	2.993	1.667	-6.793	-4.681	-4.130	-5.240	-1.738	-2.316	-0.514	-0.323	-0.025	2.685	1.102	4.380	3.841	5.192	339.844
-6.672	-1.942	-3.981	-0.781	0.220	0.452	7.204	5.328	7.776	6.482	7.047	4.372	3.141	1.796	-6.607	-4.504	-4.129	-5.355	-1.779	-2.119	-0.336	-0.276	0.003	2.766	1.092	4.268	3.805	5.092	343.750
-6.808	-1.650	-4.048	-0.576	0.384	0.538	7.284	5.137	7.490	6.409	6.856	4.398	3.296	1.916	-6.476	-4.331	-4.093	-5.426	-1.812	-1.939	-0.172	-0.222	0.055	2.866	1.107	4.173	3.770	5.012	347.656
-6.905	-1.373	-4.111	-0.411	0.521	0.599	7.338	4.934	7.157	6.287	6.612	4.396	3.447	2.024	-6.405	-4.166	-4.016	-5.434	-1.819	-1.778	-0.029	-0.158	0.134	2.979	1.154	4.097	3.746	4.951	351.562
-6.946	-1.143	-4.159	-0.295	0.624	0.630	7.347	4.734	6.796	6.119	6.318	4.352	3.586	2.115	-6.391	-4.019	-3.901	-5.370	-1.791	-1.640	0.091	-0.084	0.239	3.094	1.235	4.047	3.744	4.904	355.469
-6.927	-0.986	-4.181	-0.236	0.687	0.626	7.303	4.558	6.436	5.917	5.990	4.259	3.703	2.187	-6.427	-3.894	-3.759	-5.235	-1.731	-1.527	0.181	-0.003	0.362	3.202	1.346	4.022	3.772	4.866	359.375
-6.855	-0.918	-4.167	-0.237	0.713	0.596	7.206	4.423	6.107	5.708	5.655	4.122	3.794	2.237	-6.501	-3.800	-3.603	-5.049	-1.648	-1.443	0.239	0.080	0.492	3.293	1.476	4.019	3.834	4.826	363.281
-6.743	-0.940	-4.111	-0.291	0.710	0.554	7.067	4.345	5.844	5.521	5.345	3.953	3.857	2.267	-6.601	-3.738	-3.453	-4.842	-1.559	-1.394	0.263	0.157	0.611	3.358	1.603	4.030	3.928	4.776	367.188
-6.608	-1.041	-4.012	-0.385	0.690	0.522	6.905	4.337	5.675	5.385	5.092	3.767	3.895	2.276	-6.713	-3.712	-3.330	-4.648	-1.485	-1.382	0.256	0.219	0.700	3.390	1.706	4.040	4.045	4.703	371.094
-6.462	-1.202	-3.874	-0.498	0.668	0.522	6.749	4.406	5.620	5.324	4.922	3.585	3.911	2.264	-6.820	-3.723	-3.252	-4.501	-1.448	-1.413	0.219	0.254	0.741	3.384	1.763	4.035	4.167	4.600	375.000
-6.315	-1.399	-3.706	-0.610	0.654	0.577	6.625	4.555	5.687	5.350	4.846	3.421	3.910	2.233	-6.897	-3.770	-3.242	-4.421	-1.470	-1.488	0.157	0.250	0.720	3.335	1.760	3.998	4.275	4.462	378.906
-6.172	-1.605	-3.525	-0.703	0.657	0.696	6.556	4.780	5.872	5.462	4.864	3.285	3.895	2.183	-6.918	-3.853	-3.313	-4.411	-1.569	-1.606	0.075	0.198	0.627	3.239	1.692	3.918	4.346	4.288	382.812
-6.034	-1.800	-3.349	-0.765	0.677	0.877	6.555	5.069	6.153	5.642	4.959	3.183	3.868	2.114	-6.856	-3.970	-3.474	-4.461	-1.752	-1.765	-0.024	0.094	0.462	3.098	1.566	3.787	4.359	4.083	386.719
-5.900	-1.964	-3.196	-0.792	0.711	1.106	6.623	5.402	6.498	5.862	5.103	3.112	3.830	2.029	-6.697	-4.113	-3.720	-4.543	-2.016	-1.956	-0.134	-0.059	0.237	2.916	1.396	3.606	4.300	3.854	390.625
-5.769	-2.086	-3.083	-0.788	0.749	1.355	6.746	5.750	6.861	6.082	5.261	3.066	3.783	1.933	-6.444	-4.273	-4.028	-4.624	-2.340	-2.163	-0.247	-0.247	-0.027	2.701	1.208	3.383	4.164	3.613	394.531
-5.642	-2.156	-3.015	-0.762	0.782	1.590	6.900	6.078	7.188	6.260	5.396	3.039	3.730	1.834	-6.115	-4.434	-4.363	-4.670	-2.686	-2.370	-0.355	-0.445	-0.296	2.469	1.025	3.129	3.958	3.371	398.438
-5.522	-2.168	-2.989	-0.729	0.801	1.778	7.055	6.345	7.428	6.358	5.471	3.021	3.674	1.744	-5.745	-4.576	-4.675	-4.651	-3.011	-2.556	-0.447	-0.627	-0.535	2.241	0.873	2.859	3.696	3.140	402.344
-5.416	-2.121	-2.991	-0.702	0.801	1.898	7.177	6.517	7.534	6.347	5.460	3.001	3.619	1.672	-5.374	-4.683	-4.913	-4.548	-3.268	-2.702	-0.511	-0.762	-0.710	2.037	0.769	2.590	3.401	2.931	406.250
-5.327	-2.022	-3.004	-0.692	0.781	1.939	7.237	6.567	7.474	6.214	5.347	2.971	3.570	1.629	-5.039	-4.741	-5.035	-4.354	-3.421	-2.797	-0.540	-0.828	-0.795	1.876	0.722	2.335	3.098	2.747	410.156
-5.256	-1.884	-3.008	-0.707	0.747	1.907	7.214	6.485	7.239	5.966	5.127	2.920	3.530	1.620	-4.767	-4.746	-5.019	-4.078	-3.445	-2.836	-0.526	-0.808	-0.778	1.772	0.732	2.103	2.809	2.592	414.062
-5.190	-1.729	-2.993	-0.749	0.708	1.823	7.104	6.275	6.838	5.622	4.809	2.837	3.502	1.650	-4.569	-4.701	-4.865	-3.739	-3.340	-2.820	-0.468	-0.699	-0.661	1.729	0.787	1.898	2.556	2.460	417.969
-5.112	-1.583	-2.954	-0.816	0.675	1.713	6.916	5.955	6.303	5.215	4.408	2.712	3.488	1.719	-4.437	-4.619	-4.600	-3.363	-3.119	-2.757	-0.366	-0.507	-0.461	1.745	0.869	1.718	2.348	2.340	421.875
-4.996	-1.469	-2.897	-0.897	0.660	1.605	6.670	5.556	5.677	4.784	3.950	2.537	3.489	1.826	-4.343	-4.514	-4.267	-2.978	-2.815	-2.657	-0.224	-0.252	-0.206	1.808	0.953	1.554	2.190	2.218	425.781
-4.818	-1.404	-2.831	-0.981	0.672	1.523	6.398	5.111	5.009	4.365	3.460	2.309	3.507	1.963	-4.250	-4.400	-3.919	-2.609	-2.468	-2.529	-0.047	0.040	0.069	1.900	1.016	1.396	2.080	2.081	429.688
-4.565	-1.393	-2.770	-1.051	0.716	1.479	6.132	4.653	4.347	3.985	2.964	2.036	3.542	2.125	-4.119	-4.289	-3.609	-2.273	-2.125	-2.384	0.154	0.333	0.328	2.003	1.038	1.235	2.009	1.923	433.594
-4.237	-1.427	-2.720	-1.094	0.791	1.477	5.901	4.208	3.726	3.662	2.487	1.736	3.596	2.299	-3.920	-4.185	-3.375	-1.981	-1.827	-2.232	0.367	0.596	0.542	2.100	1.013	1.068	1.972	1.744	437.500
-3.855	-1.491	-2.682	-1.100	0.891	1.512	5.725	3.797	3.174	3.401	2.052	1.436	3.666	2.474	-3.646	-4.088	-3.242	-1.742	-1.605	-2.081	0.580	0.800	0.690	2.179	0.943	0.898	1.962	1.559	441.406
-3.459	-1.562	-2.648	-1.066	1.004	1.571	5.609	3.433	2.705	3.196	1.677	1.168	3.751	2.639	-3.312	-3.996	-3.209	-1.565	-1.475	-1.938	0.779	0.931	0.765	2.237	0.843	0.737	1.973	1.387	445.312
-3.100	-1.617	-2.606	-0.996	1.121	1.640	5.549	3.121	2.324	3.035	1.374	0.960	3.844	2.783	-2.957	-3.904	-3.258	-1.457	-1.434	-1.809	0.954	0.988	0.773	2.273	0.735	0.598	2.002	1.251	449.219
-2.829	-1.637	-2.545	-0.896	1.228	1.708	5.527	2.866	2.029	2.902	1.149	0.831	3.937	2.897	-2.633	-3.808	-3.353	-1.424	-1.460	-1.693	1.100	0.983	0.732	2.293	0.641	0.495	2.040	1.169	453.125
-2.684	-1.609	-2.455	-0.775	1.320	1.769	5.520	2.670	1.813	2.781	0.999	0.785	4.020	2.975	-2.394	-3.703	-3.451	-1.467	-1.522	-1.588	1.216	0.939	0.664	2.299	0.577	0.437	2.079	1.151	457.031
-2.681	-1.528	-2.337	-0.638	1.394	1.823	5.506	2.535	1.669	2.662	0.912	0.807	4.080	3.014	-2.283	-3.589	-3.511	-1.577	-1.584	-1.489	1.305	0.881	0.595	2.294	0.550	0.424	2.108	1.193	460.938
-2.804	-1.396	-2.196	-0.490	1.454	1.877	5.470	2.461	1.588	2.540	0.871	0.870	4.105	3.016	-2.322	-3.466	-3.502	-1.739	-1.617	-1.388	1.374	0.834	0.543	2.276	0.557	0.446	2.116	1.278	464.844
-3.015	-1.223	-2.044	-0.332	1.507	1.939	5.407	2.448	1.561	2.417	0.855	0.938	4.088	2.984	-2.507	-3.335	-3.411	-1.930	-1.601	-1.277	1.429	0.813	0.520	2.242	0.583	0.486	2.096	1.377	468.750
-3.253	-1.019	-1.895	-0.165	1.560	2.014	5.323	2.493	1.578	2.300	0.844	0.971	4.024	2.927	-2.806	-3.199	-3.242	-2.125	-1.534	-1.152	1.477	0.825	0.524	2.185	0.607	0.522	2.040	1.459	472.656
-3.458	-0.797	-1.759	0.011	1.623	2.106	5.233	2.582	1.625	2.201	0.823	0.940	3.918	2.857	-3.165	-3.060	-3.016	-2.299	-1.427	-1.011	1.524	0.866	0.549	2.102	0.610	0.533	1.946	1.492	476.562
-3.575	-0.567	-1.640	0.194	1.702	2.211	5.156	2.700	1.686	2.128	0.779	0.824	3.779	2.786	-3.518	-2.918	-2.766	-2.432	-1.301	-0.854	1.575	0.928	0.582	1.991	0.573	0.501	1.813	1.452	480.469
-3.571	-0.336	-1.539	0.380	1.799	2.323	5.109	2.822	1.744	2.087	0.708	0.618	3.621	2.727	-3.802	-2.775	-2.527	-2.508	-1.179	-0.687	1.632	0.997	0.610	1.856	0.489	0.419	1.647	1.328	484.375
-3.432	-0.107	-1.447	0.564	1.914	2.431	5.101	2.919	1.777	2.075	0.609	0.333	3.460	2.692	-3.968	-2.627	-2.326	-2.524	-1.080	-0.513	1.698	1.063	0.623	1.703	0.361	0.286	1.457	1.122	488.281
-3.170	0.119	-1.357	0.740	2.041	2.525	5.130	2.965	1.767	2.082	0.483	-0.009	3.313	2.684	-3.991	-2.473	-2.178	-2.482	-1.016	-0.341	1.772	1.115	0.616	1.542	0.202	0.114	1.257	0.849	492.188
-2.811	0.340	-1.258	0.901	2.170	2.592	5.181	2.939	1.699	2.093	0.335	-0.375	3.193	2.703	-3.872	-2.308	-2.078	-2.397	-0.983	-0.173	1.851	1.149	0.591	1.382	0.030	-0.080	1.065	0.537	496.094
-2.396	0.556	-1.149	1.040	2.292	2.626	5.228	2.833	1.565	2.089	0.172	-0.731	3.104	2.742	-3.635	-2.129	-2.006	-2.287	-0.972	-0.016	1.932	1.166	0.554	1.234	-0.134	-0.278	0.896	0.217	500.000
-1.970	0.768	-1.032	1.155	2.395	2.624	5.245	2.651	1.368	2.055	0.002	-1.046	3.046	2.789	-3.325	-1.932	-1.938	-2.176	-0.964	0.131	2.011	1.171	0.514	1.104	-0.273	-0.461	0.765	-0.079	503.906
-1.580	0.976	-0.916	1.247	2.471	2.591	5.207	2.412	1.124	1.985	-0.164	-1.291	3.014	2.833	-2.991	-1.718	-1.847	-2.090	-0.945	0.266	2.080	1.170	0.480	0.996	-0.379	-0.613	0.677	-0.319	507.812
-1.270	1.176	-0.817	1.318	2.516	2.535	5.101	2.146	0.857	1.880	-0.313	-1.449	3.001	2.861	-2.685	-1.493	-1.720	-2.048	-0.904	0.388	2.137	1.167	0.457	0.913	-0.446	-0.723	0.637	-0.483	511.719
-1.074	1.362	-0.751	1.373	2.530	2.465	4.932	1.886	0.595	1.749	-0.428	-1.510	2.999	2.866	-2.448	-1.267	-1.558	-2.057	-0.840	0.493	2.175	1.166	0.446	0.854	-0.479	-0.786	0.644	-0.559	515.625
-1.008	1.526	-0.733	1.415	2.514	2.392	4.717	1.667	0.370	1.610	-0.492	-1.474	3.004	2.844	-2.306	-1.057	-1.375	-2.113	-0.760	0.579	2.192	1.167	0.449	0.817	-0.485	-0.801	0.695	-0.545	519.531
-1.076	1.649	-0.774	1.442	2.475	2.320	4.490	1.514	0.206	1.481	-0.493	-1.350	3.013	2.801	-2.265	-0.879	-1.199	-2.199	-0.677	0.640	2.186	1.169	0.463	0.798	-0.475	-0.772	0.790	-0.452	523.438
-1.257	1.716	-0.876	1.450	2.416	2.251	4.288	1.440	0.120	1.382	-0.422	-1.155	3.026	2.742	-2.315	-0.749	-1.057	-2.290	-0.605	0.671	2.158	1.171	0.484	0.795	-0.460	-0.707	0.930	-0.296	527.344
-1.513	1.709	-1.039	1.434	2.342	2.184	4.147	1.444	0.111	1.326	-0.281	-0.911	3.045	2.676	-2.430	-0.680	-0.971	-2.358	-0.555	0.667	2.107	1.172	0.510	0.804	-0.452	-0.617	1.118	-0.099	531.250
-1.793	1.616	-1.251	1.383	2.254	2.113	4.091	1.509	0.170	1.319	-0.082	-0.639	3.067	2.612	-2.574	-0.676	-0.954	-2.376	-0.536	0.625	2.036	1.169	0.535	0.824	-0.460	-0.513	1.356	0.120	535.156
-2.042	1.434	-1.493	1.292	2.150	2.034	4.128	1.612	0.272	1.358	0.156	-0.360	3.088	2.552	-2.704	-0.740	-1.011	-2.328	-0.554	0.542	1.943	1.156	0.553	0.850	-0.487	-0.403	1.641	0.342	539.062
-2.212	1.171	-1.739	1.157	2.028	1.944	4.244	1.725	0.394	1.429	0.406	-0.092	3.099	2.496	-2.780	-0.865	-1.136	-2.211	-0.615	0.420	1.829	1.129	0.558	0.879	-0.530	-0.294	1.966	0.559	542.969
-2.272	0.845	-1.956	0.979	1.885	1.842	4.413	1.822	0.511	1.516	0.642	0.153	3.091	2.434	-2.771	-1.042	-1.322	-2.033	-0.719	0.259	1.691	1.078	0.538	0.904	-0.583	-0.186	2.312	0.765	546.875
-2.216	0.485	-2.110	0.766	1.724	1.736	4.596	1.889	0.605	1.597	0.837	0.368	3.051	2.355	-2.665	-1.258	-1.559	-1.814	-0.866	0.065	1.528	0.997	0.486	0.919	-0.636	-0.080	2.654	0.960	550.781
-2.066	0.125	-2.175	0.530	1.547	1.638	4.752	1.921	0.667	1.650	0.974	0.551	2.971	2.248	-2.469	-1.495	-1.832	-1.583	-1.050	-0.156	1.338	0.880	0.396	0.917	-0.677	0.026	2.967	1.143	554.688
-1.865	-0.196	-2.133	0.290	1.366	1.567	4.849	1.927	0.698	1.657	1.043	0.699	2.846	2.104	-2.212	-1.736	-2.123	-1.372	-1.261	-0.393	1.125	0.728	0.269	0.891	-0.698	0.129	3.222	1.309	558.594
-1.664	-0.445	-1.987	0.064	1.193	1.539	4.868	1.922	0.707	1.607	1.044	0.812	2.680	1.922	-1.938	-1.959	-2.406	-1.208	-1.480	-0.630	0.895	0.547	0.111	0.838	-0.695	0.225	3.402	1.451	562.500
-1.513	-0.598	-1.757	-0.131	1.039	1.568	4.805	1.928	0.705	1.495	0.983	0.888	2.482	1.710	-1.697	-2.144	-2.650	-1.106	-1.683	-0.850	0.659	0.350	-0.062	0.755	-0.669	0.303	3.495	1.554	566.406
-1.441	-0.644	-1.478	-0.285	0.913	1.654	4.672	1.962	0.704	1.325	0.874	0.927	2.269	1.483	-1.527	-2.275	-2.821	-1.065	-1.844	-1.037	0.434	0.155	-0.231	0.646	-0.627	0.351	3.502	1.600	570.312
-1.452	-0.592	-1.198	-0.395	0.820	1.786	4.490	2.034	0.709	1.109	0.731	0.925	2.058	1.265	-1.448	-2.342	-2.889	-1.067	-1.935	-1.175	0.237	-0.014	-0.372	0.518	-0.580	0.355	3.428	1.574	574.219
-1.524	-0.463	-0.965	-0.466	0.757	1.942	4.284	2.142	0.720	0.866	0.566	0.877	1.873	1.079	-1.455	-2.341	-2.835	-1.083	-1.936	-1.252	0.087	-0.133	-0.463	0.383	-0.540	0.301	3.289	1.462	578.125
-1.618	-0.287	-0.817	-0.507	0.717	2.093	4.079	2.273	0.729	0.617	0.387	0.778	1.731	0.950	-1.517	-2.276	-2.652	-1.077	-1.831	-1.261	0.001	-0.182	-0.486	0.255	-0.519	0.184	3.104	1.259	582.031
-1.688	-0.096	-0.776	-0.528	0.693	2.212	3.890	2.403	0.720	0.383	0.196	0.623	1.647	0.894	-1.592	-2.158	-2.353	-1.022	-1.621	-1.202	-0.009	-0.145	-0.431	0.150	-0.522	0.005	2.891	0.969	585.938
-1.699	0.085	-0.842	-0.538	0.682	2.280	3.726	2.500	0.675	0.184	-0.011	0.411	1.627	0.918	-1.633	-1.997	-1.964	-0.900	-1.318	-1.080	0.064	-0.017	-0.298	0.081	-0.550	-0.227	2.672	0.606	589.844
-1.635	0.241	-0.992	-0.541	0.681	2.286	3.589	2.536	0.575	0.032	-0.240	0.143	1.673	1.022	-1.606	-1.809	-1.521	-0.712	-0.945	-0.904	0.217	0.195	-0.096	0.059	-0.597	-0.494	2.462	0.190	593.750
-1.502	0.370	-1.191	-0.534	0.691	2.233	3.476	2.489	0.408	-0.069	-0.496	-0.173	1.774	1.192	-1.490	-1.604	-1.070	-0.474	-0.539	-0.690	0.438	0.471	0.157	0.088	-0.650	-0.774	2.271	-0.251	597.656
-1.330	0.480	-1.398	-0.513	0.717	2.135	3.380	2.349	0.174	-0.122	-0.775	-0.521	1.915	1.407	-1.284	-1.395	-0.653	-0.211	-0.139	-0.453	0.707	0.783	0.434	0.167	-0.697	-1.038	2.108	-0.684	601.562
-1.160	0.584	-1.576	-0.475	0.758	2.010	3.299	2.123	-0.119	-0.139	-1.070	-0.877	2.074	1.642	-1.002	-1.191	-0.307	0.049	0.214	-0.212	0.999	1.097	0.708	0.284	-0.725	-1.264	1.973	-1.073	605.469
-1.039	0.689	-1.705	-0.421	0.812	1.878	3.230	1.834	-0.449	-0.134	-1.364	-1.214	2.228	1.869	-0.672	-1.000	-0.055	0.284	0.489	0.014	1.285	1.379	0.955	0.425	-0.726	-1.429	1.869	-1.386	609.375
-1.001	0.794	-1.777	-0.358	0.870	1.757	3.173	1.513	-0.788	-0.123	-1.636	-1.504	2.355	2.063	-0.328	-0.829	0.096	0.483	0.667	0.211	1.540	1.602	1.153	0.570	-0.698	-1.524	1.798	-1.594	613.281
-1.057	0.887	-1.803	-0.299	0.918	1.653	3.128	1.199	-1.106	-0.122	-1.865	-1.721	2.439	2.204	-0.005	-0.686	0.157	0.646	0.749	0.368	1.744	1.750	1.293	0.700	-0.644	-1.545	1.763	-1.679	617.188
-1.191	0.949	-1.803	-0.261	0.943	1.566	3.093	0.927	-1.376	-0.142	-2.034	-1.850	2.470	2.283	0.270	-0.573	0.153	0.782	0.749	0.480	1.882	1.820	1.375	0.799	-0.575	-1.501	1.766	-1.638	621.094
-1.362	0.956	-1.800	-0.258	0.930	1.491	3.063	0.725	-1.577	-0.192	-2.135	-1.886	2.445	2.297	0.479	-0.493	0.113	0.907	0.693	0.546	1.949	1.822	1.404	0.854	-0.501	-1.408	1.807	-1.480	625.000
-1.518	0.892	-1.811	-0.296	0.875	1.419	3.028	0.604	-1.704	-0.275	-2.171	-1.837	2.368	2.249	0.622	-0.446	0.068	1.036	0.612	0.570	1.948	1.771	1.392	0.860	-0.437	-1.287	1.880	-1.227	628.906
-1.615	0.754	-1.841	-0.374	0.780	1.347	2.982	0.566	-1.755	-0.384	-2.149	-1.718	2.248	2.151	0.710	-0.429	0.037	1.172	0.528	0.559	1.887	1.685	1.348	0.814	-0.392	-1.160	1.975	-0.914	632.812
-1.633	0.554	-1.884	-0.478	0.658	1.274	2.918	0.602	-1.740	-0.509	-2.082	-1.554	2.098	2.016	0.765	-0.440	0.029	1.313	0.458	0.520	1.777	1.580	1.280	0.718	-0.374	-1.045	2.077	-0.578	636.719
-1.580	0.321	-1.923	-0.588	0.525	1.205	2.835	0.699	-1.668	-0.635	-1.985	-1.368	1.929	1.857	0.807	-0.473	0.042	1.443	0.405	0.460	1.634	1.470	1.195	0.580	-0.384	-0.957	2.166	-0.259	640.625
-1.491	0.095	-1.940	-0.684	0.400	1.148	2.736	0.839	-1.551	-0.743	-1.870	-1.187	1.755	1.689	0.847	-0.524	0.068	1.540	0.367	0.386	1.473	1.364	1.096	0.409	-0.419	-0.905	2.223	0.009	644.531
-1.413	-0.089	-1.914	-0.746	0.298	1.108	2.626	1.008	-1.402	-0.817	-1.747	-1.030	1.584	1.524	0.887	-0.585	0.099	1.584	0.338	0.306	1.309	1.267	0.989	0.218	-0.472	-0.892	2.231	0.199	648.438
-1.385	-0.200	-1.836	-0.765	0.228	1.084	2.515	1.191	-1.233	-0.846	-1.627	-0.915	1.424	1.369	0.917	-0.650	0.127	1.563	0.313	0.223	1.153	1.184	0.880	0.021	-0.535	-0.918	2.177	0.293	652.344
-1.424	-0.228	-1.700	-0.739	0.190	1.075	2.409	1.375	-1.058	-0.827	-1.519	-0.852	1.279	1.231	0.924	-0.709	0.151	1.480	0.291	0.146	1.018	1.117	0.777	-0.169	-0.599	-0.983	2.057	0.283	656.250
-1.515	-0.177	-1.509	-0.674	0.183	1.077	2.315	1.548	-0.895	-0.767	-1.436	-0.848	1.149	1.112	0.898	-0.756	0.168	1.353	0.272	0.080	0.909	1.065	0.683	-0.343	-0.661	-1.086	1.874	0.173	660.156
-1.612	-0.068	-1.266	-0.580	0.200	1.088	2.236	1.694	-0.763	-0.681	-1.395	-0.904	1.032	1.012	0.844	-0.780	0.176	1.210	0.255	0.033	0.833	1.026	0.600	-0.495	-0.723	-1.225	1.642	-0.026	664.062
-1.656	0.074	-0.980	-0.464	0.237	1.111	2.173	1.801	-0.682	-0.591	-1.413	-1.018	0.928	0.931	0.778	-0.772	0.171	1.085	0.239	0.014	0.792	0.991	0.524	-0.625	-0.792	-1.399	1.378	-0.298	667.969
-1.593	0.225	-0.658	-0.334	0.291	1.150	2.123	1.859	-0.671	-0.523	-1.505	-1.183	0.834	0.869	0.729	-0.724	0.155	1.010	0.225	0.030	0.788	0.954	0.450	-0.737	-0.878	-1.608	1.102	-0.622	671.875
-1.395	0.369	-0.313	-0.190	0.359	1.209	2.082	1.863	-0.738	-0.502	-1.682	-1.389	0.748	0.828	0.727	-0.631	0.136	1.006	0.212	0.088	0.821	0.912	0.374	-0.840	-0.992	-1.849	0.829	-0.974	675.781
-1.068	0.504	0.036	-0.031	0.441	1.291	2.041	1.813	-0.885	-0.547	-1.942	-1.625	0.672	0.809	0.800	-0.489	0.126	1.082	0.206	0.192	0.892	0.864	0.296	-0.939	-1.138	-2.117	0.572	-1.335	679.688
-0.651	0.638	0.366	0.145	0.536	1.389	1.995	1.717	-1.103	-0.671	-2.279	-1.877	0.607	0.816	0.961	-0.299	0.147	1.230	0.215	0.342	0.996	0.820	0.220	-1.041	-1.317	-2.404	0.336	-1.689	683.594
-0.206	0.784	0.650	0.339	0.638	1.494	1.938	1.584	-1.376	-0.876	-2.673	-2.134	0.554	0.850	1.208	-0.069	0.214	1.432	0.249	0.533	1.128	0.792	0.158	-1.147	-1.518	-2.700	0.121	-2.026	687.500
0.201	0.955	0.866	0.546	0.744	1.590	1.866	1.429	-1.683	-1.154	-3.101	-2.384	0.513	0.908	1.524	0.189	0.339	1.662	0.318	0.756	1.279	0.794	0.122	-1.254	-1.725	-2.991	-0.073	-2.340	691.406
0.513	1.157	0.999	0.758	0.849	1.665	1.781	1.260	-2.002	-1.489	-3.535	-2.619	0.484	0.987	1.880	0.458	0.522	1.895	0.425	0.995	1.439	0.838	0.123	-1.357	-1.913	-3.262	-0.246	-2.628	695.312
0.694	1.386	1.047	0.961	0.947	1.710	1.688	1.088	-2.312	-1.850	-3.946	-2.829	0.467	1.077	2.239	0.717	0.750	2.105	0.568	1.234	1.597	0.925	0.168	-1.445	-2.061	-3.494	-0.396	-2.887	699.219
0.737	1.628	1.020	1.143	1.036	1.724	1.594	0.918	-2.592	-2.206	-4.307	-3.008	0.461	1.171	2.562	0.948	1.001	2.274	0.735	1.455	1.740	1.051	0.254	-1.506	-2.150	-3.672	-0.521	-3.112	703.125
0.658	1.863	0.937	1.289	1.114	1.713	1.511	0.755	-2.826	-2.518	-4.592	-3.144	0.467	1.260	2.810	1.132	1.250	2.389	0.912	1.644	1.861	1.200	0.374	-1.532	-2.172	-3.781	-0.612	-3.291	707.031
0.491	2.066	0.821	1.390	1.177	1.687	1.447	0.604	-3.000	-2.754	-4.781	-3.228	0.485	1.336	2.951	1.257	1.469	2.442	1.079	1.787	1.951	1.352	0.513	-1.514	-2.126	-3.811	-0.658	-3.409	710.938
0.282	2.213	0.689	1.437	1.219	1.655	1.410	0.472	-3.104	-2.891	-4.860	-3.252	0.517	1.392	2.965	1.316	1.634	2.431	1.220	1.876	2.007	1.486	0.652	-1.451	-2.026	-3.755	-0.647	-3.450	714.844
0.070	2.288	0.556	1.427	1.231	1.621	1.402	0.363	-3.133	-2.917	-4.826	-3.208	0.566	1.426	2.846	1.305	1.730	2.360	1.320	1.904	2.028	1.583	0.775	-1.345	-1.889	-3.614	-0.570	-3.400	718.750
-0.112	2.283	0.426	1.363	1.204	1.585	1.418	0.285	-3.088	-2.836	-4.683	-3.092	0.633	1.437	2.610	1.231	1.751	2.233	1.372	1.873	2.015	1.631	0.866	-1.206	-1.738	-3.397	-0.426	-3.248	722.656
-0.245	2.203	0.300	1.248	1.128	1.544	1.452	0.242	-2.978	-2.664	-4.447	-2.907	0.714	1.427	2.292	1.103	1.700	2.062	1.370	1.784	1.972	1.622	0.912	-1.047	-1.596	-3.117	-0.225	-2.995	726.562
-0.321	2.063	0.177	1.092	1.000	1.492	1.491	0.234	-2.817	-2.425	-4.142	-2.660	0.806	1.398	1.949	0.938	1.588	1.860	1.313	1.646	1.905	1.557	0.905	-0.888	-1.480	-2.796	0.013	-2.654	730.469
-0.343	1.885	0.056	0.906	0.824	1.425	1.524	0.260	-2.627	-2.150	-3.800	-2.368	0.902	1.355	1.643	0.754	1.429	1.644	1.201	1.470	1.822	1.438	0.843	-0.747	-1.401	-2.459	0.260	-2.250	734.375
-0.317	1.695	-0.060	0.702	0.610	1.341	1.539	0.316	-2.430	-1.866	-3.456	-2.051	0.996	1.302	1.433	0.568	1.239	1.430	1.040	1.272	1.729	1.274	0.727	-0.643	-1.363	-2.134	0.486	-1.818	738.281
-0.250	1.517	-0.163	0.495	0.376	1.241	1.529	0.393	-2.248	-1.600	-3.143	-1.735	1.080	1.245	1.360	0.399	1.038	1.237	0.839	1.070	1.636	1.081	0.566	-0.589	-1.362	-1.849	0.665	-1.401	742.188
-0.149	1.369	-0.240	0.297	0.144	1.128	1.490	0.483	-2.102	-1.373	-2.893	-1.448	1.148	1.187	1.433	0.263	0.844	1.085	0.614	0.883	1.553	0.875	0.377	-0.591	-1.391	-1.628	0.783	-1.039	746.094
-0.023	1.266	-0.275	0.120	-0.065	1.009	1.423	0.573	-2.006	-1.197	-2.729	-1.214	1.200	1.136	1.635	0.170	0.678	0.987	0.390	0.732	1.488	0.679	0.180	-0.649	-1.443	-1.489	0.836	-0.768	750.000
0.120	1.217	-0.254	-0.023	-0.232	0.894	1.332	0.653	-1.968	-1.082	-2.664	-1.055	1.233	1.094	1.923	0.129	0.557	0.951	0.192	0.635	1.450	0.515	-0.003	-0.756	-1.514	-1.442	0.832	-0.611	753.906
0.269	1.224	-0.168	-0.123	-0.340	0.797	1.227	0.711	-1.992	-1.027	-2.701	-0.981	1.251	1.069	2.248	0.144	0.492	0.974	0.042	0.602	1.448	0.401	-0.154	-0.901	-1.604	-1.490	0.788	-0.577	757.812
0.414	1.283	-0.017	-0.171	-0.380	0.733	1.118	0.739	-2.074	-1.030	-2.829	-0.996	1.260	1.065	2.562	0.213	0.490	1.046	-0.041	0.640	1.486	0.351	-0.259	-1.068	-1.715	-1.626	0.726	-0.660	761.719
0.545	1.386	0.187	-0.164	-0.352	0.715	1.016	0.731	-2.204	-1.083	-3.034	-1.092	1.268	1.088	2.832	0.328	0.548	1.152	-0.051	0.748	1.566	0.368	-0.312	-1.243	-1.848	-1.836	0.666	-0.846	765.625
0.653	1.524	0.421	-0.101	-0.260	0.748	0.929	0.683	-2.374	-1.179	-3.292	-1.256	1.284	1.144	3.040	0.481	0.661	1.272	0.010	0.916	1.685	0.449	-0.314	-1.408	-2.005	-2.103	0.622	-1.113	769.531
0.733	1.681	0.657	0.014	-0.116	0.828	0.861	0.591	-2.574	-1.308	-3.581	-1.470	1.316	1.234	3.186	0.658	0.821	1.391	0.131	1.131	1.840	0.585	-0.270	-1.553	-2.184	-2.406	0.609	-1.438	773.438
0.779	1.842	0.862	0.172	0.065	0.941	0.813	0.458	-2.796	-1.464	-3.879	-1.714	1.372	1.359	3.287	0.848	1.018	1.497	0.297	1.375	2.023	0.764	-0.188	-1.667	-2.383	-2.727	0.632	-1.801	777.344
0.787	1.993	1.010	0.360	0.267	1.068	0.781	0.285	-3.034	-1.638	-4.169	-1.970	1.453	1.517	3.364	1.040	1.245	1.589	0.489	1.632	2.226	0.976	-0.077	-1.748	-2.596	-3.052	0.696	-2.187	781.250
0.753	2.122	1.082	0.564	0.477	1.187	0.760	0.078	-3.284	-1.826	-4.442	-2.225	1.558	1.703	3.444	1.227	1.494	1.673	0.694	1.888	2.440	1.208	0.056	-1.795	-2.823	-3.372	0.803	-2.586	785.156
0.680	2.225	1.077	0.774	0.684	1.285	0.743	-0.156	-3.544	-2.023	-4.695	-2.471	1.684	1.910	3.544	1.405	1.759	1.756	0.901	2.134	2.660	1.454	0.204	-1.816	-3.060	-3.683	0.948	-2.993	789.062
0.577	2.304	1.007	0.981	0.884	1.358	0.726	-0.409	-3.812	-2.227	-4.931	-2.707	1.825	2.131	3.673	1.575	2.034	1.847	1.105	2.367	2.881	1.707	0.361	-1.821	-3.305	-3.988	1.121	-3.404	792.969
0.459	2.369	0.901	1.183	1.075	1.411	0.705	-0.668	-4.085	-2.433	-5.159	-2.934	1.972	2.358	3.831	1.740	2.311	1.944	1.301	2.591	3.102	1.959	0.518	-1.820	-3.556	-4.288	1.307	-3.816	796.875
