FP1	F3	F7	FC3	C3	C5	P3	P7	PO7	PO3	O1	Oz	Pz	CPz	FP2	Fz	F4	F8	FC4	FCz	Cz	C4	C6	P4	P8	PO8	PO4	O2	time
0.660	-0.122	-0.781	0.293	-0.459	-0.386	-0.191	-0.083	0.319	-0.802	0.118	-0.114	0.028	0.081	-0.699	0.605	0.091	-1.019	-0.033	0.556	0.522	0.285	-0.042	0.397	-0.083	0.215	-1.159	0.010	-199.219
0.542	-0.087	-0.579	0.234	-0.385	-0.121	-0.229	-0.090	0.353	-0.776	0.151	-0.039	-0.045	0.101	-0.539	0.550	0.143	-0.671	0.039	0.494	0.500	0.274	-0.008	0.386	-0.144	0.245	-1.091	0.158	-195.312
0.409	-0.056	-0.396	0.168	-0.328	0.103	-0.267	-0.089	0.391	-0.743	0.178	0.036	-0.116	0.113	-0.376	0.494	0.187	-0.357	0.111	0.429	0.473	0.265	0.022	0.373	-0.204	0.274	-1.031	0.291	-191.406
0.256	-0.030	-0.246	0.094	-0.299	0.262	-0.301	-0.078	0.431	-0.700	0.191	0.105	-0.182	0.115	-0.205	0.440	0.223	-0.107	0.184	0.363	0.439	0.261	0.047	0.356	-0.263	0.295	-0.987	0.390	-187.500
0.081	-0.009	-0.137	0.016	-0.298	0.345	-0.329	-0.056	0.467	-0.646	0.183	0.159	-0.241	0.108	-0.030	0.394	0.254	0.071	0.260	0.301	0.402	0.265	0.067	0.332	-0.322	0.301	-0.962	0.438	-183.594
-0.111	0.011	-0.067	-0.055	-0.323	0.359	-0.348	-0.024	0.492	-0.582	0.151	0.191	-0.290	0.096	0.130	0.360	0.280	0.184	0.340	0.250	0.365	0.276	0.084	0.301	-0.384	0.282	-0.954	0.427	-179.688
-0.306	0.036	-0.026	-0.107	-0.359	0.326	-0.352	0.012	0.498	-0.515	0.095	0.193	-0.330	0.088	0.251	0.347	0.305	0.255	0.421	0.219	0.335	0.292	0.102	0.261	-0.451	0.230	-0.957	0.353	-175.781
-0.481	0.073	0.001	-0.124	-0.390	0.274	-0.341	0.047	0.477	-0.452	0.017	0.156	-0.358	0.093	0.311	0.358	0.333	0.304	0.495	0.215	0.320	0.308	0.121	0.212	-0.520	0.140	-0.962	0.219	-171.875
-0.602	0.125	0.033	-0.096	-0.395	0.234	-0.312	0.074	0.423	-0.399	-0.081	0.077	-0.375	0.118	0.301	0.395	0.366	0.345	0.559	0.244	0.329	0.319	0.140	0.153	-0.588	0.008	-0.963	0.030	-167.969
-0.639	0.194	0.082	-0.017	-0.356	0.226	-0.268	0.091	0.335	-0.361	-0.195	-0.046	-0.381	0.168	0.231	0.455	0.407	0.380	0.606	0.307	0.366	0.320	0.155	0.086	-0.648	-0.162	-0.955	-0.203	-164.062
-0.567	0.279	0.157	0.109	-0.263	0.264	-0.211	0.095	0.218	-0.340	-0.321	-0.205	-0.378	0.245	0.131	0.532	0.454	0.396	0.634	0.399	0.432	0.311	0.160	0.011	-0.693	-0.362	-0.937	-0.466	-160.156
-0.384	0.372	0.254	0.270	-0.115	0.346	-0.147	0.088	0.082	-0.331	-0.453	-0.389	-0.365	0.343	0.040	0.613	0.503	0.379	0.645	0.511	0.522	0.293	0.152	-0.070	-0.722	-0.580	-0.912	-0.740	-156.250
-0.113	0.465	0.365	0.447	0.080	0.458	-0.078	0.071	-0.059	-0.326	-0.583	-0.579	-0.345	0.453	-0.005	0.683	0.544	0.319	0.643	0.627	0.625	0.270	0.130	-0.152	-0.731	-0.796	-0.882	-1.002	-152.344
0.202	0.547	0.475	0.616	0.298	0.578	-0.008	0.049	-0.187	-0.314	-0.702	-0.754	-0.318	0.562	0.019	0.729	0.567	0.217	0.633	0.731	0.726	0.247	0.096	-0.228	-0.721	-0.989	-0.847	-1.227	-148.438
0.497	0.609	0.570	0.749	0.514	0.681	0.059	0.024	-0.289	-0.285	-0.797	-0.891	-0.287	0.657	0.112	0.739	0.564	0.092	0.619	0.803	0.807	0.230	0.060	-0.289	-0.691	-1.138	-0.806	-1.387	-144.531
0.712	0.641	0.636	0.825	0.698	0.744	0.119	-0.003	-0.353	-0.235	-0.857	-0.968	-0.252	0.724	0.252	0.704	0.530	-0.029	0.600	0.829	0.851	0.219	0.030	-0.327	-0.642	-1.221	-0.752	-1.460	-140.625
0.799	0.636	0.664	0.826	0.825	0.754	0.171	-0.031	-0.373	-0.161	-0.869	-0.972	-0.215	0.754	0.403	0.625	0.465	-0.117	0.575	0.797	0.847	0.217	0.015	-0.336	-0.573	-1.223	-0.681	-1.432	-136.719
0.739	0.592	0.652	0.745	0.880	0.707	0.210	-0.061	-0.349	-0.068	-0.826	-0.898	-0.177	0.744	0.521	0.508	0.376	-0.151	0.537	0.705	0.788	0.219	0.022	-0.311	-0.482	-1.138	-0.585	-1.298	-132.812
0.548	0.508	0.598	0.587	0.857	0.611	0.234	-0.092	-0.285	0.038	-0.723	-0.751	-0.136	0.691	0.569	0.361	0.272	-0.124	0.479	0.555	0.674	0.220	0.048	-0.252	-0.368	-0.968	-0.459	-1.067	-128.906
0.271	0.386	0.509	0.367	0.762	0.478	0.242	-0.124	-0.187	0.146	-0.562	-0.543	-0.095	0.600	0.523	0.198	0.164	-0.050	0.397	0.358	0.514	0.213	0.088	-0.165	-0.231	-0.724	-0.301	-0.762	-125.000
-0.031	0.233	0.392	0.110	0.607	0.324	0.236	-0.150	-0.063	0.250	-0.351	-0.295	-0.054	0.478	0.374	0.031	0.062	0.044	0.290	0.130	0.321	0.194	0.132	-0.059	-0.074	-0.428	-0.114	-0.410	-121.094
-0.299	0.060	0.255	-0.158	0.411	0.163	0.221	-0.164	0.077	0.344	-0.101	-0.029	-0.016	0.333	0.136	-0.130	-0.024	0.123	0.163	-0.111	0.112	0.160	0.170	0.055	0.095	-0.107	0.092	-0.045	-117.188
-0.493	-0.119	0.107	-0.406	0.195	0.002	0.204	-0.161	0.222	0.422	0.170	0.231	0.019	0.176	-0.160	-0.274	-0.091	0.155	0.025	-0.345	-0.096	0.109	0.193	0.167	0.267	0.211	0.306	0.301	-113.281
-0.596	-0.293	-0.041	-0.612	-0.024	-0.152	0.192	-0.138	0.363	0.483	0.439	0.466	0.047	0.018	-0.466	-0.395	-0.142	0.128	-0.116	-0.554	-0.287	0.047	0.194	0.267	0.431	0.498	0.510	0.601	-109.375
-0.612	-0.450	-0.183	-0.759	-0.228	-0.297	0.189	-0.096	0.486	0.525	0.684	0.656	0.067	-0.128	-0.725	-0.491	-0.185	0.046	-0.248	-0.724	-0.449	-0.023	0.174	0.349	0.573	0.733	0.690	0.835	-105.469
-0.564	-0.581	-0.309	-0.841	-0.403	-0.430	0.197	-0.045	0.574	0.545	0.877	0.790	0.079	-0.253	-0.884	-0.559	-0.228	-0.063	-0.362	-0.844	-0.572	-0.092	0.137	0.407	0.682	0.899	0.830	0.993	-101.562
-0.475	-0.677	-0.411	-0.863	-0.541	-0.545	0.214	0.002	0.613	0.539	0.997	0.860	0.085	-0.349	-0.905	-0.598	-0.279	-0.161	-0.450	-0.911	-0.654	-0.150	0.091	0.441	0.749	0.988	0.920	1.069	-97.656
-0.367	-0.732	-0.481	-0.832	-0.634	-0.637	0.233	0.030	0.589	0.501	1.028	0.861	0.085	-0.411	-0.777	-0.608	-0.338	-0.214	-0.504	-0.924	-0.694	-0.189	0.048	0.451	0.770	1.000	0.952	1.065	-93.750
-0.252	-0.737	-0.513	-0.761	-0.682	-0.702	0.244	0.025	0.498	0.430	0.963	0.795	0.084	-0.438	-0.521	-0.586	-0.394	-0.197	-0.517	-0.887	-0.694	-0.201	0.016	0.435	0.745	0.939	0.925	0.987	-89.844
-0.135	-0.686	-0.506	-0.663	-0.683	-0.737	0.241	-0.017	0.342	0.326	0.808	0.671	0.087	-0.433	-0.179	-0.532	-0.428	-0.105	-0.485	-0.806	-0.660	-0.185	0.003	0.397	0.679	0.814	0.840	0.844	-85.938
-0.020	-0.577	-0.464	-0.549	-0.643	-0.743	0.217	-0.093	0.136	0.196	0.583	0.501	0.099	-0.401	0.187	-0.446	-0.421	0.048	-0.407	-0.687	-0.598	-0.142	0.013	0.337	0.579	0.638	0.704	0.649	-82.031
0.090	-0.415	-0.398	-0.428	-0.568	-0.724	0.172	-0.192	-0.096	0.054	0.316	0.303	0.123	-0.349	0.517	-0.332	-0.354	0.231	-0.290	-0.539	-0.514	-0.079	0.043	0.260	0.457	0.427	0.528	0.419	-78.125
0.190	-0.217	-0.322	-0.307	-0.466	-0.685	0.112	-0.295	-0.326	-0.081	0.041	0.096	0.160	-0.286	0.762	-0.199	-0.224	0.407	-0.147	-0.373	-0.417	-0.003	0.087	0.169	0.323	0.198	0.328	0.174	-74.219
0.272	-0.009	-0.247	-0.195	-0.346	-0.633	0.046	-0.384	-0.525	-0.188	-0.205	-0.099	0.210	-0.221	0.890	-0.062	-0.042	0.543	0.002	-0.201	-0.316	0.074	0.136	0.074	0.191	-0.030	0.127	-0.067	-70.312
0.334	0.180	-0.187	-0.096	-0.215	-0.569	-0.012	-0.440	-0.669	-0.246	-0.394	-0.260	0.267	-0.160	0.888	0.063	0.164	0.613	0.131	-0.036	-0.220	0.140	0.180	-0.019	0.075	-0.237	-0.052	-0.281	-66.406
0.375	0.320	-0.145	-0.016	-0.082	-0.495	-0.049	-0.452	-0.743	-0.242	-0.503	-0.371	0.325	-0.110	0.761	0.157	0.356	0.608	0.219	0.106	-0.138	0.185	0.209	-0.101	-0.014	-0.404	-0.185	-0.449	-62.500
0.405	0.389	-0.121	0.040	0.046	-0.413	-0.056	-0.414	-0.742	-0.172	-0.525	-0.422	0.375	-0.077	0.532	0.206	0.496	0.531	0.245	0.212	-0.079	0.199	0.213	-0.167	-0.069	-0.517	-0.253	-0.554	-58.594
0.434	0.381	-0.110	0.072	0.162	-0.323	-0.032	-0.330	-0.673	-0.046	-0.466	-0.412	0.409	-0.065	0.238	0.200	0.553	0.396	0.202	0.273	-0.049	0.176	0.186	-0.215	-0.090	-0.564	-0.249	-0.588	-54.688
0.469	0.301	-0.103	0.081	0.257	-0.232	0.018	-0.210	-0.553	0.117	-0.344	-0.345	0.420	-0.074	-0.073	0.139	0.510	0.224	0.094	0.282	-0.053	0.117	0.128	-0.245	-0.080	-0.544	-0.174	-0.549	-50.781
0.506	0.173	-0.093	0.069	0.325	-0.146	0.082	-0.071	-0.407	0.292	-0.185	-0.235	0.406	-0.105	-0.344	0.031	0.370	0.036	-0.065	0.240	-0.091	0.026	0.040	-0.261	-0.045	-0.461	-0.039	-0.445	-46.875
0.530	0.024	-0.077	0.044	0.361	-0.075	0.143	0.070	-0.261	0.450	-0.019	-0.102	0.367	-0.155	-0.525	-0.108	0.153	-0.148	-0.251	0.155	-0.156	-0.090	-0.069	-0.266	0.008	-0.327	0.138	-0.290	-42.969
0.514	-0.113	-0.052	0.014	0.363	-0.025	0.187	0.197	-0.139	0.565	0.126	0.036	0.308	-0.217	-0.582	-0.260	-0.108	-0.313	-0.439	0.040	-0.240	-0.217	-0.187	-0.267	0.074	-0.157	0.338	-0.101	-39.062
0.437	-0.217	-0.021	-0.013	0.334	0.000	0.200	0.298	-0.057	0.620	0.234	0.162	0.237	-0.285	-0.509	-0.405	-0.375	-0.448	-0.605	-0.091	-0.332	-0.344	-0.301	-0.267	0.151	0.030	0.545	0.099	-35.156
0.288	-0.274	0.013	-0.029	0.281	0.003	0.176	0.365	-0.020	0.611	0.294	0.264	0.165	-0.352	-0.335	-0.528	-0.612	-0.544	-0.730	-0.220	-0.420	-0.458	-0.395	-0.267	0.238	0.217	0.743	0.291	-31.250
0.081	-0.288	0.047	-0.032	0.217	-0.010	0.114	0.400	-0.024	0.546	0.311	0.336	0.102	-0.413	-0.116	-0.621	-0.792	-0.598	-0.803	-0.335	-0.494	-0.550	-0.459	-0.268	0.335	0.388	0.920	0.457	-27.344
-0.145	-0.271	0.079	-0.020	0.153	-0.033	0.018	0.407	-0.055	0.442	0.296	0.379	0.059	-0.462	0.079	-0.682	-0.901	-0.607	-0.823	-0.425	-0.548	-0.615	-0.488	-0.269	0.438	0.530	1.067	0.585	-23.438
-0.342	-0.239	0.110	0.005	0.103	-0.057	-0.103	0.396	-0.094	0.325	0.267	0.397	0.044	-0.497	0.186	-0.713	-0.940	-0.573	-0.797	-0.486	-0.577	-0.655	-0.481	-0.270	0.539	0.635	1.175	0.665	-19.531
-0.457	-0.206	0.142	0.040	0.077	-0.074	-0.237	0.377	-0.121	0.220	0.241	0.399	0.061	-0.515	0.164	-0.720	-0.921	-0.501	-0.740	-0.514	-0.582	-0.673	-0.448	-0.269	0.629	0.698	1.237	0.697	-15.625
-0.459	-0.173	0.178	0.086	0.082	-0.079	-0.370	0.356	-0.122	0.147	0.227	0.388	0.111	-0.516	0.010	-0.706	-0.862	-0.401	-0.671	-0.511	-0.566	-0.680	-0.402	-0.268	0.694	0.716	1.247	0.681	-11.719
-0.340	-0.134	0.221	0.143	0.123	-0.072	-0.490	0.340	-0.092	0.115	0.227	0.369	0.189	-0.499	-0.241	-0.673	-0.783	-0.283	-0.604	-0.479	-0.532	-0.684	-0.357	-0.270	0.720	0.688	1.202	0.621	-7.812
-0.122	-0.071	0.275	0.215	0.199	-0.054	-0.583	0.328	-0.034	0.123	0.233	0.340	0.283	-0.465	-0.527	-0.621	-0.698	-0.162	-0.551	-0.419	-0.487	-0.695	-0.326	-0.281	0.699	0.616	1.101	0.522	-3.906
0.149	0.033	0.337	0.307	0.304	-0.029	-0.639	0.321	0.039	0.157	0.230	0.297	0.378	-0.416	-0.780	-0.547	-0.615	-0.052	-0.515	-0.335	-0.435	-0.716	-0.318	-0.305	0.624	0.500	0.952	0.392	0.000
0.417	0.193	0.408	0.419	0.432	-0.001	-0.651	0.314	0.107	0.201	0.200	0.234	0.455	-0.357	-0.936	-0.449	-0.535	0.034	-0.492	-0.230	-0.379	-0.746	-0.335	-0.348	0.499	0.344	0.763	0.235	3.906
0.632	0.413	0.482	0.551	0.572	0.024	-0.617	0.306	0.151	0.234	0.127	0.149	0.501	-0.294	-0.960	-0.325	-0.453	0.088	-0.474	-0.106	-0.322	-0.780	-0.373	-0.412	0.335	0.153	0.547	0.060	7.812
0.763	0.684	0.557	0.696	0.715	0.047	-0.539	0.293	0.152	0.240	-0.000	0.040	0.506	-0.234	-0.848	-0.177	-0.359	0.108	-0.449	0.031	-0.268	-0.809	-0.421	-0.495	0.148	-0.064	0.317	-0.127	11.719
0.809	0.986	0.627	0.844	0.853	0.071	-0.425	0.269	0.098	0.209	-0.184	-0.090	0.466	-0.184	-0.622	-0.011	-0.250	0.101	-0.409	0.177	-0.218	-0.825	-0.468	-0.592	-0.042	-0.300	0.084	-0.320	15.625
0.796	1.292	0.693	0.985	0.978	0.106	-0.285	0.231	-0.016	0.140	-0.419	-0.237	0.388	-0.149	-0.326	0.165	-0.122	0.081	-0.349	0.326	-0.172	-0.819	-0.502	-0.694	-0.215	-0.546	-0.146	-0.514	19.531
0.767	1.569	0.760	1.109	1.086	0.160	-0.130	0.175	-0.187	0.037	-0.693	-0.397	0.286	-0.132	-0.008	0.342	0.018	0.062	-0.270	0.472	-0.131	-0.788	-0.517	-0.793	-0.359	-0.794	-0.369	-0.706	23.438
0.769	1.789	0.834	1.206	1.171	0.238	0.030	0.097	-0.405	-0.090	-0.985	-0.563	0.180	-0.130	0.290	0.508	0.162	0.060	-0.176	0.609	-0.095	-0.732	-0.508	-0.879	-0.466	-1.038	-0.584	-0.892	27.344
0.835	1.929	0.926	1.270	1.232	0.339	0.187	0.000	-0.651	-0.224	-1.269	-0.728	0.091	-0.139	0.536	0.656	0.299	0.083	-0.074	0.731	-0.062	-0.655	-0.481	-0.945	-0.538	-1.268	-0.783	-1.067	31.250
0.969	1.981	1.042	1.298	1.268	0.449	0.337	-0.110	-0.897	-0.343	-1.514	-0.883	0.038	-0.152	0.711	0.776	0.415	0.128	0.028	0.831	-0.032	-0.566	-0.439	-0.989	-0.581	-1.473	-0.957	-1.220	35.156
1.148	1.951	1.180	1.287	1.277	0.546	0.479	-0.219	-1.109	-0.424	-1.684	-1.011	0.035	-0.161	0.803	0.862	0.499	0.181	0.122	0.903	-0.005	-0.478	-0.394	-1.005	-0.603	-1.633	-1.086	-1.334	39.062
1.318	1.852	1.322	1.238	1.258	0.600	0.618	-0.309	-1.246	-0.439	-1.742	-1.093	0.086	-0.162	0.803	0.905	0.537	0.218	0.198	0.937	0.014	-0.404	-0.353	-0.990	-0.608	-1.720	-1.144	-1.381	42.969
1.417	1.700	1.435	1.148	1.205	0.581	0.759	-0.355	-1.265	-0.359	-1.647	-1.101	0.186	-0.158	0.705	0.894	0.513	0.209	0.240	0.923	0.016	-0.363	-0.325	-0.941	-0.595	-1.697	-1.100	-1.326	46.875
1.380	1.507	1.473	1.009	1.113	0.462	0.913	-0.331	-1.118	-0.160	-1.364	-1.002	0.322	-0.156	0.499	0.812	0.407	0.128	0.231	0.844	-0.014	-0.370	-0.319	-0.854	-0.552	-1.521	-0.925	-1.128	50.781
1.161	1.270	1.387	0.810	0.972	0.231	1.083	-0.211	-0.766	0.177	-0.860	-0.764	0.473	-0.170	0.171	0.641	0.198	-0.047	0.148	0.682	-0.094	-0.442	-0.342	-0.725	-0.460	-1.153	-0.595	-0.747	54.688
0.732	0.970	1.135	0.536	0.769	-0.110	1.275	0.027	-0.174	0.662	-0.114	-0.362	0.620	-0.220	-0.290	0.361	-0.129	-0.327	-0.032	0.415	-0.246	-0.590	-0.399	-0.553	-0.300	-0.564	-0.100	-0.153	58.594
0.096	0.581	0.696	0.171	0.496	-0.540	1.487	0.397	0.673	1.293	0.882	0.221	0.743	-0.324	-0.896	-0.044	-0.583	-0.707	-0.324	0.028	-0.488	-0.822	-0.492	-0.344	-0.054	0.254	0.554	0.666	62.500
-0.719	0.077	0.076	-0.293	0.149	-1.026	1.710	0.904	1.774	2.054	2.113	0.979	0.830	-0.498	-1.651	-0.580	-1.155	-1.175	-0.731	-0.486	-0.831	-1.135	-0.624	-0.109	0.284	1.277	1.341	1.694	66.406
-1.657	-0.557	-0.686	-0.849	-0.268	-1.524	1.935	1.537	3.096	2.914	3.543	1.885	0.875	-0.749	-2.542	-1.238	-1.819	-1.708	-1.242	-1.122	-1.273	-1.517	-0.792	0.136	0.703	2.448	2.209	2.879	70.312
-2.647	-1.310	-1.522	-1.477	-0.736	-1.988	2.147	2.275	4.582	3.829	5.105	2.886	0.880	-1.069	-3.529	-1.992	-2.534	-2.277	-1.828	-1.851	-1.796	-1.947	-0.993	0.368	1.175	3.675	3.089	4.134	74.219
-3.604	-2.141	-2.347	-2.136	-1.226	-2.378	2.334	3.082	6.146	4.743	6.707	3.907	0.852	-1.440	-4.544	-2.792	-3.246	-2.850	-2.446	-2.630	-2.367	-2.393	-1.218	0.563	1.657	4.845	3.901	5.348	78.125
-4.446	-2.985	-3.073	-2.771	-1.697	-2.660	2.489	3.910	7.683	5.594	8.236	4.861	0.804	-1.828	-5.491	-3.578	-3.899	-3.395	-3.042	-3.397	-2.937	-2.818	-1.456	0.704	2.096	5.835	4.565	6.395	82.031
-5.105	-3.759	-3.625	-3.320	-2.103	-2.815	2.611	4.702	9.075	6.319	9.570	5.658	0.751	-2.190	-6.264	-4.280	-4.444	-3.874	-3.561	-4.083	-3.448	-3.182	-1.690	0.780	2.440	6.535	5.021	7.162	85.938
-5.534	-4.378	-3.955	-3.725	-2.397	-2.836	2.705	5.399	10.210	6.864	10.595	6.224	0.710	-2.479	-6.770	-4.833	-4.844	-4.251	-3.956	-4.620	-3.842	-3.446	-1.896	0.794	2.649	6.868	5.234	7.563	89.844
-5.718	-4.775	-4.047	-3.941	-2.542	-2.729	2.779	5.947	10.990	7.187	11.220	6.508	0.700	-2.648	-6.946	-5.186	-5.078	-4.491	-4.188	-4.952	-4.067	-3.573	-2.048	0.764	2.695	6.803	5.207	7.561	93.750
-5.668	-4.911	-3.921	-3.943	-2.514	-2.510	2.842	6.299	11.348	7.268	11.394	6.496	0.735	-2.662	-6.781	-5.307	-5.143	-4.566	-4.240	-5.042	-4.087	-3.541	-2.121	0.714	2.577	6.359	4.973	7.173	97.656
-5.422	-4.780	-3.618	-3.731	-2.308	-2.203	2.900	6.425	11.256	7.107	11.117	6.211	0.825	-2.504	-6.314	-5.193	-5.047	-4.461	-4.110	-4.883	-3.890	-3.342	-2.094	0.672	2.310	5.603	4.590	6.468	101.562
-5.031	-4.411	-3.198	-3.334	-1.941	-1.839	2.948	6.313	10.730	6.723	10.437	5.710	0.968	-2.179	-5.630	-4.863	-4.808	-4.181	-3.815	-4.494	-3.489	-2.989	-1.958	0.662	1.926	4.635	4.124	5.555	105.469
-4.553	-3.862	-2.721	-2.798	-1.449	-1.454	2.977	5.975	9.831	6.156	9.448	5.073	1.154	-1.718	-4.840	-4.360	-4.445	-3.750	-3.388	-3.920	-2.927	-2.514	-1.722	0.693	1.471	3.576	3.635	4.562	109.375
-4.044	-3.207	-2.241	-2.185	-0.887	-1.084	2.970	5.443	8.654	5.457	8.278	4.394	1.362	-1.174	-4.061	-3.740	-3.981	-3.216	-2.871	-3.228	-2.268	-1.968	-1.408	0.762	0.994	2.543	3.170	3.616	113.281
-3.551	-2.524	-1.802	-1.564	-0.317	-0.761	2.905	4.771	7.327	4.685	7.065	3.760	1.561	-0.612	-3.393	-3.071	-3.442	-2.635	-2.312	-2.495	-1.586	-1.409	-1.052	0.852	0.543	1.638	2.750	2.824	117.188
-3.112	-1.890	-1.433	-0.996	0.200	-0.512	2.766	4.029	5.985	3.900	5.942	3.245	1.715	-0.103	-2.905	-2.420	-2.861	-2.072	-1.760	-1.795	-0.958	-0.899	-0.699	0.934	0.155	0.937	2.380	2.259	121.094
-2.751	-1.362	-1.152	-0.535	0.612	-0.348	2.547	3.292	4.763	3.155	5.021	2.896	1.792	0.295	-2.624	-1.848	-2.279	-1.585	-1.264	-1.198	-0.449	-0.492	-0.393	0.981	-0.144	0.480	2.044	1.954	125.000
-2.484	-0.980	-0.964	-0.212	0.885	-0.270	2.252	2.635	3.774	2.496	4.377	2.737	1.765	0.538	-2.540	-1.406	-1.744	-1.215	-0.866	-0.752	-0.102	-0.226	-0.175	0.966	-0.345	0.273	1.718	1.902	128.906
-2.314	-0.758	-0.865	-0.041	1.001	-0.271	1.896	2.121	3.098	1.954	4.046	2.760	1.619	0.606	-2.611	-1.128	-1.307	-0.981	-0.597	-0.485	0.062	-0.120	-0.072	0.873	-0.452	0.292	1.380	2.064	132.812
-2.236	-0.690	-0.841	-0.017	0.965	-0.333	1.508	1.794	2.773	1.548	4.021	2.937	1.355	0.503	-2.781	-1.027	-1.011	-0.875	-0.476	-0.401	0.046	-0.174	-0.095	0.696	-0.484	0.493	1.013	2.377	136.719
-2.237	-0.748	-0.870	-0.115	0.799	-0.442	1.117	1.672	2.792	1.281	4.261	3.223	0.986	0.252	-2.994	-1.094	-0.882	-0.868	-0.501	-0.483	-0.126	-0.367	-0.237	0.440	-0.464	0.815	0.615	2.771	140.625
-2.298	-0.897	-0.929	-0.300	0.534	-0.580	0.756	1.747	3.111	1.144	4.698	3.568	0.540	-0.109	-3.204	-1.302	-0.921	-0.914	-0.655	-0.698	-0.413	-0.665	-0.475	0.119	-0.419	1.198	0.194	3.176	144.531
-2.399	-1.091	-0.995	-0.532	0.209	-0.736	0.455	1.986	3.653	1.118	5.254	3.919	0.054	-0.536	-3.383	-1.608	-1.107	-0.965	-0.907	-1.004	-0.771	-1.029	-0.776	-0.245	-0.370	1.585	-0.227	3.539	148.438
-2.523	-1.293	-1.053	-0.771	-0.138	-0.899	0.235	2.345	4.329	1.180	5.851	4.237	-0.432	-0.984	-3.524	-1.965	-1.394	-0.988	-1.215	-1.355	-1.154	-1.415	-1.101	-0.627	-0.332	1.934	-0.620	3.824	152.344
-2.659	-1.472	-1.095	-0.983	-0.472	-1.064	0.111	2.769	5.048	1.308	6.423	4.496	-0.879	-1.413	-3.630	-2.326	-1.733	-0.977	-1.540	-1.712	-1.526	-1.786	-1.416	-1.000	-0.308	2.225	-0.950	4.022	156.250
-2.804	-1.610	-1.127	-1.147	-0.770	-1.228	0.089	3.211	5.734	1.481	6.926	4.688	-1.255	-1.795	-3.711	-2.656	-2.074	-0.953	-1.846	-2.047	-1.861	-2.113	-1.693	-1.337	-0.293	2.453	-1.189	4.146	160.156
-2.963	-1.710	-1.161	-1.257	-1.017	-1.389	0.166	3.629	6.335	1.687	7.341	4.820	-1.535	-2.109	-3.777	-2.935	-2.388	-0.961	-2.110	-2.342	-2.144	-2.377	-1.916	-1.613	-0.274	2.635	-1.312	4.223	164.062
-3.144	-1.784	-1.211	-1.320	-1.207	-1.543	0.334	4.001	6.827	1.922	7.669	4.915	-1.711	-2.349	-3.836	-3.161	-2.663	-1.051	-2.322	-2.594	-2.375	-2.568	-2.081	-1.807	-0.237	2.795	-1.309	4.290	167.969
-3.353	-1.859	-1.287	-1.356	-1.342	-1.687	0.581	4.317	7.213	2.188	7.933	4.997	-1.781	-2.516	-3.898	-3.347	-2.914	-1.262	-2.487	-2.810	-2.558	-2.690	-2.193	-1.904	-0.166	2.962	-1.181	4.383	171.875
-3.592	-1.966	-1.396	-1.389	-1.429	-1.812	0.894	4.582	7.513	2.490	8.163	5.093	-1.757	-2.618	-3.976	-3.517	-3.165	-1.606	-2.616	-3.004	-2.705	-2.755	-2.263	-1.898	-0.054	3.163	-0.945	4.530	175.781
-3.858	-2.129	-1.534	-1.443	-1.474	-1.909	1.259	4.807	7.763	2.837	8.389	5.222	-1.657	-2.668	-4.091	-3.697	-3.445	-2.061	-2.729	-3.196	-2.830	-2.783	-2.302	-1.789	0.103	3.414	-0.623	4.748	179.688
-4.145	-2.359	-1.693	-1.533	-1.489	-1.963	1.662	5.011	7.994	3.231	8.637	5.393	-1.499	-2.680	-4.267	-3.910	-3.771	-2.577	-2.843	-3.402	-2.947	-2.795	-2.320	-1.587	0.301	3.720	-0.245	5.037	183.594
-4.450	-2.653	-1.860	-1.666	-1.481	-1.963	2.086	5.208	8.233	3.668	8.918	5.603	-1.306	-2.668	-4.530	-4.169	-4.145	-3.088	-2.969	-3.636	-3.065	-2.814	-2.322	-1.307	0.531	4.074	0.162	5.386	187.500
-4.774	-2.990	-2.024	-1.837	-1.457	-1.898	2.517	5.408	8.495	4.135	9.230	5.840	-1.094	-2.645	-4.899	-4.475	-4.549	-3.528	-3.112	-3.904	-3.194	-2.854	-2.310	-0.969	0.786	4.460	0.575	5.773	191.406
-5.122	-3.340	-2.178	-2.032	-1.421	-1.763	2.942	5.619	8.782	4.612	9.560	6.083	-0.878	-2.617	-5.377	-4.815	-4.952	-3.854	-3.271	-4.204	-3.336	-2.925	-2.281	-0.594	1.056	4.857	0.979	6.168	195.312
-5.501	-3.674	-2.321	-2.235	-1.379	-1.565	3.346	5.841	9.088	5.078	9.888	6.311	-0.668	-2.589	-5.953	-5.173	-5.318	-4.053	-3.435	-4.528	-3.491	-3.022	-2.234	-0.201	1.336	5.244	1.364	6.545	199.219
-5.914	-3.975	-2.463	-2.434	-1.333	-1.320	3.722	6.074	9.400	5.509	10.192	6.507	-0.467	-2.557	-6.598	-5.527	-5.617	-4.143	-3.592	-4.862	-3.653	-3.136	-2.164	0.192	1.627	5.606	1.726	6.881	203.125
-6.353	-4.236	-2.617	-2.621	-1.288	-1.057	4.065	6.315	9.709	5.887	10.456	6.664	-0.273	-2.518	-7.271	-5.862	-5.836	-4.169	-3.731	-5.191	-3.814	-3.248	-2.072	0.577	1.929	5.933	2.065	7.163	207.031
-6.800	-4.469	-2.801	-2.797	-1.248	-0.811	4.373	6.560	10.004	6.202	10.673	6.780	-0.080	-2.465	-7.932	-6.167	-5.977	-4.187	-3.844	-5.501	-3.964	-3.339	-1.961	0.945	2.243	6.224	2.379	7.388	210.938
-7.225	-4.690	-3.025	-2.970	-1.216	-0.615	4.651	6.804	10.279	6.449	10.838	6.861	0.120	-2.390	-8.541	-6.437	-6.058	-4.248	-3.927	-5.780	-4.092	-3.394	-1.837	1.296	2.570	6.481	2.672	7.559	214.844
-7.600	-4.919	-3.292	-3.147	-1.190	-0.493	4.906	7.039	10.525	6.626	10.955	6.916	0.332	-2.287	-9.064	-6.671	-6.107	-4.384	-3.984	-6.017	-4.186	-3.401	-1.706	1.627	2.907	6.713	2.941	7.685	218.750
-7.900	-5.164	-3.590	-3.333	-1.171	-0.461	5.144	7.255	10.736	6.737	11.024	6.950	0.557	-2.155	-9.475	-6.871	-6.150	-4.602	-4.018	-6.206	-4.240	-3.355	-1.575	1.936	3.248	6.925	3.185	7.774	222.656
-8.112	-5.420	-3.896	-3.526	-1.155	-0.515	5.367	7.437	10.902	6.786	11.046	6.963	0.791	-1.994	-9.755	-7.035	-6.206	-4.883	-4.035	-6.344	-4.246	-3.261	-1.448	2.220	3.580	7.120	3.402	7.832	226.562
-8.243	-5.668	-4.184	-3.715	-1.137	-0.641	5.577	7.575	11.014	6.778	11.017	6.949	1.024	-1.807	-9.894	-7.161	-6.283	-5.190	-4.035	-6.428	-4.203	-3.124	-1.327	2.472	3.891	7.295	3.585	7.861	230.469
-8.314	-5.883	-4.429	-3.886	-1.114	-0.811	5.769	7.656	11.062	6.718	10.934	6.897	1.243	-1.602	-9.889	-7.241	-6.372	-5.480	-4.015	-6.457	-4.110	-2.955	-1.211	2.685	4.165	7.447	3.726	7.858	234.375
-8.351	-6.039	-4.615	-4.020	-1.081	-0.996	5.938	7.673	11.039	6.614	10.793	6.797	1.436	-1.388	-9.751	-7.269	-6.454	-5.713	-3.964	-6.429	-3.969	-2.760	-1.095	2.854	4.390	7.568	3.819	7.819	238.281
-8.379	-6.116	-4.735	-4.104	-1.036	-1.164	6.076	7.621	10.943	6.471	10.596	6.639	1.592	-1.172	-9.510	-7.241	-6.502	-5.865	-3.871	-6.347	-3.785	-2.546	-0.973	2.975	4.556	7.652	3.860	7.741	242.188
-8.410	-6.109	-4.798	-4.131	-0.977	-1.294	6.179	7.504	10.776	6.299	10.347	6.423	1.706	-0.962	-9.211	-7.157	-6.494	-5.924	-3.729	-6.211	-3.563	-2.319	-0.839	3.050	4.659	7.694	3.847	7.625	246.094
-8.439	-6.025	-4.814	-4.101	-0.904	-1.371	6.244	7.329	10.548	6.110	10.059	6.157	1.780	-0.762	-8.907	-7.021	-6.413	-5.896	-3.536	-6.026	-3.309	-2.082	-0.689	3.084	4.702	7.693	3.787	7.477	250.000
-8.448	-5.881	-4.800	-4.021	-0.817	-1.393	6.273	7.109	10.271	5.915	9.748	5.855	1.822	-0.575	-8.653	-6.843	-6.260	-5.799	-3.300	-5.798	-3.034	-1.842	-0.528	3.085	4.689	7.650	3.686	7.307	253.906
-8.411	-5.698	-4.770	-3.901	-0.717	-1.365	6.273	6.860	9.961	5.725	9.433	5.540	1.842	-0.401	-8.488	-6.634	-6.051	-5.658	-3.040	-5.534	-2.745	-1.609	-0.361	3.066	4.627	7.571	3.560	7.128	257.812
-8.306	-5.492	-4.734	-3.749	-0.603	-1.298	6.253	6.603	9.634	5.551	9.133	5.235	1.854	-0.240	-8.426	-6.405	-5.811	-5.500	-2.781	-5.242	-2.453	-1.393	-0.203	3.036	4.527	7.461	3.420	6.954	261.719
-8.125	-5.275	-4.699	-3.574	-0.476	-1.204	6.222	6.356	9.305	5.397	8.862	4.959	1.867	-0.087	-8.455	-6.167	-5.573	-5.352	-2.551	-4.930	-2.166	-1.205	-0.066	3.007	4.397	7.325	3.281	6.795	265.625
-7.879	-5.055	-4.673	-3.383	-0.341	-1.101	6.190	6.133	8.983	5.267	8.628	4.727	1.892	0.059	-8.541	-5.924	-5.367	-5.232	-2.370	-4.604	-1.890	-1.050	0.041	2.988	4.246	7.173	3.154	6.657	269.531
-7.601	-4.833	-4.660	-3.182	-0.203	-1.006	6.163	5.947	8.677	5.159	8.434	4.548	1.933	0.205	-8.635	-5.682	-5.210	-5.151	-2.249	-4.273	-1.631	-0.925	0.114	2.986	4.085	7.011	3.048	6.541	273.438
-7.338	-4.611	-4.667	-2.979	-0.070	-0.936	6.143	5.803	8.392	5.071	8.276	4.421	1.993	0.353	-8.694	-5.443	-5.105	-5.112	-2.182	-3.943	-1.388	-0.821	0.161	3.006	3.920	6.849	2.971	6.445	277.344
-7.138	-4.391	-4.698	-2.782	0.053	-0.898	6.129	5.697	8.131	5.002	8.145	4.338	2.072	0.508	-8.686	-5.207	-5.041	-5.113	-2.152	-3.620	-1.160	-0.724	0.192	3.049	3.760	6.693	2.925	6.361	281.250
-7.039	-4.178	-4.751	-2.598	0.160	-0.894	6.119	5.624	7.894	4.949	8.031	4.287	2.166	0.671	-8.606	-4.977	-4.994	-5.148	-2.130	-3.309	-0.943	-0.618	0.225	3.116	3.610	6.549	2.913	6.281	285.156
-7.055	-3.974	-4.820	-2.433	0.254	-0.916	6.109	5.573	7.680	4.910	7.919	4.251	2.274	0.842	-8.470	-4.756	-4.937	-5.207	-2.086	-3.016	-0.732	-0.492	0.275	3.203	3.474	6.421	2.934	6.194	289.062
-7.172	-3.784	-4.892	-2.288	0.337	-0.949	6.098	5.533	7.488	4.884	7.797	4.211	2.390	1.020	-8.314	-4.545	-4.844	-5.280	-1.997	-2.743	-0.524	-0.338	0.353	3.303	3.356	6.310	2.982	6.090	292.969
-7.349	-3.607	-4.951	-2.163	0.417	-0.978	6.084	5.491	7.314	4.867	7.654	4.148	2.509	1.202	-8.176	-4.349	-4.701	-5.354	-1.847	-2.489	-0.317	-0.157	0.463	3.412	3.257	6.211	3.053	5.962	296.875
-7.536	-3.445	-4.981	-2.053	0.500	-0.989	6.070	5.438	7.154	4.858	7.481	4.049	2.629	1.385	-8.086	-4.170	-4.506	-5.418	-1.635	-2.255	-0.109	0.046	0.605	3.522	3.175	6.118	3.139	5.802	300.781
-7.681	-3.296	-4.971	-1.954	0.592	-0.972	6.062	5.368	7.006	4.851	7.275	3.906	2.747	1.566	-8.059	-4.011	-4.273	-5.461	-1.374	-2.038	0.096	0.260	0.770	3.630	3.107	6.023	3.234	5.611	304.688
-7.747	-3.165	-4.922	-1.861	0.696	-0.925	6.066	5.280	6.870	4.844	7.034	3.718	2.865	1.743	-8.091	-3.873	-4.026	-5.478	-1.084	-1.836	0.296	0.477	0.947	3.733	3.047	5.918	3.330	5.390	308.594
-7.717	-3.057	-4.840	-1.772	0.810	-0.847	6.090	5.179	6.744	4.834	6.764	3.490	2.983	1.912	-8.166	-3.755	-3.793	-5.469	-0.787	-1.648	0.484	0.689	1.124	3.829	2.990	5.796	3.417	5.146	312.500
-7.602	-2.977	-4.739	-1.685	0.933	-0.744	6.140	5.071	6.630	4.818	6.472	3.235	3.104	2.074	-8.258	-3.656	-3.598	-5.438	-0.505	-1.473	0.655	0.893	1.293	3.917	2.929	5.653	3.488	4.888	316.406
-7.431	-2.931	-4.635	-1.600	1.062	-0.619	6.216	4.967	6.530	4.795	6.172	2.968	3.232	2.226	-8.347	-3.570	-3.456	-5.396	-0.255	-1.310	0.807	1.087	1.445	3.997	2.861	5.489	3.535	4.628	320.312
-7.248	-2.920	-4.539	-1.517	1.196	-0.478	6.317	4.877	6.445	4.766	5.880	2.710	3.366	2.367	-8.421	-3.494	-3.369	-5.358	-0.043	-1.159	0.937	1.270	1.576	4.070	2.785	5.309	3.549	4.379	324.219
-7.102	-2.936	-4.458	-1.434	1.334	-0.323	6.436	4.812	6.379	4.730	5.612	2.480	3.507	2.496	-8.479	-3.421	-3.331	-5.338	0.124	-1.021	1.044	1.439	1.684	4.136	2.703	5.122	3.528	4.151	328.125
-7.032	-2.963	-4.394	-1.348	1.477	-0.156	6.566	4.778	6.335	4.691	5.389	2.298	3.648	2.611	-8.529	-3.346	-3.327	-5.346	0.246	-0.895	1.132	1.588	1.768	4.194	2.618	4.939	3.471	3.958	332.031
-7.064	-2.978	-4.344	-1.253	1.627	0.025	6.701	4.778	6.315	4.651	5.225	2.179	3.784	2.713	-8.586	-3.267	-3.342	-5.390	0.321	-0.782	1.203	1.710	1.827	4.245	2.535	4.773	3.387	3.808	335.938
-7.200	-2.956	-4.303	-1.146	1.787	0.221	6.836	4.809	6.319	4.613	5.132	2.132	3.906	2.802	-8.668	-3.184	-3.363	-5.470	0.351	-0.680	1.262	1.797	1.861	4.290	2.459	4.635	3.287	3.706	339.844
-7.417	-2.878	-4.271	-1.026	1.956	0.429	6.967	4.862	6.345	4.579	5.111	2.158	4.004	2.881	-8.790	-3.099	-3.384	-5.579	0.338	-0.590	1.316	1.845	1.872	4.332	2.392	4.533	3.189	3.654	343.750
-7.678	-2.737	-4.252	-0.899	2.131	0.644	7.092	4.928	6.387	4.551	5.154	2.246	4.071	2.955	-8.958	-3.018	-3.403	-5.706	0.288	-0.509	1.372	1.857	1.866	4.371	2.337	4.470	3.108	3.647	347.656
-7.933	-2.542	-4.251	-0.775	2.307	0.851	7.205	4.993	6.434	4.528	5.243	2.377	4.106	3.027	-9.169	-2.943	-3.420	-5.834	0.210	-0.436	1.436	1.846	1.851	4.414	2.298	4.443	3.057	3.675	351.562
-8.135	-2.319	-4.276	-0.672	2.476	1.033	7.300	5.046	6.474	4.509	5.353	2.522	4.110	3.102	-9.405	-2.878	-3.436	-5.943	0.118	-0.368	1.515	1.827	1.840	4.462	2.279	4.449	3.044	3.721	355.469
-8.250	-2.102	-4.331	-0.604	2.631	1.172	7.369	5.074	6.492	4.487	5.453	2.649	4.090	3.183	-9.641	-2.821	-3.452	-6.014	0.030	-0.301	1.612	1.820	1.845	4.519	2.286	4.477	3.070	3.770	359.375
-8.262	-1.927	-4.411	-0.581	2.768	1.254	7.406	5.068	6.470	4.457	5.512	2.728	4.057	3.271	-9.845	-2.768	-3.465	-6.029	-0.042	-0.232	1.728	1.841	1.877	4.585	2.324	4.516	3.129	3.805	363.281
-8.171	-1.817	-4.507	-0.606	2.883	1.276	7.406	5.021	6.398	4.408	5.504	2.732	4.021	3.365	-9.989	-2.715	-3.470	-5.978	-0.084	-0.160	1.862	1.901	1.941	4.657	2.395	4.557	3.208	3.811	367.188
-7.996	-1.783	-4.600	-0.669	2.976	1.244	7.370	4.930	6.266	4.333	5.412	2.648	3.993	3.462	-10.048	-2.655	-3.460	-5.859	-0.093	-0.083	2.007	2.000	2.036	4.731	2.497	4.586	3.294	3.781	371.094
-7.763	-1.819	-4.671	-0.755	3.048	1.171	7.303	4.797	6.073	4.229	5.229	2.476	3.979	3.555	-10.009	-2.587	-3.431	-5.679	-0.070	-0.005	2.153	2.127	2.154	4.799	2.621	4.594	3.368	3.712	375.000
-7.503	-1.904	-4.704	-0.841	3.097	1.078	7.216	4.630	5.825	4.096	4.964	2.233	3.981	3.637	-9.868	-2.511	-3.381	-5.457	-0.025	0.068	2.286	2.264	2.277	4.852	2.754	4.571	3.415	3.609	378.906
-7.242	-2.010	-4.687	-0.907	3.125	0.983	7.122	4.444	5.539	3.942	4.635	1.949	3.995	3.702	-9.628	-2.433	-3.318	-5.215	0.024	0.126	2.392	2.390	2.387	4.881	2.878	4.510	3.421	3.479	382.812
-7.000	-2.111	-4.615	-0.939	3.132	0.904	7.037	4.261	5.235	3.784	4.274	1.662	4.018	3.743	-9.300	-2.364	-3.258	-4.981	0.057	0.157	2.460	2.483	2.461	4.876	2.972	4.406	3.379	3.329	386.719
-6.784	-2.186	-4.495	-0.930	3.120	0.855	6.978	4.102	4.942	3.637	3.916	1.413	4.042	3.758	-8.902	-2.318	-3.220	-4.781	0.053	0.153	2.481	2.525	2.481	4.830	3.018	4.253	3.283	3.169	390.625
-6.592	-2.226	-4.336	-0.883	3.094	0.843	6.958	3.992	4.687	3.521	3.597	1.234	4.065	3.749	-8.459	-2.305	-3.223	-4.634	-0.002	0.106	2.456	2.509	2.436	4.741	3.006	4.050	3.134	3.001	394.531
-6.411	-2.233	-4.153	-0.809	3.064	0.868	6.987	3.945	4.493	3.448	3.346	1.144	4.083	3.725	-8.003	-2.333	-3.280	-4.548	-0.113	0.018	2.393	2.436	2.325	4.610	2.932	3.797	2.938	2.829	398.438
-6.224	-2.218	-3.962	-0.723	3.039	0.925	7.068	3.970	4.376	3.427	3.182	1.145	4.099	3.695	-7.573	-2.401	-3.396	-4.515	-0.276	-0.100	2.307	2.316	2.158	4.445	2.800	3.502	2.705	2.652	402.344
-6.019	-2.198	-3.780	-0.644	3.026	1.004	7.195	4.063	4.341	3.455	3.109	1.223	4.113	3.670	-7.203	-2.503	-3.567	-4.516	-0.480	-0.236	2.216	2.165	1.953	4.259	2.626	3.177	2.448	2.470	406.250
-5.794	-2.192	-3.620	-0.591	3.031	1.097	7.351	4.214	4.383	3.523	3.119	1.351	4.128	3.657	-6.921	-2.631	-3.782	-4.521	-0.705	-0.374	2.134	2.003	1.736	4.068	2.429	2.841	2.189	2.286	410.156
-5.560	-2.220	-3.494	-0.580	3.054	1.192	7.518	4.406	4.486	3.618	3.193	1.495	4.145	3.660	-6.744	-2.774	-4.026	-4.499	-0.934	-0.499	2.073	1.850	1.533	3.894	2.234	2.518	1.948	2.103	414.062
-5.336	-2.301	-3.411	-0.623	3.095	1.284	7.674	4.617	4.629	3.722	3.303	1.622	4.162	3.682	-6.670	-2.921	-4.281	-4.430	-1.143	-0.602	2.037	1.726	1.367	3.754	2.064	2.231	1.748	1.926	417.969
-5.148	-2.446	-3.372	-0.722	3.151	1.371	7.797	4.826	4.784	3.819	3.420	1.704	4.178	3.719	-6.682	-3.065	-4.533	-4.308	-1.316	-0.679	2.027	1.647	1.257	3.662	1.937	1.997	1.604	1.758	421.875
-5.014	-2.661	-3.375	-0.875	3.220	1.453	7.875	5.013	4.924	3.895	3.517	1.727	4.191	3.767	-6.750	-3.198	-4.765	-4.146	-1.438	-0.728	2.039	1.621	1.208	3.624	1.864	1.824	1.522	1.600	425.781
-4.941	-2.940	-3.407	-1.069	3.300	1.530	7.899	5.164	5.024	3.942	3.575	1.686	4.198	3.821	-6.831	-3.315	-4.961	-3.971	-1.500	-0.753	2.068	1.650	1.217	3.635	1.843	1.708	1.494	1.450	429.688
-4.920	-3.263	-3.449	-1.284	3.392	1.605	7.870	5.264	5.064	3.955	3.583	1.589	4.196	3.872	-6.882	-3.406	-5.108	-3.810	-1.502	-0.758	2.107	1.725	1.268	3.679	1.864	1.635	1.500	1.303	433.594
-4.927	-3.599	-3.476	-1.493	3.495	1.675	7.793	5.304	5.028	3.930	3.536	1.449	4.184	3.914	-6.872	-3.461	-5.192	-3.688	-1.449	-0.745	2.151	1.830	1.342	3.738	1.906	1.583	1.516	1.153	437.500
-4.931	-3.906	-3.462	-1.668	3.607	1.737	7.677	5.276	4.904	3.867	3.434	1.284	4.162	3.943	-6.785	-3.471	-5.203	-3.617	-1.352	-0.714	2.199	1.946	1.418	3.791	1.944	1.533	1.517	0.995	441.406
-4.902	-4.142	-3.383	-1.781	3.725	1.784	7.528	5.173	4.688	3.764	3.277	1.108	4.134	3.960	-6.631	-3.423	-5.136	-3.592	-1.223	-0.659	2.252	2.058	1.482	3.820	1.955	1.466	1.487	0.828	445.312
-4.818	-4.267	-3.230	-1.810	3.845	1.811	7.355	4.992	4.379	3.621	3.069	0.929	4.104	3.966	-6.441	-3.308	-4.989	-3.602	-1.069	-0.574	2.319	2.158	1.526	3.819	1.920	1.374	1.419	0.656	449.219
-4.668	-4.252	-3.002	-1.745	3.964	1.815	7.163	4.735	3.986	3.438	2.812	0.754	4.075	3.970	-6.259	-3.122	-4.766	-3.628	-0.893	-0.448	2.406	2.246	1.557	3.790	1.830	1.257	1.320	0.488	453.125
-4.461	-4.087	-2.717	-1.583	4.077	1.794	6.954	4.408	3.523	3.219	2.510	0.580	4.049	3.979	-6.122	-2.867	-4.481	-3.654	-0.696	-0.270	2.525	2.329	1.582	3.742	1.684	1.124	1.204	0.334	457.031
-4.213	-3.780	-2.403	-1.338	4.181	1.752	6.733	4.025	3.016	2.974	2.173	0.410	4.027	4.003	-6.055	-2.553	-4.151	-3.669	-0.475	-0.036	2.682	2.419	1.616	3.687	1.490	0.984	1.089	0.208	460.938
-3.951	-3.356	-2.090	-1.032	4.276	1.696	6.505	3.606	2.495	2.714	1.816	0.242	4.005	4.045	-6.060	-2.196	-3.803	-3.673	-0.234	0.254	2.877	2.526	1.665	3.637	1.261	0.848	0.988	0.120	464.844
-3.699	-2.854	-1.808	-0.694	4.360	1.634	6.278	3.178	1.995	2.455	1.458	0.083	3.981	4.109	-6.116	-1.817	-3.463	-3.675	0.022	0.590	3.108	2.654	1.731	3.599	1.011	0.724	0.909	0.075	468.750
-3.480	-2.318	-1.577	-0.353	4.438	1.576	6.061	2.768	1.547	2.212	1.120	-0.066	3.949	4.191	-6.191	-1.440	-3.154	-3.689	0.278	0.955	3.361	2.800	1.807	3.574	0.755	0.614	0.849	0.069	472.656
-3.310	-1.788	-1.406	-0.036	4.512	1.535	5.868	2.402	1.179	1.997	0.821	-0.199	3.906	4.284	-6.255	-1.085	-2.890	-3.731	0.519	1.329	3.623	2.954	1.883	3.559	0.505	0.515	0.800	0.089	476.562
-3.197	-1.294	-1.291	0.241	4.586	1.520	5.707	2.095	0.902	1.814	0.572	-0.319	3.847	4.377	-6.285	-0.764	-2.672	-3.806	0.728	1.689	3.873	3.104	1.947	3.546	0.273	0.423	0.751	0.116	480.469
-3.138	-0.851	-1.224	0.475	4.663	1.536	5.584	1.855	0.716	1.662	0.374	-0.430	3.773	4.459	-6.274	-0.486	-2.489	-3.910	0.894	2.017	4.097	3.235	1.991	3.524	0.066	0.331	0.690	0.126	484.375
-3.123	-0.463	-1.188	0.671	4.744	1.582	5.496	1.679	0.608	1.536	0.220	-0.542	3.687	4.521	-6.229	-0.247	-2.318	-4.029	1.013	2.300	4.282	3.334	2.014	3.485	-0.108	0.233	0.610	0.101	488.281
-3.132	-0.123	-1.171	0.841	4.824	1.653	5.435	1.557	0.554	1.424	0.097	-0.665	3.593	4.557	-6.166	-0.041	-2.137	-4.141	1.091	2.536	4.421	3.396	2.018	3.424	-0.246	0.128	0.509	0.024	492.188
-3.142	0.179	-1.159	0.999	4.898	1.736	5.388	1.475	0.529	1.317	-0.011	-0.804	3.500	4.568	-6.099	0.142	-1.930	-4.225	1.138	2.727	4.516	3.420	2.008	3.340	-0.347	0.016	0.390	-0.108	496.094
-3.135	0.450	-1.144	1.155	4.959	1.811	5.341	1.420	0.508	1.209	-0.117	-0.962	3.416	4.557	-6.036	0.311	-1.691	-4.269	1.170	2.882	4.574	3.410	1.991	3.237	-0.416	-0.099	0.259	-0.289	500.000
-3.101	0.692	-1.119	1.311	4.999	1.862	5.282	1.383	0.477	1.096	-0.226	-1.130	3.345	4.529	-5.977	0.472	-1.429	-4.268	1.203	3.011	4.604	3.379	1.974	3.121	-0.459	-0.210	0.126	-0.500	503.906
-3.043	0.902	-1.082	1.461	5.013	1.870	5.201	1.358	0.432	0.982	-0.336	-1.295	3.291	4.492	-5.921	0.627	-1.158	-4.230	1.253	3.123	4.614	3.337	1.963	3.003	-0.485	-0.309	0.000	-0.718	507.812
-2.977	1.071	-1.032	1.593	4.997	1.826	5.097	1.344	0.378	0.877	-0.436	-1.439	3.251	4.451	-5.866	0.772	-0.897	-4.163	1.329	3.222	4.612	3.298	1.960	2.889	-0.501	-0.385	-0.106	-0.914	511.719
-2.927	1.192	-0.969	1.693	4.950	1.726	4.972	1.339	0.328	0.789	-0.512	-1.542	3.221	4.408	-5.818	0.904	-0.662	-4.080	1.435	3.308	4.600	3.270	1.968	2.788	-0.510	-0.430	-0.185	-1.064	515.625
-2.919	1.258	-0.897	1.745	4.874	1.575	4.832	1.341	0.294	0.729	-0.548	-1.589	3.194	4.364	-5.788	1.016	-0.468	-3.988	1.567	3.377	4.575	3.255	1.989	2.705	-0.509	-0.433	-0.228	-1.147	519.531
-2.973	1.266	-0.823	1.739	4.771	1.386	4.687	1.346	0.286	0.703	-0.532	-1.572	3.166	4.316	-5.788	1.102	-0.320	-3.892	1.714	3.426	4.532	3.251	2.023	2.642	-0.493	-0.389	-0.230	-1.154	523.438
-3.101	1.217	-0.760	1.672	4.643	1.175	4.548	1.352	0.307	0.715	-0.459	-1.491	3.132	4.261	-5.825	1.155	-0.220	-3.790	1.860	3.448	4.466	3.254	2.070	2.600	-0.448	-0.293	-0.191	-1.085	527.344
-3.299	1.112	-0.727	1.545	4.493	0.964	4.427	1.353	0.354	0.765	-0.331	-1.352	3.090	4.198	-5.898	1.172	-0.168	-3.680	1.987	3.440	4.372	3.254	2.125	2.580	-0.366	-0.146	-0.112	-0.947	531.250
-3.549	0.954	-0.743	1.365	4.324	0.769	4.333	1.348	0.420	0.848	-0.156	-1.168	3.040	4.125	-5.989	1.148	-0.159	-3.559	2.078	3.402	4.249	3.242	2.185	2.582	-0.242	0.046	0.005	-0.755	535.156
-3.823	0.744	-0.821	1.145	4.136	0.599	4.269	1.332	0.492	0.958	0.052	-0.952	2.985	4.043	-6.072	1.081	-0.189	-3.425	2.120	3.337	4.100	3.212	2.244	2.606	-0.078	0.272	0.156	-0.524	539.062
-4.090	0.487	-0.965	0.896	3.933	0.455	4.236	1.304	0.560	1.089	0.274	-0.720	2.929	3.954	-6.113	0.973	-0.253	-3.276	2.106	3.248	3.929	3.162	2.295	2.653	0.116	0.519	0.337	-0.268	542.969
-4.324	0.189	-1.167	0.634	3.717	0.329	4.225	1.261	0.611	1.231	0.491	-0.483	2.878	3.861	-6.085	0.827	-0.345	-3.118	2.039	3.143	3.743	3.095	2.333	2.722	0.322	0.769	0.543	-0.000	546.875
-4.505	-0.138	-1.408	0.371	3.491	0.205	4.222	1.203	0.637	1.369	0.685	-0.250	2.835	3.764	-5.971	0.654	-0.455	-2.959	1.929	3.028	3.552	3.019	2.355	2.812	0.522	1.009	0.768	0.272	550.781
-4.622	-0.474	-1.662	0.121	3.260	0.071	4.208	1.129	0.632	1.491	0.840	-0.028	2.802	3.666	-5.773	0.464	-0.574	-2.810	1.790	2.908	3.361	2.942	2.362	2.917	0.699	1.225	1.003	0.543	554.688
-4.668	-0.798	-1.903	-0.108	3.030	-0.083	4.164	1.040	0.592	1.579	0.946	0.178	2.780	3.566	-5.510	0.273	-0.692	-2.678	1.642	2.788	3.175	2.873	2.355	3.027	0.843	1.408	1.232	0.806	558.594
-4.641	-1.091	-2.107	-0.306	2.811	-0.259	4.074	0.938	0.514	1.617	0.995	0.363	2.766	3.466	-5.210	0.094	-0.801	-2.564	1.500	2.670	3.000	2.817	2.334	3.126	0.949	1.549	1.438	1.053	562.500
-4.540	-1.335	-2.259	-0.469	2.609	-0.448	3.932	0.827	0.401	1.595	0.985	0.523	2.758	3.365	-4.906	-0.061	-0.896	-2.459	1.376	2.556	2.837	2.773	2.304	3.197	1.018	1.644	1.597	1.271	566.406
-4.368	-1.523	-2.350	-0.596	2.436	-0.635	3.742	0.714	0.256	1.509	0.919	0.652	2.754	3.268	-4.617	-0.181	-0.974	-2.344	1.277	2.448	2.690	2.735	2.264	3.223	1.053	1.688	1.691	1.445	570.312
-4.136	-1.655	-2.380	-0.686	2.301	-0.797	3.521	0.603	0.087	1.363	0.805	0.744	2.752	3.179	-4.352	-0.261	-1.032	-2.201	1.202	2.350	2.564	2.693	2.214	3.191	1.057	1.672	1.700	1.558	574.219
-3.861	-1.738	-2.353	-0.743	2.212	-0.911	3.293	0.500	-0.097	1.169	0.649	0.792	2.753	3.105	-4.102	-0.297	-1.067	-2.016	1.150	2.268	2.464	2.641	2.154	3.098	1.031	1.591	1.616	1.592	578.125
-3.561	-1.782	-2.278	-0.770	2.175	-0.955	3.086	0.405	-0.289	0.947	0.457	0.788	2.759	3.054	-3.849	-0.287	-1.071	-1.788	1.119	2.211	2.399	2.577	2.085	2.948	0.975	1.439	1.440	1.536	582.031
-3.258	-1.794	-2.160	-0.769	2.190	-0.918	2.922	0.313	-0.485	0.713	0.230	0.721	2.771	3.035	-3.573	-0.230	-1.033	-1.529	1.110	2.187	2.377	2.508	2.012	2.758	0.883	1.210	1.183	1.381	585.938
-2.971	-1.776	-2.008	-0.742	2.255	-0.802	2.814	0.218	-0.686	0.482	-0.039	0.584	2.791	3.054	-3.260	-0.123	-0.942	-1.260	1.127	2.210	2.406	2.450	1.944	2.551	0.752	0.905	0.866	1.125	589.844
-2.712	-1.725	-1.822	-0.685	2.362	-0.620	2.759	0.108	-0.901	0.259	-0.359	0.367	2.817	3.117	-2.907	0.035	-0.784	-1.001	1.181	2.286	2.491	2.426	1.893	2.355	0.579	0.530	0.516	0.773	593.750
-2.486	-1.629	-1.607	-0.595	2.499	-0.402	2.740	-0.027	-1.142	0.043	-0.743	0.066	2.849	3.223	-2.522	0.246	-0.555	-0.770	1.277	2.423	2.633	2.457	1.875	2.194	0.369	0.095	0.164	0.335	597.656
-2.288	-1.475	-1.363	-0.465	2.653	-0.178	2.731	-0.194	-1.418	-0.175	-1.199	-0.320	2.886	3.369	-2.122	0.507	-0.259	-0.568	1.417	2.618	2.828	2.558	1.898	2.086	0.130	-0.379	-0.162	-0.172	601.562
-2.106	-1.255	-1.102	-0.295	2.811	0.020	2.705	-0.396	-1.739	-0.407	-1.729	-0.779	2.928	3.546	-1.728	0.811	0.089	-0.388	1.596	2.865	3.065	2.730	1.969	2.038	-0.121	-0.868	-0.438	-0.726	605.469
-1.925	-0.971	-0.837	-0.088	2.964	0.168	2.640	-0.628	-2.102	-0.660	-2.319	-1.294	2.974	3.740	-1.354	1.143	0.463	-0.214	1.802	3.147	3.330	2.963	2.086	2.046	-0.363	-1.346	-0.651	-1.300	609.375
-1.733	-0.640	-0.593	0.146	3.101	0.254	2.524	-0.880	-2.497	-0.938	-2.943	-1.837	3.024	3.934	-1.011	1.484	0.834	-0.026	2.015	3.445	3.602	3.234	2.238	2.097	-0.576	-1.784	-0.796	-1.863	613.281
-1.523	-0.292	-0.393	0.388	3.217	0.282	2.356	-1.136	-2.900	-1.231	-3.562	-2.373	3.076	4.113	-0.704	1.809	1.173	0.189	2.221	3.735	3.860	3.514	2.411	2.171	-0.741	-2.155	-0.877	-2.384	617.188
-1.298	0.036	-0.261	0.616	3.307	0.261	2.151	-1.375	-3.280	-1.519	-4.129	-2.866	3.130	4.263	-0.440	2.096	1.458	0.430	2.403	3.993	4.086	3.774	2.587	2.249	-0.852	-2.442	-0.905	-2.833	621.094
-1.070	0.308	-0.209	0.806	3.370	0.209	1.932	-1.576	-3.601	-1.776	-4.598	-3.280	3.183	4.371	-0.229	2.322	1.675	0.682	2.552	4.200	4.263	3.990	2.748	2.312	-0.909	-2.632	-0.895	-3.186	625.000
-0.862	0.500	-0.238	0.938	3.406	0.148	1.728	-1.718	-3.830	-1.969	-4.924	-3.584	3.229	4.434	-0.085	2.473	1.819	0.916	2.662	4.342	4.380	4.143	2.878	2.349	-0.921	-2.724	-0.865	-3.426	628.906
-0.704	0.600	-0.335	1.002	3.416	0.094	1.568	-1.784	-3.937	-2.069	-5.080	-3.756	3.265	4.448	-0.023	2.539	1.888	1.093	2.729	4.413	4.432	4.224	2.961	2.353	-0.902	-2.725	-0.828	-3.542	632.812
-0.633	0.615	-0.479	0.995	3.404	0.064	1.478	-1.765	-3.906	-2.054	-5.049	-3.785	3.287	4.417	-0.050	2.518	1.886	1.176	2.751	4.412	4.419	4.230	2.991	2.327	-0.866	-2.646	-0.794	-3.536	636.719
-0.684	0.565	-0.642	0.926	3.375	0.068	1.473	-1.659	-3.737	-1.916	-4.836	-3.672	3.291	4.344	-0.165	2.415	1.815	1.136	2.723	4.345	4.348	4.167	2.964	2.278	-0.823	-2.502	-0.768	-3.414	640.625
-0.883	0.476	-0.796	0.810	3.332	0.111	1.555	-1.475	-3.441	-1.661	-4.461	-3.429	3.276	4.237	-0.357	2.241	1.677	0.962	2.644	4.223	4.230	4.042	2.881	2.216	-0.779	-2.309	-0.747	-3.191	644.531
-1.235	0.375	-0.920	0.667	3.277	0.188	1.714	-1.231	-3.047	-1.316	-3.961	-3.080	3.241	4.101	-0.608	2.012	1.481	0.665	2.514	4.061	4.078	3.870	2.752	2.149	-0.735	-2.082	-0.723	-2.890	648.438
-1.717	0.280	-0.995	0.517	3.212	0.289	1.924	-0.953	-2.594	-0.919	-3.383	-2.657	3.187	3.945	-0.895	1.750	1.242	0.278	2.341	3.874	3.905	3.665	2.590	2.087	-0.687	-1.837	-0.689	-2.536	652.344
-2.278	0.201	-1.013	0.375	3.133	0.396	2.152	-0.671	-2.131	-0.521	-2.787	-2.199	3.116	3.777	-1.199	1.484	0.985	-0.146	2.138	3.682	3.725	3.444	2.412	2.032	-0.629	-1.589	-0.638	-2.160	656.250
-2.846	0.138	-0.969	0.253	3.037	0.489	2.361	-0.421	-1.711	-0.174	-2.233	-1.751	3.027	3.605	-1.497	1.243	0.744	-0.544	1.927	3.505	3.553	3.224	2.239	1.983	-0.559	-1.355	-0.570	-1.796	660.156
-3.336	0.087	-0.866	0.158	2.921	0.547	2.516	-0.235	-1.384	0.072	-1.782	-1.357	2.920	3.437	-1.766	1.059	0.555	-0.853	1.734	3.363	3.401	3.023	2.087	1.935	-0.478	-1.155	-0.493	-1.481	664.062
-3.670	0.042	-0.718	0.092	2.783	0.555	2.587	-0.141	-1.196	0.178	-1.486	-1.061	2.795	3.282	-1.976	0.960	0.455	-1.019	1.586	3.273	3.279	2.858	1.973	1.877	-0.394	-1.010	-0.420	-1.250	667.969
-3.793	0.003	-0.539	0.057	2.625	0.503	2.559	-0.158	-1.177	0.123	-1.387	-0.898	2.651	3.148	-2.090	0.965	0.470	-1.005	1.509	3.253	3.197	2.743	1.907	1.798	-0.322	-0.943	-0.374	-1.134	671.875
-3.679	-0.025	-0.348	0.052	2.455	0.391	2.426	-0.293	-1.344	-0.100	-1.511	-0.894	2.489	3.039	-2.072	1.086	0.612	-0.797	1.519	3.312	3.162	2.691	1.895	1.689	-0.276	-0.974	-0.379	-1.158	675.781
-3.341	-0.025	-0.158	0.080	2.287	0.233	2.196	-0.541	-1.695	-0.479	-1.865	-1.064	2.311	2.958	-1.894	1.321	0.880	-0.407	1.629	3.455	3.178	2.710	1.939	1.542	-0.270	-1.116	-0.460	-1.338	679.688
-2.821	0.024	0.024	0.146	2.139	0.050	1.886	-0.889	-2.211	-0.989	-2.437	-1.406	2.119	2.907	-1.544	1.657	1.259	0.136	1.837	3.678	3.244	2.805	2.034	1.353	-0.314	-1.376	-0.635	-1.677	683.594
-2.187	0.144	0.196	0.258	2.035	-0.124	1.526	-1.308	-2.856	-1.593	-3.197	-1.904	1.918	2.883	-1.036	2.073	1.724	0.783	2.135	3.971	3.360	2.973	2.175	1.125	-0.409	-1.750	-0.915	-2.166	687.500
-1.512	0.352	0.365	0.421	1.995	-0.256	1.148	-1.767	-3.585	-2.250	-4.095	-2.528	1.716	2.885	-0.409	2.538	2.241	1.478	2.504	4.318	3.519	3.205	2.351	0.866	-0.545	-2.222	-1.298	-2.782	691.406
-0.869	0.650	0.541	0.640	2.033	-0.313	0.791	-2.228	-4.342	-2.916	-5.069	-3.235	1.520	2.908	0.280	3.021	2.772	2.161	2.916	4.695	3.713	3.482	2.549	0.589	-0.707	-2.765	-1.772	-3.492	695.312
-0.318	1.026	0.734	0.911	2.156	-0.274	0.492	-2.653	-5.071	-3.546	-6.047	-3.970	1.341	2.949	0.966	3.484	3.274	2.775	3.339	5.077	3.930	3.781	2.754	0.313	-0.872	-3.345	-2.310	-4.251	699.219
0.100	1.450	0.950	1.218	2.355	-0.132	0.279	-3.008	-5.719	-4.100	-6.956	-4.678	1.187	3.004	1.585	3.896	3.709	3.272	3.740	5.436	4.155	4.074	2.950	0.057	-1.015	-3.920	-2.879	-5.010	703.125
0.363	1.885	1.189	1.538	2.609	0.100	0.171	-3.266	-6.240	-4.545	-7.727	-5.305	1.067	3.070	2.089	4.227	4.042	3.618	4.086	5.746	4.372	4.335	3.119	-0.158	-1.115	-4.448	-3.441	-5.720	707.031
0.469	2.283	1.442	1.839	2.888	0.390	0.174	-3.414	-6.603	-4.854	-8.307	-5.807	0.989	3.145	2.442	4.457	4.252	3.793	4.352	5.987	4.566	4.542	3.249	-0.313	-1.153	-4.891	-3.956	-6.334	710.938
0.435	2.603	1.689	2.087	3.155	0.698	0.276	-3.450	-6.792	-5.015	-8.660	-6.152	0.958	3.229	2.624	4.573	4.332	3.800	4.523	6.145	4.721	4.680	3.335	-0.395	-1.121	-5.218	-4.388	-6.813	714.844
0.289	2.811	1.903	2.251	3.374	0.976	0.456	-3.382	-6.806	-5.023	-8.771	-6.323	0.977	3.320	2.624	4.574	4.292	3.660	4.598	6.212	4.826	4.743	3.376	-0.398	-1.022	-5.409	-4.703	-7.129	718.750
0.067	2.885	2.048	2.309	3.514	1.179	0.686	-3.229	-6.656	-4.885	-8.647	-6.318	1.049	3.414	2.446	4.464	4.151	3.407	4.585	6.188	4.873	4.735	3.380	-0.323	-0.866	-5.454	-4.874	-7.265	722.656
-0.197	2.820	2.092	2.251	3.551	1.274	0.937	-3.017	-6.366	-4.618	-8.308	-6.144	1.170	3.505	2.108	4.253	3.937	3.085	4.499	6.080	4.855	4.666	3.357	-0.179	-0.671	-5.359	-4.881	-7.212	726.562
-0.474	2.622	2.008	2.077	3.477	1.241	1.184	-2.770	-5.963	-4.244	-7.787	-5.818	1.336	3.582	1.648	3.957	3.675	2.734	4.359	5.895	4.771	4.549	3.316	0.018	-0.460	-5.134	-4.717	-6.975	730.469
-0.748	2.311	1.784	1.804	3.296	1.080	1.408	-2.511	-5.476	-3.792	-7.121	-5.360	1.535	3.635	1.120	3.592	3.384	2.387	4.179	5.642	4.625	4.397	3.262	0.251	-0.255	-4.800	-4.386	-6.567	734.375
-1.017	1.911	1.430	1.456	3.025	0.811	1.600	-2.258	-4.934	-3.296	-6.353	-4.796	1.754	3.653	0.586	3.178	3.072	2.062	3.965	5.334	4.420	4.222	3.196	0.497	-0.078	-4.380	-3.907	-6.009	738.281
-1.287	1.453	0.977	1.064	2.694	0.470	1.757	-2.023	-4.364	-2.785	-5.521	-4.153	1.975	3.628	0.102	2.734	2.742	1.764	3.719	4.984	4.168	4.030	3.112	0.737	0.057	-3.902	-3.314	-5.332	742.188
-1.569	0.969	0.477	0.661	2.339	0.102	1.882	-1.811	-3.790	-2.291	-4.669	-3.463	2.181	3.557	-0.295	2.283	2.393	1.490	3.438	4.609	3.882	3.826	3.003	0.953	0.142	-3.391	-2.651	-4.570	746.094
-1.875	0.491	-0.010	0.281	1.998	-0.247	1.978	-1.625	-3.238	-1.839	-3.837	-2.762	2.355	3.443	-0.593	1.847	2.030	1.229	3.121	4.226	3.578	3.615	2.865	1.134	0.177	-2.875	-1.969	-3.767	750.000
-2.205	0.050	-0.424	-0.047	1.701	-0.535	2.049	-1.466	-2.734	-1.452	-3.065	-2.085	2.484	3.294	-0.807	1.452	1.664	0.974	2.773	3.859	3.275	3.403	2.700	1.272	0.169	-2.379	-1.318	-2.967	753.906
-2.546	-0.325	-0.716	-0.304	1.472	-0.737	2.095	-1.336	-2.300	-1.146	-2.393	-1.472	2.559	3.123	-0.967	1.120	1.318	0.725	2.407	3.531	2.990	3.196	2.515	1.363	0.131	-1.926	-0.743	-2.215	757.812
-2.871	-0.612	-0.859	-0.478	1.319	-0.844	2.113	-1.236	-1.958	-0.931	-1.853	-0.956	2.577	2.943	-1.104	0.868	1.019	0.490	2.046	3.261	2.740	3.004	2.322	1.407	0.076	-1.539	-0.281	-1.554	761.719
-3.142	-0.798	-0.850	-0.569	1.237	-0.867	2.101	-1.170	-1.724	-0.813	-1.471	-0.564	2.541	2.769	-1.237	0.708	0.790	0.289	1.714	3.064	2.537	2.833	2.136	1.406	0.015	-1.239	0.045	-1.020	765.625
-3.321	-0.878	-0.711	-0.591	1.210	-0.833	2.058	-1.141	-1.604	-0.792	-1.261	-0.314	2.461	2.611	-1.358	0.642	0.649	0.149	1.438	2.946	2.387	2.688	1.972	1.363	-0.041	-1.042	0.230	-0.643	769.531
-3.374	-0.862	-0.481	-0.564	1.212	-0.783	1.987	-1.148	-1.596	-0.863	-1.225	-0.213	2.349	2.477	-1.435	0.665	0.598	0.105	1.238	2.905	2.291	2.569	1.839	1.280	-0.087	-0.957	0.279	-0.437	773.438
-3.279	-0.767	-0.205	-0.514	1.216	-0.764	1.894	-1.193	-1.689	-1.021	-1.351	-0.255	2.223	2.368	-1.418	0.761	0.629	0.188	1.125	2.928	2.244	2.472	1.744	1.165	-0.116	-0.989	0.213	-0.406	777.344
-3.032	-0.618	0.072	-0.467	1.198	-0.818	1.786	-1.272	-1.866	-1.255	-1.620	-0.425	2.096	2.280	-1.257	0.913	0.724	0.424	1.100	2.998	2.237	2.391	1.688	1.022	-0.127	-1.129	0.059	-0.539	781.250
-2.644	-0.438	0.319	-0.441	1.142	-0.972	1.672	-1.381	-2.108	-1.556	-2.002	-0.700	1.980	2.208	-0.917	1.101	0.859	0.825	1.154	3.095	2.260	2.315	1.667	0.859	-0.119	-1.364	-0.151	-0.811	785.156
-2.139	-0.247	0.519	-0.446	1.041	-1.232	1.559	-1.514	-2.391	-1.908	-2.464	-1.051	1.880	2.144	-0.396	1.306	1.013	1.381	1.268	3.203	2.300	2.239	1.672	0.681	-0.094	-1.671	-0.389	-1.189	789.062
-1.557	-0.058	0.671	-0.483	0.900	-1.582	1.448	-1.662	-2.696	-2.292	-2.970	-1.445	1.798	2.081	0.275	1.514	1.167	2.055	1.418	3.308	2.347	2.156	1.695	0.497	-0.057	-2.024	-0.631	-1.630	792.969
-0.941	0.119	0.788	-0.543	0.732	-1.987	1.342	-1.815	-3.003	-2.688	-3.485	-1.849	1.728	2.015	1.034	1.715	1.311	2.792	1.581	3.404	2.391	2.065	1.722	0.310	-0.017	-2.391	-0.860	-2.090	796.875
