FP1	F3	F7	FC3	C3	C5	P3	P7	PO7	PO3	O1	Oz	Pz	CPz	FP2	Fz	F4	F8	FC4	FCz	Cz	C4	C6	P4	P8	PO8	PO4	O2	time
-2.512	1.358	-0.912	0.555	0.488	0.167	0.800	0.204	0.249	0.821	0.399	0.107	0.228	0.730	-1.011	0.713	0.772	-0.142	-0.048	0.843	0.776	-0.265	0.118	-0.218	-0.417	-0.499	-0.122	-0.646	-199.219
-1.420	0.868	-0.496	0.243	0.304	-0.249	0.471	0.146	0.185	0.856	0.379	0.146	0.255	0.589	-0.595	0.588	0.510	-0.222	0.022	0.677	0.671	-0.189	-0.018	-0.275	-0.514	-0.404	-0.132	-0.504	-195.312
-0.446	0.421	-0.125	-0.037	0.130	-0.609	0.167	0.087	0.131	0.898	0.364	0.190	0.285	0.462	-0.231	0.474	0.284	-0.284	0.086	0.525	0.574	-0.121	-0.135	-0.327	-0.593	-0.314	-0.133	-0.365	-191.406
0.317	0.050	0.161	-0.262	-0.018	-0.861	-0.088	0.029	0.093	0.948	0.355	0.244	0.321	0.361	0.039	0.378	0.118	-0.315	0.135	0.397	0.490	-0.069	-0.220	-0.369	-0.637	-0.232	-0.122	-0.227	-187.500
0.807	-0.224	0.337	-0.416	-0.130	-0.977	-0.276	-0.018	0.081	1.005	0.356	0.306	0.361	0.295	0.195	0.301	0.016	-0.318	0.163	0.296	0.423	-0.036	-0.266	-0.397	-0.637	-0.160	-0.094	-0.093	-183.594
1.006	-0.397	0.399	-0.496	-0.199	-0.956	-0.385	-0.041	0.102	1.067	0.368	0.375	0.403	0.263	0.236	0.240	-0.033	-0.305	0.163	0.223	0.372	-0.021	-0.276	-0.408	-0.593	-0.095	-0.050	0.037	-179.688
0.938	-0.481	0.361	-0.510	-0.224	-0.820	-0.412	-0.030	0.159	1.128	0.392	0.447	0.440	0.260	0.178	0.189	-0.052	-0.291	0.133	0.169	0.333	-0.022	-0.258	-0.399	-0.510	-0.037	0.007	0.160	-175.781
0.664	-0.494	0.248	-0.474	-0.207	-0.610	-0.367	0.022	0.247	1.177	0.424	0.511	0.468	0.275	0.046	0.141	-0.068	-0.290	0.075	0.128	0.302	-0.032	-0.221	-0.370	-0.399	0.020	0.067	0.272	-171.875
0.272	-0.462	0.094	-0.405	-0.157	-0.375	-0.271	0.114	0.352	1.199	0.453	0.555	0.482	0.298	-0.131	0.093	-0.101	-0.304	-0.006	0.091	0.273	-0.044	-0.176	-0.322	-0.272	0.080	0.119	0.367	-167.969
-0.143	-0.404	-0.066	-0.321	-0.082	-0.158	-0.152	0.231	0.448	1.177	0.460	0.565	0.479	0.316	-0.323	0.042	-0.162	-0.329	-0.097	0.056	0.243	-0.051	-0.128	-0.258	-0.138	0.147	0.150	0.440	-164.062
-0.495	-0.335	-0.202	-0.234	0.006	0.008	-0.044	0.349	0.505	1.094	0.423	0.525	0.459	0.323	-0.494	-0.007	-0.247	-0.352	-0.179	0.021	0.211	-0.045	-0.081	-0.183	-0.005	0.221	0.147	0.483	-160.156
-0.722	-0.264	-0.292	-0.150	0.097	0.107	0.025	0.442	0.493	0.942	0.319	0.425	0.423	0.318	-0.611	-0.050	-0.340	-0.365	-0.235	-0.011	0.180	-0.019	-0.033	-0.105	0.124	0.299	0.103	0.492	-156.250
-0.794	-0.193	-0.325	-0.073	0.180	0.137	0.040	0.482	0.388	0.721	0.136	0.261	0.375	0.303	-0.646	-0.079	-0.421	-0.356	-0.247	-0.034	0.155	0.031	0.018	-0.030	0.245	0.373	0.015	0.465	-152.344
-0.714	-0.123	-0.299	0.000	0.245	0.108	-0.004	0.453	0.183	0.445	-0.129	0.041	0.320	0.285	-0.581	-0.089	-0.465	-0.322	-0.203	-0.043	0.142	0.107	0.076	0.035	0.355	0.433	-0.111	0.401	-148.438
-0.513	-0.053	-0.225	0.069	0.287	0.037	-0.092	0.352	-0.108	0.140	-0.456	-0.217	0.263	0.272	-0.414	-0.074	-0.454	-0.257	-0.104	-0.037	0.144	0.203	0.143	0.085	0.444	0.467	-0.264	0.306	-144.531
-0.241	0.016	-0.122	0.133	0.301	-0.058	-0.200	0.193	-0.454	-0.155	-0.811	-0.484	0.209	0.269	-0.163	-0.035	-0.379	-0.159	0.041	-0.016	0.163	0.311	0.215	0.116	0.502	0.466	-0.424	0.189	-140.625
0.044	0.079	-0.016	0.190	0.288	-0.160	-0.295	0.004	-0.805	-0.400	-1.147	-0.726	0.163	0.277	0.133	0.024	-0.244	-0.030	0.212	0.017	0.195	0.414	0.288	0.127	0.520	0.427	-0.566	0.063	-136.719
0.290	0.129	0.069	0.233	0.253	-0.251	-0.348	-0.180	-1.106	-0.557	-1.411	-0.906	0.127	0.295	0.421	0.095	-0.066	0.121	0.383	0.055	0.234	0.497	0.354	0.119	0.490	0.354	-0.666	-0.056	-132.812
0.461	0.154	0.114	0.255	0.204	-0.318	-0.338	-0.320	-1.305	-0.601	-1.557	-0.994	0.105	0.317	0.642	0.164	0.129	0.274	0.530	0.089	0.273	0.544	0.403	0.096	0.416	0.259	-0.705	-0.149	-128.906
0.536	0.142	0.112	0.249	0.148	-0.351	-0.258	-0.384	-1.366	-0.526	-1.554	-0.973	0.097	0.337	0.746	0.216	0.311	0.403	0.630	0.110	0.303	0.543	0.427	0.065	0.310	0.162	-0.669	-0.201	-125.000
0.514	0.085	0.067	0.211	0.093	-0.349	-0.118	-0.356	-1.275	-0.348	-1.393	-0.839	0.103	0.347	0.702	0.237	0.448	0.478	0.671	0.110	0.315	0.493	0.418	0.034	0.190	0.083	-0.559	-0.198	-121.094
0.409	-0.020	-0.004	0.141	0.041	-0.317	0.061	-0.234	-1.040	-0.100	-1.089	-0.606	0.119	0.343	0.515	0.216	0.519	0.474	0.650	0.082	0.302	0.398	0.376	0.009	0.078	0.041	-0.387	-0.136	-117.188
0.242	-0.164	-0.076	0.047	-0.011	-0.268	0.249	-0.037	-0.694	0.172	-0.678	-0.302	0.142	0.321	0.221	0.152	0.511	0.380	0.573	0.027	0.262	0.270	0.300	-0.004	-0.007	0.046	-0.181	-0.019	-113.281
0.035	-0.327	-0.125	-0.060	-0.066	-0.218	0.417	0.207	-0.282	0.421	-0.209	0.033	0.167	0.279	-0.117	0.052	0.425	0.203	0.454	-0.053	0.197	0.124	0.198	-0.004	-0.055	0.095	0.028	0.140	-109.375
-0.192	-0.482	-0.133	-0.161	-0.125	-0.178	0.542	0.459	0.143	0.607	0.266	0.358	0.189	0.220	-0.430	-0.071	0.271	-0.030	0.310	-0.146	0.111	-0.024	0.076	0.005	-0.068	0.174	0.200	0.316	-105.469
-0.423	-0.599	-0.092	-0.239	-0.187	-0.149	0.611	0.685	0.535	0.701	0.696	0.635	0.204	0.149	-0.656	-0.196	0.069	-0.282	0.158	-0.237	0.015	-0.158	-0.053	0.017	-0.058	0.261	0.303	0.483	-101.562
-0.640	-0.653	-0.006	-0.276	-0.244	-0.126	0.623	0.853	0.857	0.694	1.044	0.835	0.209	0.070	-0.764	-0.304	-0.156	-0.508	0.013	-0.311	-0.080	-0.267	-0.178	0.025	-0.042	0.331	0.314	0.614	-97.656
-0.822	-0.631	0.108	-0.264	-0.288	-0.094	0.585	0.944	1.084	0.590	1.288	0.943	0.206	-0.010	-0.754	-0.379	-0.377	-0.670	-0.115	-0.356	-0.162	-0.341	-0.286	0.022	-0.037	0.359	0.226	0.686	-93.750
-0.942	-0.534	0.229	-0.199	-0.310	-0.036	0.507	0.950	1.207	0.407	1.418	0.958	0.198	-0.083	-0.656	-0.414	-0.566	-0.740	-0.214	-0.361	-0.222	-0.377	-0.367	0.006	-0.058	0.333	0.050	0.688	-89.844
-0.973	-0.376	0.334	-0.090	-0.305	0.057	0.402	0.872	1.229	0.169	1.436	0.889	0.187	-0.145	-0.514	-0.405	-0.698	-0.709	-0.278	-0.323	-0.255	-0.373	-0.412	-0.022	-0.108	0.247	-0.184	0.615	-85.938
-0.894	-0.180	0.404	0.049	-0.272	0.185	0.280	0.722	1.159	-0.096	1.352	0.757	0.176	-0.191	-0.375	-0.359	-0.751	-0.582	-0.300	-0.246	-0.258	-0.330	-0.415	-0.057	-0.184	0.108	-0.433	0.476	-82.031
-0.700	0.027	0.430	0.200	-0.217	0.337	0.148	0.514	1.012	-0.366	1.182	0.582	0.168	-0.218	-0.273	-0.283	-0.712	-0.378	-0.275	-0.138	-0.235	-0.254	-0.375	-0.091	-0.275	-0.067	-0.651	0.285	-78.125
-0.411	0.219	0.411	0.342	-0.147	0.492	0.015	0.266	0.803	-0.620	0.942	0.387	0.161	-0.227	-0.216	-0.188	-0.579	-0.122	-0.203	-0.009	-0.189	-0.155	-0.294	-0.114	-0.364	-0.259	-0.794	0.066	-74.219
-0.067	0.380	0.353	0.458	-0.073	0.624	-0.114	-0.004	0.550	-0.845	0.652	0.189	0.150	-0.218	-0.193	-0.082	-0.360	0.157	-0.087	0.128	-0.127	-0.042	-0.178	-0.121	-0.433	-0.447	-0.834	-0.161	-70.312
0.276	0.500	0.268	0.537	-0.002	0.714	-0.234	-0.277	0.268	-1.035	0.330	-0.002	0.128	-0.197	-0.177	0.027	-0.077	0.431	0.063	0.259	-0.058	0.074	-0.039	-0.108	-0.467	-0.611	-0.761	-0.373	-66.406
0.562	0.579	0.172	0.574	0.060	0.746	-0.337	-0.535	-0.027	-1.187	-0.005	-0.180	0.087	-0.171	-0.135	0.134	0.240	0.676	0.234	0.374	0.010	0.180	0.111	-0.075	-0.457	-0.739	-0.588	-0.557	-62.500
0.748	0.626	0.080	0.572	0.110	0.720	-0.421	-0.762	-0.315	-1.299	-0.333	-0.345	0.019	-0.146	-0.041	0.236	0.558	0.872	0.404	0.464	0.068	0.267	0.257	-0.028	-0.403	-0.825	-0.344	-0.705	-58.594
0.817	0.654	0.008	0.543	0.146	0.645	-0.481	-0.942	-0.578	-1.371	-0.637	-0.501	-0.082	-0.132	0.115	0.329	0.841	1.005	0.549	0.521	0.106	0.328	0.380	0.023	-0.311	-0.871	-0.072	-0.814	-54.688
0.776	0.677	-0.028	0.496	0.172	0.540	-0.513	-1.062	-0.798	-1.403	-0.897	-0.649	-0.214	-0.136	0.323	0.409	1.058	1.068	0.645	0.543	0.119	0.356	0.466	0.069	-0.196	-0.880	0.182	-0.890	-50.781
0.657	0.704	-0.021	0.444	0.188	0.428	-0.517	-1.113	-0.955	-1.394	-1.098	-0.786	-0.371	-0.163	0.558	0.472	1.186	1.056	0.672	0.525	0.101	0.348	0.502	0.099	-0.076	-0.861	0.382	-0.936	-46.875
0.503	0.735	0.028	0.392	0.198	0.332	-0.490	-1.093	-1.035	-1.343	-1.222	-0.902	-0.539	-0.215	0.781	0.507	1.212	0.977	0.619	0.468	0.050	0.303	0.482	0.111	0.035	-0.819	0.506	-0.956	-42.969
0.358	0.759	0.104	0.339	0.200	0.267	-0.435	-1.004	-1.028	-1.249	-1.256	-0.982	-0.700	-0.289	0.946	0.505	1.133	0.842	0.487	0.371	-0.033	0.222	0.409	0.105	0.128	-0.751	0.554	-0.947	-39.062
0.254	0.754	0.177	0.278	0.192	0.240	-0.352	-0.859	-0.929	-1.114	-1.192	-1.007	-0.834	-0.379	1.016	0.452	0.959	0.670	0.285	0.235	-0.144	0.114	0.295	0.092	0.201	-0.653	0.546	-0.899	-35.156
0.201	0.696	0.213	0.200	0.169	0.245	-0.248	-0.675	-0.747	-0.941	-1.028	-0.956	-0.924	-0.475	0.963	0.341	0.707	0.483	0.034	0.066	-0.277	-0.013	0.158	0.085	0.262	-0.512	0.510	-0.799	-31.250
0.188	0.567	0.182	0.097	0.126	0.269	-0.127	-0.472	-0.499	-0.736	-0.769	-0.817	-0.958	-0.568	0.782	0.169	0.401	0.306	-0.242	-0.129	-0.423	-0.147	0.021	0.098	0.322	-0.319	0.483	-0.633	-27.344
0.182	0.363	0.066	-0.035	0.057	0.292	0.002	-0.273	-0.211	-0.507	-0.433	-0.585	-0.933	-0.649	0.489	-0.056	0.070	0.157	-0.518	-0.339	-0.575	-0.274	-0.095	0.145	0.391	-0.067	0.495	-0.390	-23.438
0.139	0.094	-0.133	-0.191	-0.037	0.296	0.130	-0.097	0.086	-0.267	-0.045	-0.268	-0.855	-0.712	0.117	-0.317	-0.258	0.050	-0.772	-0.548	-0.722	-0.385	-0.177	0.231	0.474	0.241	0.562	-0.070	-19.531
0.020	-0.211	-0.394	-0.362	-0.155	0.273	0.249	0.043	0.362	-0.031	0.364	0.111	-0.740	-0.754	-0.293	-0.591	-0.551	-0.013	-0.983	-0.741	-0.856	-0.473	-0.216	0.353	0.569	0.590	0.687	0.314	-15.625
-0.193	-0.513	-0.679	-0.531	-0.290	0.223	0.348	0.141	0.590	0.185	0.759	0.522	-0.607	-0.773	-0.699	-0.850	-0.783	-0.036	-1.137	-0.903	-0.970	-0.535	-0.215	0.500	0.665	0.953	0.856	0.737	-11.719
-0.492	-0.774	-0.947	-0.683	-0.432	0.158	0.418	0.200	0.756	0.364	1.109	0.925	-0.477	-0.775	-1.065	-1.067	-0.927	-0.031	-1.227	-1.021	-1.061	-0.575	-0.184	0.652	0.748	1.295	1.041	1.162	-7.812
-0.834	-0.962	-1.160	-0.803	-0.573	0.094	0.456	0.230	0.854	0.493	1.389	1.284	-0.368	-0.765	-1.361	-1.222	-0.968	-0.011	-1.252	-1.090	-1.128	-0.598	-0.138	0.789	0.802	1.577	1.214	1.545	-3.906
-1.156	-1.059	-1.296	-0.883	-0.702	0.052	0.460	0.246	0.892	0.564	1.582	1.563	-0.296	-0.750	-1.567	-1.306	-0.903	0.012	-1.219	-1.112	-1.174	-0.615	-0.093	0.890	0.815	1.765	1.345	1.845	0.000
-1.391	-1.063	-1.348	-0.921	-0.813	0.044	0.433	0.263	0.885	0.578	1.685	1.742	-0.268	-0.739	-1.668	-1.318	-0.744	0.031	-1.141	-1.092	-1.203	-0.633	-0.065	0.939	0.784	1.835	1.413	2.030	3.906
-1.485	-0.989	-1.328	-0.920	-0.900	0.075	0.381	0.295	0.855	0.539	1.704	1.808	-0.285	-0.739	-1.655	-1.270	-0.517	0.046	-1.035	-1.043	-1.220	-0.660	-0.064	0.928	0.710	1.778	1.408	2.080	7.812
-1.412	-0.856	-1.254	-0.885	-0.958	0.138	0.314	0.348	0.820	0.459	1.655	1.764	-0.344	-0.754	-1.529	-1.176	-0.257	0.064	-0.921	-0.974	-1.232	-0.697	-0.093	0.856	0.600	1.601	1.331	1.993	11.719
-1.183	-0.688	-1.148	-0.823	-0.986	0.218	0.237	0.421	0.793	0.348	1.553	1.623	-0.437	-0.786	-1.297	-1.052	-0.002	0.094	-0.814	-0.895	-1.242	-0.743	-0.149	0.732	0.466	1.322	1.192	1.782	15.625
-0.835	-0.504	-1.030	-0.737	-0.982	0.294	0.153	0.501	0.772	0.214	1.416	1.405	-0.554	-0.833	-0.975	-0.911	0.220	0.145	-0.724	-0.810	-1.250	-0.789	-0.223	0.569	0.319	0.970	1.010	1.468	19.531
-0.426	-0.314	-0.909	-0.627	-0.947	0.348	0.063	0.567	0.746	0.060	1.249	1.129	-0.684	-0.889	-0.589	-0.756	0.392	0.226	-0.653	-0.719	-1.254	-0.823	-0.300	0.387	0.167	0.575	0.804	1.081	23.438
-0.014	-0.118	-0.788	-0.491	-0.882	0.369	-0.035	0.593	0.687	-0.117	1.053	0.813	-0.816	-0.943	-0.164	-0.583	0.519	0.339	-0.594	-0.616	-1.249	-0.831	-0.363	0.206	0.016	0.164	0.592	0.650	27.344
0.353	0.089	-0.665	-0.325	-0.788	0.355	-0.142	0.551	0.566	-0.324	0.816	0.468	-0.939	-0.985	0.273	-0.384	0.617	0.482	-0.532	-0.495	-1.225	-0.802	-0.397	0.045	-0.129	-0.238	0.390	0.199	31.250
0.653	0.315	-0.534	-0.128	-0.669	0.315	-0.260	0.425	0.356	-0.563	0.529	0.103	-1.047	-1.004	0.700	-0.152	0.711	0.645	-0.453	-0.349	-1.174	-0.726	-0.391	-0.082	-0.270	-0.616	0.214	-0.252	35.156
0.881	0.565	-0.397	0.097	-0.530	0.268	-0.383	0.211	0.044	-0.831	0.187	-0.276	-1.132	-0.993	1.098	0.115	0.822	0.813	-0.345	-0.176	-1.091	-0.603	-0.342	-0.165	-0.404	-0.953	0.076	-0.685	39.062
1.052	0.834	-0.260	0.334	-0.381	0.230	-0.504	-0.077	-0.357	-1.110	-0.196	-0.656	-1.189	-0.947	1.447	0.407	0.960	0.969	-0.206	0.017	-0.976	-0.443	-0.255	-0.201	-0.530	-1.236	-0.009	-1.080	42.969
1.179	1.104	-0.135	0.563	-0.234	0.218	-0.609	-0.406	-0.806	-1.365	-0.582	-1.013	-1.216	-0.873	1.720	0.699	1.115	1.091	-0.049	0.216	-0.837	-0.266	-0.143	-0.191	-0.641	-1.443	-0.021	-1.410	46.875
1.268	1.346	-0.044	0.752	-0.102	0.239	-0.679	-0.728	-1.231	-1.550	-0.906	-1.310	-1.212	-0.783	1.882	0.952	1.257	1.161	0.098	0.393	-0.694	-0.105	-0.028	-0.138	-0.726	-1.546	0.061	-1.637	50.781
1.305	1.521	-0.009	0.868	-0.004	0.293	-0.693	-0.988	-1.541	-1.608	-1.082	-1.494	-1.179	-0.696	1.888	1.121	1.339	1.162	0.195	0.515	-0.575	0.003	0.065	-0.049	-0.769	-1.508	0.257	-1.708	54.688
1.252	1.588	-0.053	0.878	0.042	0.366	-0.628	-1.127	-1.637	-1.481	-1.013	-1.505	-1.119	-0.635	1.690	1.156	1.307	1.075	0.195	0.541	-0.515	0.017	0.110	0.072	-0.754	-1.285	0.586	-1.565	58.594
1.053	1.512	-0.195	0.759	0.020	0.437	-0.465	-1.096	-1.427	-1.117	-0.607	-1.281	-1.037	-0.625	1.246	1.015	1.108	0.875	0.052	0.433	-0.546	-0.092	0.084	0.222	-0.667	-0.839	1.060	-1.148	62.500
0.646	1.267	-0.447	0.493	-0.088	0.478	-0.191	-0.859	-0.842	-0.487	0.205	-0.773	-0.934	-0.680	0.526	0.670	0.705	0.538	-0.264	0.162	-0.697	-0.342	-0.029	0.399	-0.501	-0.139	1.683	-0.410	66.406
-0.020	0.842	-0.815	0.077	-0.290	0.462	0.194	-0.398	0.151	0.419	1.454	0.045	-0.813	-0.813	-0.474	0.110	0.087	0.036	-0.764	-0.290	-0.983	-0.730	-0.233	0.605	-0.257	0.823	2.446	0.668	70.312
-0.963	0.240	-1.298	-0.481	-0.591	0.369	0.678	0.282	1.541	1.575	3.121	1.162	-0.676	-1.020	-1.722	-0.649	-0.730	-0.645	-1.438	-0.920	-1.406	-1.235	-0.523	0.837	0.052	2.024	3.331	2.063	74.219
-2.158	-0.516	-1.883	-1.161	-0.986	0.187	1.237	1.155	3.272	2.928	5.133	2.533	-0.528	-1.294	-3.147	-1.571	-1.702	-1.499	-2.250	-1.709	-1.948	-1.823	-0.886	1.091	0.409	3.409	4.306	3.709	78.125
-3.536	-1.391	-2.549	-1.933	-1.458	-0.080	1.831	2.172	5.246	4.394	7.371	4.072	-0.375	-1.617	-4.646	-2.600	-2.767	-2.489	-3.149	-2.614	-2.580	-2.451	-1.297	1.357	0.787	4.891	5.324	5.496	82.031
-4.983	-2.337	-3.263	-2.757	-1.984	-0.418	2.419	3.268	7.335	5.872	9.678	5.667	-0.224	-1.966	-6.094	-3.667	-3.852	-3.551	-4.072	-3.580	-3.257	-3.072	-1.729	1.617	1.160	6.359	6.327	7.285	85.938
-6.365	-3.296	-3.982	-3.590	-2.528	-0.797	2.958	4.365	9.390	7.257	11.881	7.194	-0.084	-2.315	-7.363	-4.697	-4.883	-4.594	-4.954	-4.539	-3.928	-3.644	-2.151	1.855	1.503	7.696	7.249	8.927	89.844
-7.544	-4.205	-4.658	-4.382	-3.049	-1.182	3.412	5.381	11.265	8.448	13.814	8.530	0.039	-2.636	-8.345	-5.619	-5.799	-5.521	-5.732	-5.420	-4.542	-4.129	-2.534	2.050	1.794	8.791	8.019	10.282	93.750
-8.407	-5.006	-5.239	-5.084	-3.503	-1.534	3.758	6.241	12.825	9.365	15.334	9.573	0.142	-2.903	-8.968	-6.374	-6.551	-6.244	-6.354	-6.157	-5.048	-4.496	-2.851	2.188	2.015	9.556	8.575	11.244	97.656
-8.884	-5.644	-5.676	-5.654	-3.850	-1.816	3.982	6.881	13.967	9.956	16.341	10.252	0.223	-3.093	-9.206	-6.915	-7.105	-6.700	-6.786	-6.698	-5.409	-4.729	-3.081	2.261	2.155	9.936	8.869	11.750	101.562
-8.959	-6.076	-5.931	-6.054	-4.058	-1.999	4.086	7.264	14.629	10.203	16.789	10.541	0.284	-3.193	-9.086	-7.219	-7.444	-6.863	-7.011	-7.009	-5.602	-4.820	-3.214	2.265	2.206	9.916	8.880	11.792	105.469
-8.674	-6.275	-5.984	-6.264	-4.115	-2.068	4.079	7.375	14.794	10.116	16.693	10.454	0.327	-3.197	-8.678	-7.282	-7.557	-6.741	-7.031	-7.079	-5.622	-4.777	-3.247	2.204	2.167	9.522	8.614	11.411	109.375
-8.113	-6.235	-5.837	-6.279	-4.025	-2.021	3.976	7.233	14.495	9.738	16.120	10.048	0.352	-3.115	-8.078	-7.118	-7.446	-6.381	-6.865	-6.922	-5.485	-4.617	-3.188	2.088	2.042	8.818	8.107	10.693	113.281
-7.391	-5.975	-5.516	-6.115	-3.814	-1.874	3.794	6.881	13.805	9.131	15.180	9.409	0.355	-2.966	-7.394	-6.765	-7.126	-5.848	-6.545	-6.577	-5.223	-4.370	-3.053	1.926	1.840	7.896	7.420	9.754	117.188
-6.628	-5.539	-5.064	-5.809	-3.525	-1.657	3.552	6.381	12.832	8.369	14.014	8.643	0.329	-2.778	-6.722	-6.273	-6.625	-5.223	-6.115	-6.097	-4.883	-4.070	-2.868	1.730	1.577	6.864	6.630	8.723	121.094
-5.930	-4.987	-4.538	-5.409	-3.207	-1.411	3.264	5.807	11.703	7.533	12.772	7.856	0.265	-2.581	-6.134	-5.704	-5.992	-4.583	-5.628	-5.548	-4.512	-3.755	-2.660	1.513	1.276	5.833	5.818	7.724	125.000
-5.371	-4.391	-3.992	-4.971	-2.911	-1.176	2.945	5.231	10.547	6.697	11.591	7.143	0.156	-2.408	-5.672	-5.125	-5.288	-3.994	-5.136	-4.994	-4.159	-3.462	-2.461	1.284	0.959	4.907	5.059	6.863	128.906
-4.984	-3.820	-3.473	-4.551	-2.674	-0.989	2.609	4.712	9.478	5.928	10.585	6.574	-0.004	-2.282	-5.345	-4.595	-4.587	-3.506	-4.691	-4.493	-3.860	-3.222	-2.300	1.052	0.650	4.164	4.414	6.216	132.812
-4.758	-3.332	-3.017	-4.189	-2.522	-0.871	2.267	4.294	8.589	5.274	9.830	6.189	-0.213	-2.217	-5.142	-4.165	-3.964	-3.144	-4.337	-4.089	-3.640	-3.061	-2.200	0.824	0.369	3.655	3.922	5.820	136.719
-4.653	-2.968	-2.644	-3.917	-2.459	-0.827	1.934	4.000	7.937	4.767	9.362	5.998	-0.463	-2.220	-5.035	-3.868	-3.482	-2.916	-4.105	-3.809	-3.511	-2.991	-2.176	0.606	0.132	3.398	3.599	5.678	140.625
-4.614	-2.748	-2.364	-3.745	-2.475	-0.848	1.626	3.833	7.547	4.420	9.180	5.984	-0.741	-2.285	-5.002	-3.718	-3.187	-2.814	-4.011	-3.661	-3.470	-3.016	-2.232	0.405	-0.045	3.384	3.442	5.767	144.531
-4.591	-2.671	-2.178	-3.672	-2.550	-0.916	1.360	3.783	7.413	4.231	9.254	6.114	-1.026	-2.400	-5.024	-3.709	-3.098	-2.819	-4.056	-3.640	-3.507	-3.127	-2.361	0.230	-0.154	3.585	3.432	6.041	148.438
-4.557	-2.722	-2.080	-3.685	-2.656	-1.008	1.155	3.830	7.504	4.188	9.533	6.348	-1.299	-2.548	-5.096	-3.822	-3.207	-2.913	-4.225	-3.728	-3.606	-3.307	-2.544	0.089	-0.187	3.958	3.540	6.449	152.344
-4.515	-2.870	-2.058	-3.762	-2.769	-1.101	1.026	3.950	7.775	4.271	9.959	6.646	-1.542	-2.713	-5.223	-4.027	-3.482	-3.080	-4.491	-3.901	-3.747	-3.530	-2.758	-0.009	-0.148	4.454	3.733	6.941	156.250
-4.493	-3.082	-2.096	-3.882	-2.866	-1.179	0.981	4.116	8.172	4.459	10.472	6.975	-1.740	-2.877	-5.414	-4.292	-3.876	-3.306	-4.819	-4.132	-3.912	-3.769	-2.977	-0.056	-0.043	5.027	3.978	7.472	160.156
-4.529	-3.322	-2.174	-4.025	-2.935	-1.231	1.022	4.308	8.641	4.730	11.025	7.311	-1.887	-3.028	-5.670	-4.588	-4.335	-3.580	-5.173	-4.397	-4.087	-4.001	-3.178	-0.051	0.111	5.634	4.248	8.011	164.062
-4.659	-3.561	-2.270	-4.175	-2.972	-1.252	1.145	4.508	9.135	5.062	11.576	7.640	-1.984	-3.158	-5.984	-4.894	-4.810	-3.888	-5.519	-4.678	-4.259	-4.205	-3.346	0.007	0.297	6.241	4.523	8.538	167.969
-4.896	-3.778	-2.363	-4.323	-2.981	-1.247	1.336	4.704	9.617	5.433	12.101	7.954	-2.037	-3.264	-6.336	-5.199	-5.260	-4.220	-5.831	-4.961	-4.423	-4.371	-3.473	0.110	0.495	6.823	4.794	9.040	171.875
-5.230	-3.966	-2.441	-4.465	-2.971	-1.226	1.577	4.887	10.058	5.823	12.582	8.248	-2.061	-3.346	-6.693	-5.497	-5.662	-4.561	-6.092	-5.240	-4.579	-4.494	-3.559	0.249	0.689	7.361	5.054	9.510	175.781
-5.621	-4.123	-2.495	-4.600	-2.956	-1.201	1.848	5.055	10.440	6.212	13.011	8.519	-2.069	-3.409	-7.022	-5.788	-6.004	-4.900	-6.295	-5.510	-4.726	-4.578	-3.612	0.412	0.865	7.844	5.306	9.942	179.688
-6.010	-4.256	-2.527	-4.726	-2.944	-1.182	2.128	5.206	10.755	6.580	13.381	8.760	-2.076	-3.454	-7.295	-6.072	-6.288	-5.223	-6.440	-5.768	-4.866	-4.635	-3.641	0.587	1.019	8.266	5.548	10.329	183.594
-6.337	-4.373	-2.544	-4.840	-2.943	-1.176	2.398	5.343	11.001	6.913	13.689	8.965	-2.090	-3.485	-7.502	-6.343	-6.518	-5.522	-6.532	-6.012	-5.000	-4.674	-3.657	0.762	1.148	8.622	5.778	10.663	187.500
-6.555	-4.482	-2.558	-4.941	-2.952	-1.186	2.645	5.470	11.183	7.201	13.932	9.127	-2.118	-3.502	-7.645	-6.593	-6.701	-5.785	-6.579	-6.237	-5.127	-4.709	-3.669	0.929	1.254	8.909	5.986	10.935	191.406
-6.647	-4.588	-2.580	-5.022	-2.969	-1.207	2.861	5.594	11.311	7.437	14.111	9.238	-2.157	-3.501	-7.742	-6.810	-6.838	-6.002	-6.591	-6.440	-5.243	-4.746	-3.678	1.083	1.341	9.126	6.161	11.135	195.312
-6.629	-4.688	-2.623	-5.078	-2.986	-1.236	3.041	5.720	11.395	7.619	14.224	9.297	-2.199	-3.482	-7.814	-6.979	-6.922	-6.161	-6.575	-6.615	-5.344	-4.790	-3.685	1.220	1.411	9.274	6.291	11.256	199.219
-6.541	-4.780	-2.692	-5.102	-2.995	-1.265	3.186	5.853	11.447	7.746	14.271	9.301	-2.234	-3.440	-7.878	-7.088	-6.946	-6.254	-6.538	-6.756	-5.425	-4.838	-3.683	1.342	1.465	9.358	6.369	11.298	203.125
-6.439	-4.854	-2.787	-5.090	-2.987	-1.287	3.301	5.990	11.475	7.821	14.255	9.253	-2.251	-3.374	-7.946	-7.130	-6.901	-6.276	-6.484	-6.860	-5.482	-4.886	-3.668	1.450	1.504	9.383	6.393	11.262	207.031
-6.368	-4.902	-2.904	-5.040	-2.954	-1.298	3.390	6.126	11.484	7.846	14.174	9.155	-2.240	-3.284	-8.017	-7.106	-6.785	-6.235	-6.415	-6.923	-5.509	-4.926	-3.633	1.548	1.530	9.358	6.370	11.158	210.938
-6.357	-4.916	-3.033	-4.953	-2.887	-1.293	3.460	6.249	11.475	7.828	14.034	9.014	-2.192	-3.171	-8.086	-7.027	-6.609	-6.147	-6.335	-6.947	-5.507	-4.951	-3.578	1.639	1.545	9.296	6.314	10.998	214.844
-6.406	-4.891	-3.163	-4.835	-2.785	-1.272	3.518	6.344	11.449	7.775	13.840	8.838	-2.105	-3.037	-8.142	-6.909	-6.397	-6.039	-6.249	-6.933	-5.474	-4.956	-3.504	1.726	1.555	9.207	6.244	10.796	218.750
-6.495	-4.824	-3.280	-4.694	-2.648	-1.239	3.572	6.399	11.408	7.700	13.601	8.636	-1.978	-2.884	-8.175	-6.774	-6.183	-5.940	-6.163	-6.890	-5.412	-4.937	-3.419	1.814	1.561	9.105	6.178	10.567	222.656
-6.587	-4.722	-3.376	-4.544	-2.482	-1.196	3.628	6.409	11.353	7.617	13.333	8.419	-1.814	-2.717	-8.175	-6.645	-6.008	-5.880	-6.086	-6.824	-5.325	-4.895	-3.331	1.906	1.569	9.000	6.130	10.325	226.562
-6.651	-4.596	-3.441	-4.398	-2.295	-1.148	3.692	6.375	11.293	7.545	13.052	8.198	-1.621	-2.538	-8.137	-6.540	-5.907	-5.884	-6.025	-6.744	-5.215	-4.831	-3.251	2.007	1.578	8.900	6.111	10.083	230.469
-6.664	-4.462	-3.472	-4.268	-2.098	-1.101	3.768	6.307	11.233	7.498	12.777	7.982	-1.407	-2.350	-8.059	-6.471	-5.902	-5.964	-5.985	-6.657	-5.084	-4.750	-3.185	2.119	1.590	8.810	6.125	9.850	234.375
-6.625	-4.341	-3.470	-4.166	-1.905	-1.060	3.857	6.220	11.180	7.487	12.523	7.782	-1.181	-2.154	-7.945	-6.442	-5.994	-6.113	-5.968	-6.567	-4.934	-4.655	-3.136	2.246	1.604	8.731	6.170	9.635	238.281
-6.548	-4.253	-3.441	-4.099	-1.727	-1.029	3.959	6.130	11.137	7.513	12.302	7.602	-0.952	-1.954	-7.807	-6.446	-6.165	-6.310	-5.966	-6.475	-4.769	-4.549	-3.099	2.387	1.620	8.661	6.246	9.441	242.188
-6.459	-4.211	-3.398	-4.071	-1.574	-1.016	4.069	6.051	11.104	7.572	12.118	7.444	-0.729	-1.753	-7.665	-6.473	-6.375	-6.516	-5.968	-6.378	-4.590	-4.434	-3.065	2.541	1.636	8.596	6.349	9.269	246.094
-6.386	-4.223	-3.353	-4.081	-1.453	-1.026	4.183	5.992	11.076	7.649	11.969	7.305	-0.517	-1.553	-7.540	-6.506	-6.578	-6.686	-5.960	-6.274	-4.401	-4.314	-3.022	2.700	1.649	8.529	6.475	9.116	250.000
-6.347	-4.285	-3.322	-4.121	-1.365	-1.060	4.297	5.956	11.047	7.727	11.846	7.179	-0.320	-1.359	-7.458	-6.529	-6.726	-6.783	-5.930	-6.157	-4.206	-4.190	-2.959	2.857	1.656	8.453	6.620	8.974	253.906
-6.349	-4.381	-3.320	-4.182	-1.306	-1.117	4.406	5.941	11.008	7.787	11.738	7.059	-0.139	-1.172	-7.432	-6.526	-6.785	-6.786	-5.867	-6.026	-4.013	-4.064	-2.871	3.001	1.650	8.360	6.770	8.833	257.812
-6.384	-4.489	-3.354	-4.248	-1.268	-1.191	4.504	5.940	10.952	7.813	11.631	6.932	0.025	-0.996	-7.467	-6.488	-6.737	-6.696	-5.771	-5.878	-3.827	-3.936	-2.758	3.120	1.625	8.245	6.908	8.683	261.719
-6.433	-4.583	-3.427	-4.306	-1.242	-1.268	4.585	5.943	10.873	7.796	11.514	6.792	0.173	-0.832	-7.551	-6.410	-6.586	-6.535	-5.646	-5.719	-3.655	-3.806	-2.627	3.208	1.580	8.104	7.013	8.515	265.625
-6.476	-4.641	-3.531	-4.345	-1.218	-1.336	4.641	5.941	10.766	7.735	11.378	6.631	0.301	-0.682	-7.654	-6.293	-6.354	-6.338	-5.501	-5.554	-3.505	-3.675	-2.489	3.260	1.515	7.940	7.062	8.325	269.531
-6.497	-4.647	-3.651	-4.360	-1.190	-1.383	4.664	5.925	10.630	7.635	11.220	6.447	0.407	-0.547	-7.739	-6.146	-6.072	-6.138	-5.349	-5.394	-3.382	-3.544	-2.355	3.278	1.439	7.760	7.042	8.115	273.438
-6.489	-4.599	-3.765	-4.355	-1.156	-1.402	4.650	5.888	10.467	7.510	11.040	6.244	0.483	-0.431	-7.769	-5.979	-5.777	-5.958	-5.204	-5.248	-3.289	-3.412	-2.233	3.269	1.362	7.573	6.949	7.890	277.344
-6.453	-4.505	-3.854	-4.338	-1.122	-1.395	4.593	5.826	10.283	7.374	10.842	6.030	0.525	-0.338	-7.718	-5.807	-5.502	-5.805	-5.073	-5.124	-3.225	-3.279	-2.126	3.244	1.297	7.393	6.793	7.663	281.250
-6.398	-4.380	-3.901	-4.326	-1.096	-1.376	4.494	5.740	10.089	7.245	10.637	5.817	0.531	-0.269	-7.582	-5.645	-5.270	-5.676	-4.960	-5.025	-3.185	-3.144	-2.032	3.215	1.256	7.233	6.593	7.446	285.156
-6.339	-4.244	-3.906	-4.330	-1.087	-1.361	4.360	5.634	9.898	7.140	10.434	5.620	0.503	-0.224	-7.377	-5.503	-5.092	-5.557	-4.861	-4.951	-3.161	-3.007	-1.944	3.195	1.249	7.104	6.377	7.251	289.062
-6.289	-4.115	-3.878	-4.359	-1.103	-1.372	4.200	5.514	9.724	7.072	10.245	5.452	0.450	-0.197	-7.139	-5.389	-4.965	-5.436	-4.771	-4.893	-3.140	-2.864	-1.851	3.197	1.279	7.015	6.173	7.089	292.969
-6.260	-4.006	-3.844	-4.414	-1.143	-1.427	4.031	5.392	9.582	7.052	10.083	5.325	0.386	-0.182	-6.916	-5.306	-4.878	-5.309	-4.677	-4.842	-3.109	-2.716	-1.746	3.226	1.344	6.968	6.005	6.968	296.875
-6.257	-3.924	-3.833	-4.488	-1.200	-1.533	3.871	5.280	9.484	7.085	9.955	5.244	0.327	-0.166	-6.749	-5.248	-4.817	-5.184	-4.572	-4.785	-3.056	-2.560	-1.621	3.285	1.436	6.960	5.890	6.887	300.781
-6.282	-3.870	-3.878	-4.566	-1.261	-1.687	3.738	5.190	9.435	7.169	9.869	5.209	0.289	-0.139	-6.669	-5.208	-4.765	-5.077	-4.447	-4.713	-2.971	-2.399	-1.477	3.370	1.542	6.980	5.837	6.842	304.688
-6.331	-3.839	-3.997	-4.628	-1.308	-1.872	3.649	5.132	9.438	7.296	9.825	5.212	0.284	-0.091	-6.689	-5.175	-4.711	-5.007	-4.299	-4.616	-2.849	-2.235	-1.317	3.473	1.648	7.015	5.844	6.821	308.594
-6.398	-3.828	-4.197	-4.658	-1.323	-2.060	3.612	5.112	9.486	7.451	9.822	5.243	0.319	-0.014	-6.800	-5.139	-4.652	-4.988	-4.131	-4.493	-2.692	-2.071	-1.149	3.585	1.741	7.046	5.901	6.810	312.500
-6.479	-3.828	-4.461	-4.643	-1.292	-2.219	3.629	5.129	9.572	7.616	9.852	5.286	0.391	0.093	-6.984	-5.092	-4.589	-5.027	-3.947	-4.343	-2.506	-1.910	-0.983	3.693	1.810	7.060	5.993	6.794	316.406
-6.569	-3.834	-4.754	-4.576	-1.208	-2.320	3.694	5.176	9.678	7.766	9.904	5.328	0.493	0.227	-7.209	-5.030	-4.526	-5.117	-3.756	-4.173	-2.301	-1.757	-0.829	3.788	1.849	7.043	6.096	6.760	320.312
-6.663	-3.840	-5.030	-4.458	-1.075	-2.340	3.791	5.241	9.787	7.879	9.962	5.354	0.614	0.383	-7.445	-4.954	-4.471	-5.239	-3.567	-3.991	-2.087	-1.615	-0.693	3.862	1.856	6.989	6.188	6.700	324.219
-6.759	-3.839	-5.239	-4.299	-0.903	-2.271	3.903	5.305	9.878	7.934	10.010	5.355	0.741	0.550	-7.658	-4.865	-4.428	-5.366	-3.390	-3.803	-1.878	-1.484	-0.580	3.909	1.833	6.898	6.244	6.609	328.125
-6.854	-3.828	-5.344	-4.110	-0.708	-2.118	4.011	5.351	9.930	7.919	10.030	5.325	0.861	0.718	-7.825	-4.767	-4.396	-5.466	-3.232	-3.618	-1.682	-1.369	-0.494	3.925	1.782	6.770	6.248	6.488	332.031
-6.941	-3.802	-5.323	-3.907	-0.509	-1.900	4.099	5.363	9.928	7.830	10.006	5.263	0.967	0.879	-7.930	-4.664	-4.373	-5.514	-3.097	-3.440	-1.507	-1.271	-0.434	3.910	1.710	6.612	6.188	6.339	335.938
-7.015	-3.762	-5.180	-3.704	-0.322	-1.645	4.161	5.334	9.861	7.676	9.930	5.175	1.054	1.025	-7.974	-4.560	-4.349	-5.496	-2.988	-3.274	-1.356	-1.195	-0.397	3.868	1.623	6.432	6.064	6.168	339.844
-7.068	-3.707	-4.939	-3.513	-0.159	-1.381	4.198	5.262	9.729	7.474	9.803	5.072	1.125	1.154	-7.971	-4.457	-4.313	-5.416	-2.904	-3.120	-1.230	-1.142	-0.381	3.805	1.527	6.238	5.884	5.985	343.750
-7.098	-3.636	-4.639	-3.346	-0.026	-1.139	4.219	5.157	9.540	7.248	9.630	4.965	1.190	1.267	-7.947	-4.357	-4.254	-5.297	-2.842	-2.980	-1.126	-1.114	-0.380	3.729	1.431	6.039	5.665	5.799	347.656
-7.107	-3.548	-4.324	-3.210	0.079	-0.939	4.234	5.032	9.314	7.026	9.428	4.870	1.257	1.367	-7.928	-4.260	-4.166	-5.175	-2.796	-2.851	-1.038	-1.109	-0.390	3.652	1.340	5.847	5.429	5.621	351.562
-7.106	-3.446	-4.034	-3.111	0.162	-0.798	4.257	4.904	9.072	6.836	9.215	4.797	1.340	1.460	-7.932	-4.166	-4.051	-5.091	-2.760	-2.733	-0.960	-1.120	-0.406	3.585	1.262	5.673	5.201	5.463	355.469
-7.112	-3.333	-3.802	-3.051	0.234	-0.717	4.294	4.791	8.843	6.699	9.011	4.752	1.449	1.549	-7.967	-4.080	-3.915	-5.075	-2.731	-2.629	-0.886	-1.135	-0.422	3.539	1.200	5.527	5.010	5.334	359.375
-7.142	-3.218	-3.642	-3.033	0.303	-0.692	4.349	4.708	8.651	6.630	8.835	4.734	1.587	1.639	-8.026	-4.004	-3.776	-5.141	-2.705	-2.542	-0.811	-1.144	-0.433	3.522	1.157	5.417	4.878	5.240	363.281
-7.205	-3.113	-3.560	-3.054	0.375	-0.711	4.419	4.665	8.520	6.634	8.699	4.734	1.755	1.730	-8.098	-3.948	-3.652	-5.279	-2.682	-2.476	-0.735	-1.136	-0.434	3.538	1.135	5.348	4.823	5.181	367.188
-7.300	-3.031	-3.548	-3.112	0.451	-0.759	4.497	4.670	8.462	6.707	8.608	4.738	1.944	1.820	-8.167	-3.917	-3.562	-5.459	-2.664	-2.437	-0.660	-1.104	-0.420	3.585	1.131	5.320	4.851	5.154	371.094
-7.407	-2.985	-3.592	-3.199	0.526	-0.822	4.574	4.723	8.483	6.834	8.558	4.732	2.140	1.906	-8.218	-3.920	-3.523	-5.638	-2.657	-2.432	-0.591	-1.051	-0.393	3.654	1.141	5.328	4.952	5.148	375.000
-7.499	-2.985	-3.673	-3.308	0.592	-0.893	4.639	4.822	8.574	6.995	8.540	4.701	2.325	1.982	-8.236	-3.958	-3.548	-5.774	-2.666	-2.462	-0.534	-0.984	-0.358	3.732	1.160	5.358	5.107	5.149	378.906
-7.540	-3.039	-3.771	-3.431	0.640	-0.967	4.684	4.959	8.717	7.162	8.539	4.637	2.477	2.042	-8.211	-4.032	-3.642	-5.834	-2.696	-2.529	-0.500	-0.920	-0.328	3.801	1.181	5.395	5.281	5.141	382.812
-7.500	-3.148	-3.870	-3.558	0.659	-1.043	4.703	5.120	8.887	7.309	8.537	4.540	2.577	2.080	-8.129	-4.133	-3.804	-5.803	-2.751	-2.629	-0.494	-0.875	-0.313	3.845	1.199	5.421	5.433	5.109	386.719
-7.359	-3.311	-3.957	-3.682	0.643	-1.124	4.696	5.286	9.051	7.411	8.519	4.415	2.610	2.094	-7.982	-4.252	-4.019	-5.684	-2.829	-2.753	-0.522	-0.862	-0.324	3.850	1.210	5.416	5.522	5.040	390.625
-7.113	-3.519	-4.023	-3.799	0.594	-1.210	4.665	5.431	9.175	7.451	8.470	4.274	2.567	2.083	-7.763	-4.373	-4.262	-5.494	-2.918	-2.891	-0.581	-0.888	-0.366	3.809	1.211	5.364	5.514	4.926	394.531
-6.778	-3.757	-4.059	-3.901	0.519	-1.302	4.619	5.528	9.228	7.418	8.382	4.129	2.451	2.056	-7.470	-4.477	-4.498	-5.256	-3.003	-3.025	-0.663	-0.948	-0.436	3.722	1.201	5.255	5.387	4.763	398.438
-6.383	-4.001	-4.060	-3.985	0.430	-1.396	4.568	5.550	9.187	7.312	8.248	3.989	2.276	2.023	-7.112	-4.546	-4.690	-4.993	-3.067	-3.139	-0.755	-1.031	-0.521	3.598	1.180	5.087	5.139	4.555	402.344
-5.964	-4.227	-4.019	-4.049	0.340	-1.490	4.522	5.481	9.041	7.139	8.068	3.859	2.062	1.996	-6.705	-4.567	-4.807	-4.720	-3.094	-3.215	-0.841	-1.120	-0.607	3.448	1.151	4.865	4.786	4.308	406.250
-5.557	-4.410	-3.938	-4.092	0.261	-1.580	4.489	5.316	8.794	6.915	7.843	3.740	1.836	1.986	-6.273	-4.531	-4.826	-4.445	-3.075	-3.243	-0.907	-1.196	-0.676	3.290	1.117	4.604	4.359	4.036	410.156
-5.187	-4.534	-3.819	-4.117	0.204	-1.662	4.475	5.064	8.460	6.659	7.578	3.625	1.628	2.001	-5.848	-4.442	-4.748	-4.162	-3.010	-3.219	-0.939	-1.241	-0.713	3.139	1.083	4.326	3.897	3.751	414.062
-4.862	-4.592	-3.671	-4.127	0.173	-1.734	4.479	4.749	8.063	6.389	7.278	3.503	1.461	2.043	-5.458	-4.309	-4.587	-3.865	-2.903	-3.144	-0.931	-1.243	-0.706	3.008	1.053	4.049	3.441	3.464	417.969
-4.573	-4.587	-3.506	-4.128	0.169	-1.793	4.496	4.401	7.630	6.124	6.949	3.362	1.354	2.109	-5.128	-4.152	-4.377	-3.546	-2.768	-3.027	-0.880	-1.194	-0.652	2.906	1.028	3.789	3.023	3.181	421.875
-4.298	-4.533	-3.337	-4.122	0.192	-1.834	4.518	4.053	7.183	5.875	6.600	3.193	1.316	2.195	-4.866	-3.987	-4.155	-3.206	-2.619	-2.881	-0.789	-1.094	-0.558	2.832	1.007	3.555	2.665	2.905	425.781
-4.013	-4.446	-3.168	-4.110	0.243	-1.856	4.533	3.729	6.742	5.645	6.239	2.992	1.347	2.292	-4.668	-3.829	-3.956	-2.858	-2.471	-2.718	-0.663	-0.953	-0.439	2.778	0.983	3.345	2.374	2.634	429.688
-3.700	-4.340	-3.004	-4.091	0.320	-1.857	4.528	3.447	6.316	5.432	5.878	2.762	1.437	2.393	-4.512	-3.687	-3.804	-2.524	-2.338	-2.549	-0.510	-0.785	-0.313	2.734	0.950	3.150	2.150	2.366	433.594
-3.358	-4.221	-2.838	-4.058	0.420	-1.841	4.496	3.207	5.906	5.228	5.529	2.514	1.566	2.493	-4.370	-3.557	-3.699	-2.233	-2.228	-2.380	-0.341	-0.608	-0.202	2.688	0.896	2.960	1.982	2.101	437.500
-3.008	-4.086	-2.665	-4.004	0.540	-1.813	4.430	2.999	5.509	5.022	5.200	2.263	1.712	2.588	-4.211	-3.426	-3.623	-2.010	-2.144	-2.214	-0.167	-0.441	-0.120	2.630	0.816	2.763	1.860	1.843	441.406
-2.685	-3.919	-2.475	-3.917	0.673	-1.780	4.331	2.803	5.115	4.804	4.897	2.025	1.848	2.676	-4.010	-3.278	-3.545	-1.873	-2.081	-2.047	0.004	-0.298	-0.077	2.555	0.708	2.554	1.771	1.598	445.312
-2.433	-3.700	-2.262	-3.787	0.811	-1.745	4.201	2.598	4.717	4.566	4.616	1.812	1.947	2.757	-3.760	-3.094	-3.430	-1.830	-2.030	-1.875	0.165	-0.187	-0.069	2.465	0.577	2.338	1.704	1.376	449.219
-2.287	-3.412	-2.024	-3.605	0.948	-1.708	4.045	2.364	4.307	4.306	4.351	1.627	1.990	2.829	-3.479	-2.861	-3.251	-1.875	-1.979	-1.692	0.310	-0.108	-0.086	2.365	0.430	2.123	1.651	1.187	453.125
-2.264	-3.045	-1.764	-3.365	1.074	-1.662	3.870	2.093	3.888	4.028	4.093	1.471	1.964	2.891	-3.203	-2.575	-3.001	-1.993	-1.914	-1.491	0.439	-0.053	-0.115	2.263	0.280	1.923	1.605	1.038	457.031
-2.355	-2.605	-1.493	-3.072	1.185	-1.596	3.685	1.788	3.470	3.740	3.834	1.339	1.867	2.940	-2.987	-2.243	-2.690	-2.161	-1.828	-1.273	0.554	-0.016	-0.141	2.165	0.136	1.753	1.564	0.937	460.938
-2.524	-2.116	-1.227	-2.736	1.276	-1.501	3.502	1.467	3.072	3.455	3.576	1.226	1.709	2.972	-2.886	-1.884	-2.348	-2.349	-1.718	-1.041	0.653	0.012	-0.152	2.076	0.009	1.624	1.524	0.882	464.844
-2.721	-1.619	-0.981	-2.380	1.345	-1.372	3.332	1.156	2.722	3.188	3.327	1.128	1.507	2.983	-2.938	-1.524	-2.013	-2.531	-1.594	-0.803	0.738	0.033	-0.146	1.996	-0.096	1.543	1.485	0.870	468.750
-2.887	-1.163	-0.769	-2.028	1.392	-1.210	3.189	0.883	2.444	2.951	3.104	1.042	1.281	2.971	-3.146	-1.194	-1.725	-2.684	-1.470	-0.574	0.804	0.047	-0.128	1.926	-0.175	1.508	1.446	0.889	472.656
-2.977	-0.794	-0.594	-1.707	1.419	-1.022	3.084	0.672	2.259	2.752	2.922	0.967	1.056	2.936	-3.481	-0.922	-1.518	-2.797	-1.365	-0.370	0.850	0.051	-0.107	1.864	-0.230	1.510	1.407	0.926	476.562
-2.962	-0.550	-0.455	-1.441	1.432	-0.819	3.025	0.536	2.175	2.595	2.795	0.902	0.852	2.880	-3.881	-0.728	-1.411	-2.869	-1.296	-0.207	0.871	0.039	-0.096	1.812	-0.260	1.537	1.368	0.962	480.469
-2.842	-0.445	-0.340	-1.241	1.437	-0.613	3.013	0.475	2.184	2.481	2.729	0.845	0.684	2.808	-4.272	-0.621	-1.405	-2.911	-1.274	-0.095	0.866	0.010	-0.104	1.770	-0.267	1.578	1.327	0.984	484.375
-2.642	-0.469	-0.239	-1.109	1.441	-0.415	3.041	0.475	2.266	2.406	2.721	0.794	0.561	2.729	-4.585	-0.594	-1.483	-2.938	-1.298	-0.042	0.835	-0.038	-0.137	1.741	-0.250	1.622	1.284	0.982	488.281
-2.400	-0.591	-0.142	-1.040	1.449	-0.239	3.098	0.516	2.390	2.363	2.759	0.745	0.481	2.648	-4.773	-0.629	-1.612	-2.969	-1.361	-0.045	0.784	-0.101	-0.193	1.727	-0.207	1.662	1.239	0.954	492.188
-2.157	-0.761	-0.043	-1.018	1.459	-0.099	3.162	0.574	2.523	2.345	2.826	0.697	0.438	2.572	-4.817	-0.700	-1.750	-3.015	-1.444	-0.097	0.717	-0.176	-0.262	1.727	-0.137	1.695	1.197	0.905	496.094
-1.944	-0.925	0.054	-1.030	1.468	-0.007	3.211	0.625	2.636	2.344	2.904	0.650	0.417	2.501	-4.727	-0.781	-1.855	-3.082	-1.529	-0.184	0.641	-0.255	-0.335	1.738	-0.046	1.720	1.164	0.845	500.000
-1.776	-1.037	0.146	-1.061	1.466	0.024	3.220	0.652	2.704	2.349	2.975	0.607	0.400	2.432	-4.538	-0.847	-1.892	-3.163	-1.596	-0.294	0.561	-0.331	-0.401	1.751	0.060	1.734	1.150	0.785	503.906
-1.651	-1.062	0.226	-1.101	1.443	-0.010	3.170	0.647	2.715	2.351	3.029	0.570	0.367	2.361	-4.292	-0.880	-1.840	-3.240	-1.631	-0.408	0.481	-0.398	-0.452	1.756	0.165	1.736	1.161	0.734	507.812
-1.555	-0.992	0.286	-1.143	1.393	-0.109	3.047	0.611	2.668	2.338	3.057	0.543	0.303	2.281	-4.035	-0.872	-1.693	-3.291	-1.626	-0.513	0.405	-0.451	-0.481	1.741	0.252	1.720	1.203	0.697	511.719
-1.470	-0.841	0.325	-1.183	1.313	-0.258	2.850	0.553	2.570	2.298	3.055	0.524	0.197	2.191	-3.802	-0.824	-1.465	-3.288	-1.577	-0.595	0.335	-0.485	-0.488	1.699	0.301	1.679	1.274	0.668	515.625
-1.381	-0.640	0.342	-1.220	1.205	-0.437	2.589	0.487	2.434	2.224	3.023	0.509	0.048	2.091	-3.614	-0.746	-1.184	-3.207	-1.491	-0.647	0.273	-0.499	-0.474	1.629	0.302	1.605	1.367	0.635	519.531
-1.281	-0.430	0.341	-1.252	1.080	-0.617	2.285	0.429	2.275	2.113	2.958	0.487	-0.134	1.987	-3.470	-0.651	-0.888	-3.033	-1.375	-0.663	0.221	-0.489	-0.441	1.534	0.248	1.492	1.468	0.582	523.438
-1.177	-0.249	0.330	-1.279	0.949	-0.773	1.966	0.390	2.106	1.968	2.860	0.446	-0.333	1.890	-3.354	-0.555	-0.615	-2.767	-1.240	-0.645	0.184	-0.456	-0.392	1.425	0.148	1.340	1.559	0.488	527.344
-1.087	-0.121	0.319	-1.299	0.830	-0.881	1.664	0.374	1.937	1.801	2.725	0.371	-0.524	1.811	-3.235	-0.471	-0.398	-2.421	-1.096	-0.595	0.162	-0.397	-0.327	1.320	0.016	1.153	1.622	0.335	531.250
-1.038	-0.055	0.316	-1.311	0.735	-0.930	1.407	0.375	1.774	1.626	2.555	0.252	-0.683	1.761	-3.075	-0.408	-0.255	-2.022	-0.953	-0.522	0.159	-0.314	-0.248	1.233	-0.124	0.940	1.645	0.117	535.156
-1.053	-0.042	0.324	-1.315	0.675	-0.920	1.215	0.381	1.617	1.461	2.354	0.087	-0.789	1.745	-2.845	-0.370	-0.187	-1.602	-0.818	-0.437	0.173	-0.208	-0.154	1.182	-0.249	0.718	1.627	-0.159	539.062
-1.143	-0.070	0.338	-1.315	0.653	-0.860	1.099	0.380	1.468	1.320	2.133	-0.114	-0.831	1.762	-2.530	-0.360	-0.181	-1.199	-0.698	-0.352	0.200	-0.087	-0.049	1.176	-0.339	0.507	1.579	-0.471	542.969
-1.304	-0.125	0.346	-1.317	0.666	-0.770	1.056	0.359	1.329	1.215	1.910	-0.330	-0.807	1.805	-2.137	-0.377	-0.214	-0.842	-0.599	-0.285	0.233	0.040	0.063	1.219	-0.379	0.329	1.528	-0.783	546.875
-1.508	-0.205	0.332	-1.335	0.702	-0.674	1.072	0.314	1.205	1.149	1.707	-0.529	-0.727	1.861	-1.699	-0.422	-0.264	-0.555	-0.526	-0.249	0.261	0.159	0.175	1.309	-0.364	0.204	1.510	-1.049	550.781
-1.717	-0.316	0.279	-1.381	0.747	-0.597	1.127	0.249	1.105	1.119	1.549	-0.676	-0.610	1.912	-1.261	-0.497	-0.312	-0.348	-0.483	-0.258	0.274	0.256	0.279	1.437	-0.297	0.149	1.559	-1.225	554.688
-1.889	-0.473	0.177	-1.469	0.783	-0.559	1.196	0.178	1.039	1.119	1.457	-0.736	-0.481	1.941	-0.879	-0.604	-0.351	-0.222	-0.472	-0.321	0.261	0.319	0.363	1.589	-0.192	0.172	1.703	-1.274	558.594
-1.992	-0.693	0.028	-1.607	0.796	-0.574	1.255	0.117	1.015	1.138	1.444	-0.683	-0.365	1.935	-0.601	-0.740	-0.381	-0.165	-0.495	-0.440	0.215	0.340	0.420	1.749	-0.064	0.273	1.950	-1.179	562.500
-2.009	-0.978	-0.158	-1.793	0.776	-0.643	1.285	0.083	1.039	1.166	1.511	-0.511	-0.283	1.888	-0.458	-0.903	-0.410	-0.160	-0.547	-0.608	0.133	0.315	0.443	1.902	0.065	0.441	2.286	-0.942	566.406
-1.947	-1.320	-0.360	-2.017	0.721	-0.758	1.274	0.085	1.105	1.190	1.644	-0.229	-0.247	1.802	-0.459	-1.080	-0.448	-0.188	-0.623	-0.811	0.020	0.250	0.430	2.034	0.176	0.660	2.675	-0.587	570.312
-1.828	-1.687	-0.553	-2.257	0.638	-0.902	1.219	0.124	1.201	1.199	1.816	0.132	-0.262	1.688	-0.588	-1.257	-0.500	-0.232	-0.712	-1.027	-0.113	0.157	0.387	2.133	0.252	0.906	3.066	-0.161	574.219
-1.685	-2.036	-0.719	-2.485	0.541	-1.051	1.126	0.189	1.308	1.184	1.989	0.522	-0.322	1.564	-0.810	-1.413	-0.562	-0.278	-0.798	-1.229	-0.251	0.053	0.323	2.193	0.285	1.151	3.404	0.279	578.125
-1.553	-2.313	-0.844	-2.669	0.447	-1.182	1.008	0.261	1.400	1.138	2.121	0.885	-0.412	1.452	-1.072	-1.527	-0.622	-0.315	-0.864	-1.389	-0.372	-0.042	0.253	2.212	0.274	1.368	3.637	0.669	582.031
-1.459	-2.472	-0.923	-2.782	0.377	-1.275	0.880	0.316	1.450	1.056	2.170	1.161	-0.513	1.372	-1.317	-1.579	-0.660	-0.333	-0.893	-1.483	-0.454	-0.108	0.196	2.190	0.225	1.530	3.734	0.948	585.938
-1.417	-2.483	-0.955	-2.802	0.347	-1.315	0.757	0.333	1.436	0.936	2.105	1.300	-0.604	1.343	-1.488	-1.553	-0.656	-0.317	-0.872	-1.490	-0.479	-0.130	0.165	2.133	0.149	1.614	3.678	1.071	589.844
-1.422	-2.338	-0.943	-2.725	0.371	-1.299	0.654	0.296	1.344	0.779	1.909	1.271	-0.666	1.377	-1.538	-1.443	-0.597	-0.253	-0.798	-1.403	-0.434	-0.098	0.176	2.049	0.060	1.604	3.480	1.011	593.750
-1.453	-2.057	-0.888	-2.557	0.451	-1.229	0.577	0.197	1.169	0.588	1.580	1.064	-0.684	1.476	-1.435	-1.253	-0.479	-0.125	-0.673	-1.222	-0.313	-0.009	0.231	1.952	-0.029	1.491	3.165	0.765	597.656
-1.480	-1.679	-0.792	-2.316	0.588	-1.116	0.529	0.037	0.913	0.366	1.134	0.692	-0.649	1.633	-1.174	-0.993	-0.308	0.071	-0.504	-0.960	-0.123	0.134	0.331	1.853	-0.109	1.277	2.771	0.350	601.562
-1.471	-1.251	-0.652	-2.028	0.770	-0.975	0.509	-0.175	0.589	0.118	0.598	0.188	-0.557	1.837	-0.776	-0.682	-0.093	0.327	-0.302	-0.638	0.124	0.322	0.469	1.767	-0.176	0.967	2.338	-0.196	605.469
-1.401	-0.820	-0.467	-1.718	0.982	-0.822	0.512	-0.427	0.211	-0.154	0.005	-0.403	-0.415	2.069	-0.290	-0.342	0.156	0.623	-0.075	-0.281	0.406	0.543	0.634	1.703	-0.233	0.575	1.906	-0.828	609.375
-1.258	-0.418	-0.236	-1.410	1.206	-0.674	0.529	-0.701	-0.203	-0.447	-0.607	-1.034	-0.233	2.308	0.220	0.009	0.430	0.924	0.174	0.084	0.699	0.786	0.813	1.669	-0.287	0.119	1.503	-1.497	613.281
-1.046	-0.060	0.039	-1.118	1.421	-0.544	0.552	-0.981	-0.632	-0.757	-1.207	-1.659	-0.029	2.536	0.685	0.354	0.726	1.198	0.442	0.436	0.979	1.035	0.994	1.662	-0.348	-0.379	1.147	-2.162	617.188
-0.778	0.258	0.352	-0.847	1.611	-0.440	0.569	-1.249	-1.060	-1.081	-1.768	-2.243	0.174	2.732	1.054	0.680	1.039	1.418	0.723	0.756	1.226	1.274	1.164	1.674	-0.425	-0.894	0.844	-2.789	621.094
-0.474	0.550	0.691	-0.600	1.761	-0.363	0.569	-1.489	-1.469	-1.414	-2.274	-2.761	0.354	2.884	1.304	0.980	1.360	1.581	1.010	1.030	1.425	1.488	1.311	1.693	-0.524	-1.401	0.593	-3.355	625.000
-0.157	0.831	1.039	-0.376	1.863	-0.306	0.540	-1.688	-1.845	-1.748	-2.713	-3.203	0.490	2.981	1.442	1.246	1.672	1.699	1.289	1.249	1.564	1.659	1.427	1.702	-0.643	-1.876	0.384	-3.849	628.906
0.154	1.112	1.372	-0.177	1.914	-0.262	0.472	-1.839	-2.175	-2.074	-3.086	-3.566	0.565	3.016	1.501	1.473	1.955	1.803	1.544	1.410	1.643	1.779	1.507	1.684	-0.771	-2.294	0.205	-4.267	632.812
0.443	1.389	1.664	-0.008	1.915	-0.223	0.358	-1.943	-2.455	-2.381	-3.394	-3.856	0.568	2.989	1.534	1.656	2.192	1.929	1.762	1.513	1.662	1.845	1.554	1.629	-0.893	-2.636	0.041	-4.611	636.719
0.693	1.649	1.892	0.119	1.868	-0.187	0.196	-2.008	-2.682	-2.660	-3.646	-4.081	0.498	2.904	1.593	1.796	2.371	2.101	1.937	1.562	1.631	1.863	1.576	1.533	-0.987	-2.889	-0.122	-4.884	640.625
0.895	1.872	2.035	0.193	1.777	-0.157	-0.016	-2.047	-2.862	-2.902	-3.849	-4.252	0.360	2.768	1.721	1.895	2.496	2.328	2.073	1.567	1.563	1.850	1.584	1.400	-1.034	-3.048	-0.295	-5.093	644.531
1.038	2.035	2.089	0.207	1.647	-0.140	-0.270	-2.078	-3.003	-3.105	-4.012	-4.378	0.164	2.596	1.936	1.961	2.588	2.600	2.181	1.540	1.470	1.825	1.592	1.239	-1.023	-3.117	-0.482	-5.242	648.438
1.122	2.127	2.062	0.161	1.484	-0.144	-0.559	-2.115	-3.117	-3.269	-4.144	-4.467	-0.073	2.401	2.228	2.008	2.674	2.893	2.280	1.499	1.370	1.807	1.611	1.063	-0.953	-3.110	-0.680	-5.338	652.344
1.149	2.142	1.978	0.063	1.300	-0.178	-0.867	-2.169	-3.213	-3.400	-4.249	-4.525	-0.333	2.201	2.561	2.047	2.786	3.181	2.387	1.460	1.277	1.809	1.650	0.887	-0.835	-3.049	-0.873	-5.385	656.250
1.130	2.092	1.869	-0.069	1.107	-0.246	-1.177	-2.241	-3.301	-3.506	-4.332	-4.556	-0.595	2.011	2.887	2.092	2.945	3.444	2.512	1.437	1.201	1.838	1.710	0.723	-0.688	-2.956	-1.038	-5.391	660.156
1.076	1.997	1.771	-0.214	0.919	-0.346	-1.468	-2.326	-3.384	-3.596	-4.396	-4.562	-0.839	1.846	3.156	2.147	3.155	3.669	2.656	1.438	1.148	1.888	1.787	0.583	-0.537	-2.855	-1.149	-5.361	664.062
1.003	1.884	1.711	-0.350	0.753	-0.473	-1.721	-2.412	-3.464	-3.677	-4.444	-4.544	-1.046	1.715	3.332	2.215	3.400	3.854	2.806	1.465	1.121	1.949	1.873	0.474	-0.402	-2.765	-1.183	-5.302	667.969
0.922	1.778	1.702	-0.458	0.619	-0.615	-1.918	-2.488	-3.537	-3.753	-4.479	-4.502	-1.202	1.623	3.398	2.289	3.646	3.999	2.944	1.512	1.116	2.006	1.954	0.401	-0.301	-2.694	-1.129	-5.218	671.875
0.844	1.700	1.743	-0.528	0.527	-0.754	-2.051	-2.544	-3.603	-3.827	-4.504	-4.438	-1.298	1.570	3.361	2.362	3.855	4.103	3.049	1.570	1.129	2.046	2.019	0.366	-0.240	-2.645	-0.994	-5.113	675.781
0.776	1.662	1.825	-0.559	0.478	-0.872	-2.116	-2.581	-3.659	-3.900	-4.529	-4.357	-1.331	1.555	3.247	2.424	3.991	4.161	3.104	1.628	1.156	2.061	2.056	0.367	-0.218	-2.616	-0.799	-4.996	679.688
0.724	1.666	1.932	-0.554	0.471	-0.947	-2.122	-2.602	-3.711	-3.978	-4.563	-4.269	-1.309	1.573	3.096	2.468	4.034	4.168	3.100	1.676	1.193	2.047	2.061	0.398	-0.226	-2.599	-0.577	-4.875	683.594
0.695	1.708	2.050	-0.521	0.500	-0.965	-2.085	-2.619	-3.766	-4.065	-4.623	-4.190	-1.249	1.616	2.952	2.495	3.987	4.122	3.042	1.712	1.236	2.011	2.033	0.447	-0.254	-2.592	-0.369	-4.767	687.500
0.696	1.778	2.172	-0.472	0.558	-0.919	-2.027	-2.644	-3.835	-4.170	-4.723	-4.142	-1.173	1.678	2.856	2.511	3.874	4.029	2.947	1.737	1.287	1.962	1.977	0.502	-0.292	-2.595	-0.213	-4.693	691.406
0.734	1.867	2.297	-0.415	0.638	-0.811	-1.971	-2.685	-3.931	-4.303	-4.876	-4.148	-1.106	1.750	2.839	2.529	3.734	3.909	2.841	1.761	1.348	1.915	1.905	0.545	-0.334	-2.618	-0.142	-4.679	695.312
0.815	1.968	2.430	-0.359	0.732	-0.656	-1.941	-2.745	-4.061	-4.470	-5.091	-4.230	-1.073	1.826	2.915	2.563	3.619	3.787	2.757	1.795	1.420	1.886	1.834	0.563	-0.379	-2.676	-0.180	-4.748	699.219
0.941	2.076	2.574	-0.307	0.832	-0.472	-1.953	-2.821	-4.227	-4.675	-5.364	-4.399	-1.089	1.901	3.081	2.629	3.574	3.697	2.725	1.851	1.505	1.891	1.778	0.544	-0.429	-2.786	-0.338	-4.919	703.125
1.108	2.188	2.730	-0.260	0.932	-0.282	-2.014	-2.901	-4.423	-4.911	-5.680	-4.655	-1.157	1.972	3.317	2.733	3.628	3.666	2.768	1.939	1.605	1.942	1.753	0.482	-0.489	-2.963	-0.614	-5.198	707.031
1.306	2.302	2.892	-0.217	1.029	-0.108	-2.120	-2.974	-4.632	-5.165	-6.014	-4.981	-1.269	2.039	3.592	2.874	3.786	3.713	2.894	2.062	1.717	2.041	1.768	0.381	-0.563	-3.210	-0.992	-5.575	710.938
1.518	2.415	3.051	-0.176	1.119	0.035	-2.255	-3.026	-4.832	-5.413	-6.332	-5.346	-1.403	2.101	3.865	3.042	4.026	3.836	3.089	2.214	1.837	2.184	1.821	0.251	-0.650	-3.518	-1.439	-6.021	714.844
1.724	2.524	3.194	-0.135	1.200	0.140	-2.397	-3.048	-5.001	-5.628	-6.593	-5.708	-1.532	2.160	4.097	3.217	4.303	4.012	3.324	2.385	1.958	2.353	1.902	0.110	-0.749	-3.862	-1.909	-6.494	718.750
1.907	2.622	3.309	-0.091	1.271	0.204	-2.520	-3.035	-5.115	-5.781	-6.762	-6.020	-1.629	2.217	4.255	3.376	4.562	4.204	3.557	2.557	2.070	2.527	1.996	-0.022	-0.854	-4.206	-2.350	-6.942	722.656
2.053	2.699	3.381	-0.049	1.328	0.234	-2.598	-2.992	-5.159	-5.851	-6.808	-6.241	-1.671	2.273	4.318	3.497	4.750	4.371	3.746	2.710	2.164	2.680	2.080	-0.123	-0.958	-4.511	-2.711	-7.317	726.562
2.153	2.746	3.402	-0.015	1.368	0.234	-2.616	-2.926	-5.127	-5.825	-6.717	-6.343	-1.645	2.324	4.283	3.561	4.832	4.479	3.857	2.824	2.229	2.792	2.140	-0.179	-1.052	-4.740	-2.952	-7.575	730.469
2.199	2.754	3.365	0.001	1.383	0.209	-2.568	-2.850	-5.024	-5.707	-6.491	-6.311	-1.548	2.368	4.162	3.558	4.796	4.514	3.874	2.883	2.255	2.849	2.167	-0.178	-1.131	-4.865	-3.049	-7.691	734.375
2.181	2.717	3.273	-0.012	1.363	0.160	-2.464	-2.780	-4.865	-5.510	-6.147	-6.148	-1.393	2.399	3.981	3.485	4.653	4.479	3.800	2.875	2.233	2.849	2.159	-0.118	-1.187	-4.870	-2.995	-7.652	738.281
2.086	2.638	3.130	-0.063	1.301	0.089	-2.319	-2.729	-4.670	-5.262	-5.719	-5.871	-1.198	2.410	3.773	3.348	4.435	4.394	3.654	2.793	2.159	2.799	2.128	-0.005	-1.209	-4.752	-2.802	-7.461	742.188
1.901	2.523	2.949	-0.161	1.188	-0.006	-2.158	-2.708	-4.463	-4.989	-5.251	-5.507	-0.988	2.393	3.566	3.158	4.187	4.281	3.463	2.640	2.029	2.710	2.085	0.149	-1.186	-4.520	-2.494	-7.134	746.094
1.622	2.382	2.746	-0.307	1.020	-0.124	-2.007	-2.723	-4.267	-4.721	-4.788	-5.084	-0.787	2.344	3.381	2.932	3.950	4.159	3.258	2.424	1.848	2.599	2.046	0.328	-1.107	-4.190	-2.104	-6.692	750.000
1.257	2.225	2.538	-0.499	0.798	-0.265	-1.889	-2.771	-4.102	-4.479	-4.371	-4.633	-0.617	2.259	3.225	2.687	3.758	4.037	3.062	2.159	1.623	2.477	2.019	0.517	-0.963	-3.782	-1.665	-6.159	753.906
0.836	2.062	2.341	-0.729	0.528	-0.426	-1.818	-2.846	-3.980	-4.277	-4.033	-4.180	-0.492	2.140	3.100	2.438	3.628	3.918	2.888	1.864	1.367	2.354	2.007	0.698	-0.750	-3.320	-1.212	-5.566	757.812
0.405	1.898	2.167	-0.983	0.225	-0.604	-1.802	-2.939	-3.905	-4.123	-3.794	-3.746	-0.418	1.993	2.998	2.203	3.559	3.801	2.741	1.562	1.098	2.236	2.009	0.858	-0.479	-2.832	-0.777	-4.944	761.719
0.022	1.737	2.021	-1.242	-0.093	-0.795	-1.838	-3.037	-3.877	-4.022	-3.661	-3.350	-0.393	1.832	2.910	1.994	3.536	3.687	2.620	1.277	0.838	2.126	2.015	0.986	-0.170	-2.349	-0.393	-4.327	765.625
-0.250	1.583	1.899	-1.487	-0.401	-0.996	-1.916	-3.126	-3.888	-3.977	-3.632	-3.011	-0.407	1.673	2.830	1.825	3.535	3.580	2.521	1.034	0.610	2.026	2.017	1.075	0.142	-1.903	-0.084	-3.754	769.531
-0.352	1.437	1.794	-1.697	-0.678	-1.209	-2.024	-3.196	-3.928	-3.992	-3.692	-2.743	-0.451	1.537	2.760	1.704	3.533	3.486	2.443	0.855	0.438	1.938	2.005	1.120	0.417	-1.526	0.126	-3.259	773.438
-0.239	1.300	1.691	-1.853	-0.905	-1.436	-2.147	-3.234	-3.985	-4.074	-3.825	-2.557	-0.511	1.441	2.708	1.635	3.507	3.408	2.386	0.754	0.338	1.869	1.974	1.122	0.615	-1.245	0.225	-2.875	777.344
0.112	1.172	1.575	-1.946	-1.070	-1.685	-2.272	-3.236	-4.049	-4.225	-4.012	-2.458	-0.578	1.400	2.686	1.620	3.446	3.341	2.356	0.737	0.322	1.823	1.919	1.086	0.709	-1.076	0.210	-2.617	781.250
0.696	1.050	1.433	-1.974	-1.173	-1.961	-2.391	-3.201	-4.113	-4.444	-4.234	-2.443	-0.645	1.418	2.706	1.651	3.342	3.281	2.354	0.801	0.389	1.807	1.842	1.018	0.687	-1.021	0.088	-2.490	785.156
1.480	0.932	1.256	-1.944	-1.222	-2.267	-2.501	-3.132	-4.171	-4.724	-4.474	-2.498	-0.706	1.492	2.773	1.717	3.199	3.217	2.382	0.929	0.527	1.819	1.747	0.928	0.558	-1.063	-0.117	-2.474	789.062
2.406	0.814	1.045	-1.873	-1.235	-2.600	-2.600	-3.041	-4.222	-5.048	-4.719	-2.600	-0.761	1.608	2.880	1.806	3.026	3.146	2.433	1.100	0.715	1.853	1.638	0.826	0.347	-1.172	-0.378	-2.535	792.969
3.397	0.693	0.811	-1.783	-1.233	-2.951	-2.691	-2.939	-4.267	-5.393	-4.959	-2.720	-0.809	1.745	3.010	1.901	2.834	3.068	2.495	1.289	0.926	1.899	1.522	0.723	0.095	-1.311	-0.659	-2.629	796.875
