FP1	F3	F7	FC3	C3	C5	P3	P7	PO7	PO3	O1	Oz	Pz	CPz	FP2	Fz	F4	F8	FC4	FCz	Cz	C4	C6	P4	P8	PO8	PO4	O2	time
1.059	0.922	0.772	1.553	1.683	1.946	-0.091	-0.554	-1.883	-0.793	-2.404	-2.095	-0.895	0.932	-0.351	1.624	1.318	1.054	0.925	2.004	1.355	0.739	0.371	-0.241	-1.663	-1.713	-1.714	-1.839	-199.219
0.649	0.863	0.704	1.355	1.570	1.610	0.059	-0.231	-1.337	-0.444	-1.882	-1.726	-0.806	0.912	-0.046	1.322	0.898	0.567	0.647	1.799	1.226	0.578	0.196	-0.234	-1.397	-1.456	-1.528	-1.526	-195.312
0.261	0.771	0.614	1.145	1.453	1.283	0.211	0.065	-0.820	-0.102	-1.374	-1.362	-0.707	0.889	0.208	1.021	0.497	0.126	0.390	1.592	1.099	0.429	0.043	-0.216	-1.137	-1.194	-1.316	-1.211	-191.406
-0.081	0.620	0.489	0.914	1.330	0.975	0.366	0.313	-0.353	0.223	-0.890	-1.005	-0.592	0.860	0.368	0.725	0.134	-0.237	0.167	1.380	0.975	0.296	-0.075	-0.178	-0.889	-0.927	-1.058	-0.893	-187.500
-0.361	0.402	0.325	0.659	1.198	0.697	0.520	0.499	0.047	0.526	-0.435	-0.657	-0.465	0.821	0.404	0.440	-0.176	-0.501	-0.015	1.166	0.852	0.180	-0.152	-0.120	-0.661	-0.653	-0.749	-0.571	-183.594
-0.575	0.129	0.136	0.388	1.055	0.458	0.669	0.615	0.371	0.798	-0.017	-0.320	-0.332	0.769	0.302	0.173	-0.416	-0.662	-0.153	0.952	0.730	0.078	-0.189	-0.045	-0.459	-0.377	-0.401	-0.249	-179.688
-0.727	-0.170	-0.059	0.115	0.903	0.266	0.802	0.664	0.616	1.031	0.356	0.000	-0.204	0.704	0.069	-0.064	-0.579	-0.729	-0.252	0.743	0.607	-0.013	-0.193	0.039	-0.284	-0.106	-0.042	0.067	-175.781
-0.826	-0.457	-0.233	-0.140	0.745	0.125	0.908	0.652	0.784	1.214	0.678	0.294	-0.092	0.624	-0.264	-0.263	-0.664	-0.718	-0.317	0.546	0.482	-0.098	-0.175	0.120	-0.141	0.149	0.291	0.362	-171.875
-0.883	-0.696	-0.358	-0.358	0.585	0.030	0.975	0.592	0.876	1.335	0.936	0.546	-0.010	0.531	-0.642	-0.416	-0.678	-0.652	-0.355	0.369	0.358	-0.175	-0.146	0.186	-0.029	0.374	0.555	0.619	-167.969
-0.906	-0.859	-0.417	-0.523	0.429	-0.027	0.993	0.494	0.897	1.381	1.119	0.741	0.035	0.427	-0.999	-0.517	-0.634	-0.550	-0.365	0.221	0.240	-0.243	-0.115	0.230	0.051	0.552	0.713	0.818	-164.062
-0.900	-0.932	-0.397	-0.625	0.285	-0.061	0.956	0.368	0.845	1.343	1.214	0.860	0.036	0.315	-1.269	-0.562	-0.546	-0.429	-0.345	0.111	0.133	-0.292	-0.088	0.247	0.100	0.673	0.738	0.939	-160.156
-0.862	-0.914	-0.301	-0.660	0.160	-0.086	0.861	0.220	0.722	1.216	1.208	0.888	-0.004	0.200	-1.397	-0.552	-0.429	-0.299	-0.291	0.044	0.045	-0.313	-0.065	0.236	0.120	0.726	0.622	0.971	-156.250
-0.790	-0.819	-0.139	-0.631	0.059	-0.116	0.710	0.055	0.529	1.000	1.094	0.817	-0.079	0.088	-1.352	-0.488	-0.292	-0.163	-0.197	0.023	-0.018	-0.297	-0.040	0.204	0.117	0.710	0.377	0.909	-152.344
-0.680	-0.663	0.069	-0.549	-0.013	-0.159	0.512	-0.123	0.272	0.705	0.873	0.649	-0.177	-0.017	-1.135	-0.376	-0.143	-0.018	-0.064	0.045	-0.053	-0.238	-0.008	0.158	0.096	0.632	0.035	0.760	-148.438
-0.535	-0.470	0.297	-0.428	-0.057	-0.217	0.280	-0.308	-0.036	0.349	0.556	0.395	-0.283	-0.110	-0.774	-0.228	0.011	0.140	0.102	0.099	-0.061	-0.137	0.036	0.109	0.065	0.504	-0.358	0.540	-144.531
-0.357	-0.263	0.517	-0.286	-0.075	-0.287	0.033	-0.489	-0.374	-0.042	0.169	0.081	-0.378	-0.187	-0.323	-0.060	0.165	0.312	0.286	0.171	-0.047	-0.003	0.096	0.066	0.032	0.346	-0.748	0.277	-140.625
-0.158	-0.065	0.702	-0.139	-0.072	-0.359	-0.207	-0.653	-0.710	-0.436	-0.249	-0.258	-0.446	-0.249	0.152	0.107	0.309	0.493	0.469	0.243	-0.018	0.147	0.168	0.036	0.004	0.181	-1.081	0.004	-136.719
0.048	0.104	0.832	-0.006	-0.055	-0.420	-0.417	-0.783	-1.011	-0.801	-0.653	-0.584	-0.474	-0.294	0.579	0.251	0.434	0.669	0.628	0.296	0.015	0.293	0.244	0.022	-0.018	0.032	-1.309	-0.247	-132.812
0.239	0.229	0.898	0.100	-0.029	-0.453	-0.574	-0.864	-1.244	-1.106	-0.996	-0.858	-0.455	-0.323	0.899	0.354	0.526	0.822	0.740	0.318	0.045	0.415	0.313	0.027	-0.032	-0.085	-1.402	-0.448	-128.906
0.395	0.303	0.898	0.171	0.001	-0.446	-0.663	-0.887	-1.382	-1.324	-1.236	-1.049	-0.388	-0.338	1.069	0.404	0.577	0.930	0.793	0.302	0.065	0.497	0.363	0.047	-0.042	-0.156	-1.349	-0.579	-125.000
0.499	0.321	0.844	0.203	0.032	-0.393	-0.675	-0.848	-1.409	-1.442	-1.348	-1.138	-0.277	-0.339	1.075	0.399	0.577	0.975	0.781	0.250	0.071	0.528	0.385	0.078	-0.053	-0.181	-1.161	-0.634	-121.094
0.542	0.287	0.750	0.197	0.061	-0.296	-0.609	-0.754	-1.325	-1.455	-1.320	-1.119	-0.131	-0.325	0.930	0.345	0.526	0.942	0.709	0.170	0.064	0.508	0.375	0.114	-0.069	-0.163	-0.867	-0.617	-117.188
0.525	0.207	0.634	0.157	0.084	-0.164	-0.474	-0.618	-1.138	-1.370	-1.162	-0.999	0.038	-0.295	0.666	0.254	0.425	0.828	0.590	0.072	0.047	0.444	0.332	0.149	-0.091	-0.111	-0.509	-0.540	-113.281
0.454	0.091	0.510	0.089	0.097	-0.015	-0.289	-0.459	-0.871	-1.202	-0.895	-0.794	0.216	-0.249	0.330	0.143	0.285	0.634	0.443	-0.031	0.024	0.349	0.261	0.179	-0.115	-0.038	-0.134	-0.420	-109.375
0.338	-0.052	0.385	0.002	0.099	0.131	-0.077	-0.295	-0.551	-0.972	-0.554	-0.529	0.389	-0.190	-0.029	0.026	0.122	0.374	0.288	-0.129	0.000	0.241	0.175	0.202	-0.132	0.047	0.217	-0.274	-105.469
0.189	-0.209	0.264	-0.096	0.086	0.255	0.136	-0.148	-0.209	-0.705	-0.178	-0.232	0.546	-0.121	-0.369	-0.086	-0.042	0.073	0.143	-0.214	-0.020	0.135	0.087	0.219	-0.129	0.134	0.513	-0.118	-101.562
0.016	-0.366	0.144	-0.196	0.058	0.341	0.325	-0.031	0.123	-0.425	0.196	0.068	0.675	-0.051	-0.658	-0.183	-0.186	-0.238	0.025	-0.283	-0.037	0.048	0.013	0.229	-0.097	0.218	0.733	0.038	-97.656
-0.169	-0.509	0.020	-0.290	0.015	0.378	0.469	0.047	0.420	-0.153	0.534	0.347	0.771	0.014	-0.874	-0.263	-0.292	-0.518	-0.059	-0.335	-0.051	-0.013	-0.035	0.236	-0.029	0.293	0.871	0.183	-93.750
-0.355	-0.622	-0.109	-0.375	-0.041	0.360	0.552	0.085	0.661	0.090	0.808	0.584	0.829	0.063	-1.005	-0.326	-0.353	-0.732	-0.109	-0.376	-0.067	-0.045	-0.050	0.239	0.075	0.360	0.929	0.314	-89.844
-0.523	-0.694	-0.244	-0.446	-0.109	0.289	0.567	0.088	0.834	0.292	1.004	0.765	0.849	0.090	-1.045	-0.376	-0.371	-0.850	-0.132	-0.408	-0.089	-0.054	-0.034	0.240	0.209	0.418	0.920	0.430	-85.938
-0.657	-0.716	-0.380	-0.501	-0.186	0.172	0.515	0.070	0.933	0.442	1.117	0.885	0.837	0.092	-0.997	-0.418	-0.365	-0.862	-0.143	-0.439	-0.123	-0.052	0.003	0.240	0.363	0.471	0.861	0.533	-82.031
-0.738	-0.685	-0.506	-0.539	-0.269	0.021	0.405	0.045	0.966	0.534	1.149	0.947	0.798	0.068	-0.871	-0.457	-0.355	-0.776	-0.162	-0.473	-0.171	-0.053	0.046	0.238	0.523	0.522	0.772	0.624	-78.125
-0.756	-0.605	-0.611	-0.556	-0.352	-0.143	0.249	0.030	0.944	0.568	1.113	0.960	0.738	0.023	-0.685	-0.493	-0.362	-0.619	-0.202	-0.514	-0.232	-0.069	0.078	0.234	0.676	0.573	0.674	0.707	-74.219
-0.710	-0.489	-0.685	-0.551	-0.432	-0.300	0.067	0.037	0.885	0.545	1.024	0.935	0.665	-0.039	-0.464	-0.526	-0.397	-0.431	-0.269	-0.563	-0.302	-0.107	0.088	0.227	0.806	0.622	0.588	0.781	-70.312
-0.608	-0.355	-0.724	-0.519	-0.502	-0.431	-0.120	0.074	0.806	0.474	0.901	0.887	0.584	-0.111	-0.237	-0.551	-0.459	-0.253	-0.360	-0.618	-0.375	-0.165	0.068	0.215	0.903	0.664	0.526	0.843	-66.406
-0.466	-0.226	-0.731	-0.462	-0.561	-0.522	-0.296	0.140	0.724	0.364	0.760	0.826	0.500	-0.184	-0.029	-0.563	-0.532	-0.118	-0.459	-0.676	-0.445	-0.234	0.021	0.197	0.960	0.691	0.494	0.886	-62.500
-0.302	-0.123	-0.713	-0.384	-0.608	-0.567	-0.444	0.227	0.651	0.228	0.616	0.762	0.414	-0.254	0.145	-0.557	-0.595	-0.043	-0.546	-0.731	-0.503	-0.301	-0.041	0.170	0.972	0.692	0.491	0.901	-58.594
-0.131	-0.058	-0.680	-0.289	-0.643	-0.567	-0.556	0.322	0.590	0.079	0.477	0.697	0.325	-0.315	0.276	-0.528	-0.627	-0.028	-0.602	-0.776	-0.545	-0.350	-0.107	0.133	0.939	0.657	0.508	0.876	-54.688
0.041	-0.033	-0.643	-0.186	-0.669	-0.530	-0.628	0.408	0.538	-0.068	0.349	0.631	0.232	-0.365	0.371	-0.476	-0.614	-0.056	-0.615	-0.805	-0.566	-0.371	-0.163	0.082	0.867	0.579	0.534	0.803	-50.781
0.212	-0.033	-0.605	-0.082	-0.685	-0.463	-0.662	0.468	0.488	-0.202	0.230	0.559	0.131	-0.402	0.442	-0.402	-0.554	-0.101	-0.580	-0.813	-0.567	-0.362	-0.203	0.015	0.759	0.455	0.554	0.677	-46.875
0.387	-0.037	-0.566	0.018	-0.694	-0.376	-0.662	0.488	0.429	-0.314	0.120	0.477	0.023	-0.426	0.505	-0.309	-0.454	-0.139	-0.505	-0.798	-0.549	-0.326	-0.224	-0.070	0.623	0.288	0.556	0.497	-42.969
0.568	-0.018	-0.522	0.107	-0.692	-0.277	-0.637	0.464	0.351	-0.394	0.014	0.379	-0.090	-0.437	0.572	-0.204	-0.326	-0.146	-0.404	-0.758	-0.517	-0.275	-0.230	-0.171	0.464	0.087	0.530	0.270	-39.062
0.753	0.043	-0.470	0.183	-0.678	-0.178	-0.596	0.398	0.252	-0.436	-0.090	0.264	-0.199	-0.436	0.651	-0.092	-0.185	-0.111	-0.293	-0.695	-0.476	-0.219	-0.224	-0.278	0.292	-0.132	0.475	0.008	-35.156
0.933	0.153	-0.407	0.244	-0.652	-0.092	-0.546	0.300	0.132	-0.437	-0.192	0.134	-0.291	-0.423	0.741	0.018	-0.040	-0.032	-0.190	-0.615	-0.429	-0.170	-0.213	-0.383	0.115	-0.350	0.394	-0.267	-31.250
1.092	0.303	-0.337	0.285	-0.616	-0.033	-0.495	0.186	0.001	-0.400	-0.286	-0.002	-0.354	-0.399	0.832	0.119	0.102	0.081	-0.106	-0.523	-0.381	-0.134	-0.198	-0.469	-0.054	-0.548	0.299	-0.529	-27.344
1.210	0.468	-0.266	0.304	-0.574	-0.015	-0.446	0.074	-0.130	-0.331	-0.365	-0.133	-0.375	-0.365	0.913	0.203	0.237	0.213	-0.051	-0.430	-0.333	-0.110	-0.181	-0.523	-0.202	-0.705	0.204	-0.749	-23.438
1.269	0.616	-0.203	0.301	-0.534	-0.047	-0.401	-0.018	-0.248	-0.237	-0.420	-0.245	-0.348	-0.320	0.971	0.262	0.359	0.345	-0.028	-0.346	-0.290	-0.096	-0.161	-0.533	-0.316	-0.806	0.125	-0.903	-19.531
1.256	0.714	-0.158	0.274	-0.505	-0.130	-0.357	-0.080	-0.337	-0.128	-0.439	-0.321	-0.274	-0.268	0.994	0.288	0.458	0.457	-0.039	-0.282	-0.255	-0.089	-0.137	-0.490	-0.386	-0.841	0.077	-0.968	-15.625
1.166	0.738	-0.137	0.224	-0.494	-0.256	-0.309	-0.103	-0.387	-0.007	-0.413	-0.348	-0.160	-0.214	0.974	0.274	0.521	0.537	-0.083	-0.252	-0.232	-0.086	-0.111	-0.395	-0.407	-0.804	0.073	-0.931	-11.719
1.003	0.676	-0.148	0.157	-0.508	-0.405	-0.251	-0.091	-0.390	0.123	-0.334	-0.316	-0.020	-0.165	0.902	0.218	0.535	0.574	-0.155	-0.264	-0.226	-0.085	-0.083	-0.255	-0.383	-0.695	0.119	-0.788	-7.812
0.781	0.531	-0.191	0.077	-0.549	-0.559	-0.181	-0.048	-0.343	0.266	-0.198	-0.218	0.130	-0.129	0.776	0.122	0.492	0.563	-0.249	-0.322	-0.245	-0.088	-0.059	-0.082	-0.323	-0.522	0.220	-0.544	-3.906
0.516	0.325	-0.265	-0.009	-0.616	-0.696	-0.099	0.016	-0.249	0.427	-0.009	-0.056	0.274	-0.111	0.594	-0.007	0.395	0.501	-0.356	-0.426	-0.292	-0.098	-0.039	0.106	-0.241	-0.296	0.371	-0.217	0.000
0.228	0.088	-0.364	-0.093	-0.704	-0.805	-0.010	0.092	-0.116	0.609	0.223	0.158	0.399	-0.119	0.367	-0.156	0.256	0.392	-0.464	-0.569	-0.371	-0.116	-0.029	0.291	-0.155	-0.032	0.562	0.167	3.906
-0.064	-0.145	-0.479	-0.167	-0.810	-0.880	0.078	0.170	0.046	0.810	0.483	0.409	0.495	-0.155	0.113	-0.311	0.098	0.244	-0.566	-0.739	-0.480	-0.145	-0.030	0.456	-0.080	0.250	0.773	0.577	7.812
-0.337	-0.343	-0.597	-0.224	-0.924	-0.925	0.154	0.247	0.222	1.024	0.749	0.673	0.556	-0.220	-0.140	-0.457	-0.059	0.072	-0.656	-0.921	-0.614	-0.184	-0.046	0.585	-0.025	0.528	0.978	0.974	11.719
-0.567	-0.484	-0.703	-0.261	-1.040	-0.948	0.208	0.320	0.395	1.234	0.995	0.922	0.583	-0.310	-0.359	-0.581	-0.195	-0.103	-0.736	-1.098	-0.764	-0.234	-0.077	0.668	0.003	0.779	1.149	1.322	15.625
-0.729	-0.555	-0.782	-0.274	-1.150	-0.960	0.234	0.389	0.548	1.423	1.198	1.132	0.577	-0.419	-0.518	-0.676	-0.293	-0.262	-0.807	-1.254	-0.916	-0.291	-0.123	0.697	0.002	0.980	1.256	1.586	19.531
-0.804	-0.551	-0.822	-0.262	-1.244	-0.968	0.231	0.454	0.666	1.572	1.331	1.277	0.542	-0.538	-0.599	-0.733	-0.342	-0.380	-0.871	-1.374	-1.056	-0.349	-0.182	0.669	-0.026	1.108	1.277	1.740	23.438
-0.777	-0.477	-0.818	-0.225	-1.313	-0.973	0.203	0.513	0.735	1.664	1.378	1.337	0.482	-0.657	-0.598	-0.747	-0.336	-0.441	-0.923	-1.447	-1.168	-0.402	-0.248	0.584	-0.084	1.145	1.201	1.766	27.344
-0.644	-0.337	-0.770	-0.163	-1.346	-0.972	0.159	0.563	0.748	1.690	1.326	1.301	0.401	-0.764	-0.519	-0.712	-0.269	-0.433	-0.955	-1.465	-1.238	-0.440	-0.313	0.449	-0.173	1.079	1.027	1.660	31.250
-0.414	-0.144	-0.691	-0.076	-1.337	-0.958	0.115	0.598	0.701	1.651	1.179	1.169	0.303	-0.847	-0.377	-0.627	-0.146	-0.355	-0.955	-1.425	-1.257	-0.457	-0.367	0.275	-0.295	0.909	0.768	1.434	35.156
-0.111	0.090	-0.600	0.031	-1.280	-0.925	0.088	0.614	0.605	1.559	0.956	0.952	0.194	-0.899	-0.189	-0.494	0.023	-0.218	-0.916	-1.333	-1.223	-0.451	-0.406	0.076	-0.447	0.652	0.448	1.113	39.062
0.223	0.342	-0.521	0.150	-1.180	-0.871	0.094	0.613	0.479	1.433	0.693	0.678	0.083	-0.916	0.023	-0.324	0.212	-0.046	-0.838	-1.202	-1.140	-0.423	-0.425	-0.125	-0.620	0.339	0.097	0.742	42.969
0.535	0.587	-0.476	0.266	-1.047	-0.800	0.149	0.601	0.355	1.306	0.446	0.391	-0.018	-0.900	0.233	-0.141	0.389	0.129	-0.735	-1.056	-1.025	-0.385	-0.428	-0.306	-0.794	0.021	-0.246	0.378	46.875
0.766	0.789	-0.485	0.358	-0.904	-0.725	0.259	0.590	0.278	1.216	0.285	0.144	-0.094	-0.858	0.409	0.023	0.512	0.268	-0.633	-0.925	-0.900	-0.351	-0.422	-0.444	-0.946	-0.240	-0.534	0.088	50.781
0.859	0.906	-0.562	0.399	-0.778	-0.662	0.429	0.600	0.298	1.203	0.285	0.001	-0.129	-0.807	0.507	0.127	0.540	0.333	-0.568	-0.846	-0.794	-0.342	-0.420	-0.519	-1.043	-0.375	-0.721	-0.056	54.688
0.771	0.897	-0.715	0.362	-0.698	-0.630	0.657	0.653	0.470	1.311	0.517	0.025	-0.108	-0.762	0.476	0.126	0.441	0.290	-0.576	-0.857	-0.740	-0.379	-0.434	-0.515	-1.060	-0.319	-0.756	0.014	58.594
0.476	0.726	-0.947	0.223	-0.691	-0.642	0.937	0.774	0.841	1.577	1.040	0.267	-0.023	-0.742	0.260	-0.018	0.195	0.110	-0.692	-0.989	-0.763	-0.482	-0.477	-0.424	-0.975	-0.024	-0.597	0.351	62.500
-0.030	0.373	-1.258	-0.032	-0.775	-0.708	1.265	0.983	1.451	2.030	1.887	0.765	0.127	-0.761	-0.189	-0.332	-0.202	-0.221	-0.936	-1.268	-0.886	-0.663	-0.559	-0.247	-0.782	0.536	-0.213	0.986	66.406
-0.733	-0.165	-1.647	-0.404	-0.958	-0.828	1.637	1.295	2.320	2.682	3.061	1.527	0.334	-0.830	-0.896	-0.823	-0.739	-0.707	-1.316	-1.701	-1.117	-0.929	-0.686	0.005	-0.490	1.352	0.406	1.918	70.312
-1.601	-0.867	-2.113	-0.881	-1.233	-0.997	2.047	1.716	3.442	3.527	4.525	2.531	0.582	-0.949	-1.850	-1.475	-1.389	-1.334	-1.820	-2.282	-1.454	-1.274	-0.857	0.312	-0.125	2.383	1.243	3.109	74.219
-2.591	-1.692	-2.651	-1.438	-1.588	-1.205	2.489	2.239	4.786	4.530	6.212	3.724	0.848	-1.114	-2.990	-2.254	-2.121	-2.072	-2.423	-2.983	-1.881	-1.683	-1.070	0.650	0.278	3.557	2.251	4.486	78.125
-3.645	-2.588	-3.250	-2.045	-2.004	-1.445	2.952	2.848	6.291	5.639	8.024	5.029	1.110	-1.312	-4.219	-3.107	-2.899	-2.875	-3.087	-3.766	-2.372	-2.134	-1.317	0.989	0.676	4.782	3.358	5.950	82.031
-4.701	-3.494	-3.895	-2.670	-2.456	-1.708	3.422	3.514	7.874	6.780	9.845	6.356	1.349	-1.526	-5.413	-3.979	-3.690	-3.685	-3.769	-4.581	-2.894	-2.596	-1.585	1.306	1.030	5.958	4.478	7.389	85.938
-5.690	-4.356	-4.561	-3.281	-2.919	-1.990	3.881	4.199	9.439	7.874	11.561	7.613	1.553	-1.737	-6.457	-4.813	-4.466	-4.443	-4.426	-5.373	-3.408	-3.038	-1.858	1.580	1.316	6.994	5.526	8.694	89.844
-6.547	-5.127	-5.219	-3.850	-3.366	-2.286	4.309	4.857	10.885	8.846	13.063	8.720	1.721	-1.925	-7.260	-5.562	-5.201	-5.096	-5.020	-6.094	-3.876	-3.427	-2.117	1.802	1.521	7.820	6.425	9.780	93.750
-7.214	-5.772	-5.829	-4.353	-3.769	-2.588	4.684	5.443	12.119	9.630	14.267	9.619	1.859	-2.072	-7.780	-6.192	-5.872	-5.600	-5.519	-6.699	-4.266	-3.735	-2.341	1.971	1.651	8.396	7.125	10.589	97.656
-7.654	-6.265	-6.350	-4.766	-4.102	-2.884	4.985	5.911	13.064	10.185	15.116	10.274	1.975	-2.165	-8.022	-6.679	-6.452	-5.930	-5.902	-7.156	-4.550	-3.942	-2.510	2.090	1.722	8.708	7.600	11.099	101.562
-7.849	-6.592	-6.739	-5.067	-4.340	-3.152	5.195	6.223	13.665	10.489	15.580	10.671	2.079	-2.197	-8.031	-7.008	-6.913	-6.076	-6.156	-7.445	-4.712	-4.040	-2.610	2.165	1.753	8.771	7.852	11.317	105.469
-7.812	-6.747	-6.957	-5.238	-4.466	-3.366	5.296	6.355	13.895	10.543	15.659	10.816	2.174	-2.168	-7.872	-7.175	-7.221	-6.043	-6.278	-7.559	-4.747	-4.029	-2.634	2.200	1.759	8.615	7.903	11.276	109.375
-7.581	-6.728	-6.980	-5.269	-4.470	-3.500	5.278	6.299	13.758	10.367	15.378	10.732	2.256	-2.086	-7.614	-7.177	-7.350	-5.853	-6.271	-7.501	-4.661	-3.923	-2.584	2.195	1.748	8.279	7.790	11.021	113.281
-7.217	-6.542	-6.801	-5.154	-4.357	-3.532	5.137	6.065	13.285	9.994	14.785	10.451	2.317	-1.965	-7.315	-7.021	-7.281	-5.534	-6.145	-7.287	-4.470	-3.742	-2.469	2.146	1.720	7.810	7.557	10.602	117.188
-6.790	-6.206	-6.439	-4.903	-4.144	-3.451	4.879	5.684	12.535	9.468	13.946	10.013	2.344	-1.823	-7.010	-6.724	-7.014	-5.125	-5.915	-6.945	-4.201	-3.512	-2.307	2.050	1.666	7.252	7.246	10.073	121.094
-6.364	-5.749	-5.938	-4.537	-3.859	-3.264	4.520	5.201	11.592	8.839	12.948	9.470	2.324	-1.678	-6.714	-6.313	-6.573	-4.670	-5.602	-6.510	-3.882	-3.261	-2.121	1.901	1.578	6.653	6.896	9.484	125.000
-5.992	-5.212	-5.359	-4.092	-3.541	-2.993	4.084	4.675	10.557	8.160	11.889	8.877	2.248	-1.549	-6.426	-5.830	-6.008	-4.213	-5.235	-6.026	-3.548	-3.015	-1.935	1.700	1.450	6.059	6.540	8.887	128.906
-5.702	-4.646	-4.774	-3.611	-3.231	-2.674	3.606	4.168	9.537	7.481	10.873	8.294	2.113	-1.454	-6.141	-5.324	-5.390	-3.798	-4.848	-5.539	-3.231	-2.800	-1.776	1.452	1.279	5.513	6.201	8.328	132.812
-5.500	-4.108	-4.246	-3.142	-2.969	-2.349	3.121	3.738	8.637	6.852	9.998	7.779	1.926	-1.401	-5.856	-4.850	-4.801	-3.462	-4.478	-5.094	-2.959	-2.638	-1.669	1.167	1.071	5.056	5.900	7.850	136.719
-5.375	-3.650	-3.825	-2.732	-2.785	-2.059	2.668	3.430	7.940	6.312	9.347	7.383	1.698	-1.396	-5.576	-4.458	-4.317	-3.234	-4.163	-4.730	-2.756	-2.546	-1.633	0.862	0.839	4.721	5.649	7.491	140.625
-5.305	-3.317	-3.541	-2.416	-2.695	-1.836	2.280	3.268	7.504	5.892	8.976	7.144	1.452	-1.437	-5.321	-4.186	-3.993	-3.132	-3.933	-4.476	-2.634	-2.534	-1.675	0.553	0.602	4.531	5.457	7.278	144.531
-5.266	-3.132	-3.397	-2.217	-2.703	-1.695	1.984	3.258	7.349	5.608	8.908	7.079	1.210	-1.518	-5.120	-4.056	-3.860	-3.162	-3.808	-4.345	-2.597	-2.603	-1.797	0.260	0.381	4.498	5.329	7.225	148.438
-5.245	-3.099	-3.378	-2.139	-2.796	-1.635	1.797	3.385	7.463	5.467	9.128	7.187	0.998	-1.628	-5.007	-4.067	-3.911	-3.316	-3.790	-4.335	-2.639	-2.745	-1.984	-0.000	0.202	4.616	5.265	7.333	152.344
-5.237	-3.202	-3.456	-2.167	-2.950	-1.643	1.723	3.618	7.800	5.463	9.590	7.443	0.835	-1.757	-5.015	-4.202	-4.116	-3.572	-3.872	-4.430	-2.746	-2.944	-2.214	-0.212	0.082	4.868	5.264	7.588	156.250
-5.251	-3.405	-3.599	-2.276	-3.133	-1.696	1.755	3.916	8.293	5.581	10.225	7.812	0.733	-1.892	-5.161	-4.428	-4.425	-3.897	-4.032	-4.604	-2.897	-3.178	-2.457	-0.366	0.036	5.227	5.325	7.965	160.156
-5.304	-3.667	-3.773	-2.433	-3.318	-1.769	1.876	4.238	8.867	5.798	10.953	8.246	0.693	-2.024	-5.443	-4.710	-4.784	-4.249	-4.242	-4.825	-3.073	-3.422	-2.684	-0.453	0.068	5.660	5.449	8.431	164.062
-5.411	-3.947	-3.957	-2.605	-3.479	-1.841	2.061	4.546	9.449	6.090	11.694	8.699	0.707	-2.145	-5.831	-5.013	-5.147	-4.590	-4.477	-5.066	-3.256	-3.652	-2.871	-0.471	0.172	6.135	5.636	8.952	167.969
-5.584	-4.215	-4.135	-2.768	-3.603	-1.902	2.283	4.812	9.979	6.429	12.385	9.132	0.765	-2.248	-6.276	-5.311	-5.482	-4.891	-4.714	-5.303	-3.433	-3.853	-3.003	-0.422	0.337	6.625	5.890	9.497	171.875
-5.819	-4.450	-4.302	-2.906	-3.686	-1.947	2.514	5.022	10.420	6.792	12.982	9.518	0.848	-2.331	-6.718	-5.590	-5.776	-5.140	-4.938	-5.523	-3.597	-4.013	-3.076	-0.309	0.547	7.108	6.211	10.039	175.781
-6.102	-4.648	-4.460	-3.017	-3.732	-1.979	2.734	5.172	10.754	7.154	13.465	9.842	0.945	-2.391	-7.107	-5.845	-6.032	-5.339	-5.141	-5.723	-3.747	-4.130	-3.098	-0.139	0.783	7.572	6.596	10.558	179.688
-6.413	-4.808	-4.611	-3.104	-3.754	-2.005	2.927	5.272	10.990	7.501	13.835	10.104	1.044	-2.429	-7.411	-6.078	-6.258	-5.501	-5.319	-5.906	-3.884	-4.208	-3.080	0.079	1.031	8.012	7.030	11.041	183.594
-6.731	-4.939	-4.759	-3.176	-3.764	-2.032	3.088	5.338	11.148	7.818	14.108	10.310	1.140	-2.446	-7.632	-6.296	-6.460	-5.648	-5.471	-6.078	-4.010	-4.252	-3.035	0.335	1.279	8.425	7.491	11.479	187.500
-7.040	-5.046	-4.904	-3.244	-3.774	-2.064	3.220	5.391	11.257	8.102	14.309	10.471	1.233	-2.445	-7.798	-6.501	-6.640	-5.798	-5.594	-6.247	-4.126	-4.270	-2.975	0.617	1.518	8.809	7.947	11.865	191.406
-7.330	-5.135	-5.047	-3.313	-3.792	-2.103	3.331	5.448	11.347	8.349	14.463	10.600	1.325	-2.427	-7.956	-6.696	-6.791	-5.969	-5.683	-6.415	-4.231	-4.267	-2.905	0.913	1.742	9.161	8.365	12.191	195.312
-7.598	-5.209	-5.184	-3.384	-3.816	-2.144	3.433	5.524	11.443	8.564	14.588	10.703	1.421	-2.395	-8.153	-6.878	-6.903	-6.171	-5.738	-6.581	-4.321	-4.249	-2.831	1.208	1.946	9.475	8.711	12.450	199.219
-7.838	-5.271	-5.309	-3.453	-3.842	-2.179	3.537	5.629	11.556	8.751	14.693	10.780	1.523	-2.352	-8.420	-7.042	-6.973	-6.402	-5.760	-6.740	-4.391	-4.220	-2.757	1.486	2.126	9.743	8.960	12.635	203.125
-8.044	-5.323	-5.413	-3.512	-3.857	-2.199	3.651	5.762	11.691	8.916	14.774	10.826	1.633	-2.299	-8.757	-7.185	-7.001	-6.654	-5.757	-6.885	-4.435	-4.187	-2.688	1.734	2.277	9.954	9.098	12.737	207.031
-8.201	-5.366	-5.487	-3.554	-3.851	-2.196	3.782	5.918	11.836	9.062	14.818	10.829	1.753	-2.236	-9.131	-7.302	-6.998	-6.908	-5.741	-7.008	-4.449	-4.156	-2.632	1.936	2.395	10.098	9.124	12.750	210.938
-8.295	-5.403	-5.523	-3.569	-3.813	-2.166	3.930	6.082	11.975	9.193	14.807	10.777	1.880	-2.162	-9.482	-7.390	-6.981	-7.139	-5.728	-7.101	-4.431	-4.134	-2.596	2.083	2.476	10.170	9.047	12.673	214.844
-8.311	-5.432	-5.513	-3.551	-3.736	-2.108	4.092	6.238	12.087	9.308	14.723	10.661	2.014	-2.076	-9.743	-7.447	-6.969	-7.325	-5.730	-7.158	-4.377	-4.127	-2.586	2.172	2.517	10.168	8.893	12.512	218.750
-8.246	-5.454	-5.451	-3.497	-3.620	-2.028	4.261	6.367	12.154	9.406	14.557	10.477	2.153	-1.974	-9.858	-7.472	-6.976	-7.447	-5.756	-7.174	-4.288	-4.136	-2.605	2.205	2.518	10.096	8.693	12.280	222.656
-8.111	-5.463	-5.338	-3.407	-3.470	-1.933	4.430	6.454	12.164	9.484	14.309	10.229	2.294	-1.852	-9.799	-7.464	-7.010	-7.498	-5.806	-7.147	-4.166	-4.159	-2.649	2.190	2.481	9.966	8.486	11.996	226.562
-7.934	-5.454	-5.180	-3.287	-3.294	-1.832	4.593	6.490	12.114	9.542	13.993	9.929	2.435	-1.707	-9.575	-7.422	-7.068	-7.482	-5.870	-7.078	-4.013	-4.188	-2.707	2.144	2.415	9.794	8.310	11.685	230.469
-7.750	-5.426	-4.993	-3.147	-3.105	-1.732	4.743	6.470	12.010	9.579	13.629	9.596	2.573	-1.538	-9.226	-7.350	-7.136	-7.414	-5.934	-6.971	-3.835	-4.210	-2.764	2.083	2.329	9.600	8.194	11.371	234.375
-7.595	-5.376	-4.799	-3.000	-2.917	-1.638	4.875	6.401	11.864	9.599	13.245	9.248	2.704	-1.345	-8.815	-7.250	-7.194	-7.316	-5.979	-6.834	-3.638	-4.212	-2.804	2.025	2.234	9.402	8.154	11.075	238.281
-7.491	-5.308	-4.622	-2.859	-2.741	-1.555	4.987	6.290	11.693	9.608	12.870	8.907	2.826	-1.134	-8.411	-7.126	-7.217	-7.217	-5.986	-6.674	-3.430	-4.183	-2.814	1.985	2.140	9.216	8.191	10.811	242.188
-7.437	-5.228	-4.490	-2.737	-2.588	-1.489	5.076	6.154	11.514	9.609	12.527	8.590	2.936	-0.914	-8.072	-6.988	-7.188	-7.140	-5.947	-6.503	-3.219	-4.118	-2.788	1.971	2.054	9.050	8.288	10.588	246.094
-7.413	-5.147	-4.419	-2.643	-2.464	-1.445	5.142	6.006	11.342	9.611	12.235	8.309	3.035	-0.694	-7.837	-6.843	-7.097	-7.102	-5.860	-6.332	-3.015	-4.018	-2.726	1.984	1.976	8.910	8.417	10.405	250.000
-7.385	-5.076	-4.420	-2.582	-2.374	-1.430	5.185	5.863	11.188	9.615	12.003	8.074	3.125	-0.487	-7.715	-6.703	-6.949	-7.108	-5.735	-6.172	-2.825	-3.892	-2.639	2.021	1.904	8.793	8.546	10.258	253.906
-7.319	-5.027	-4.490	-2.554	-2.320	-1.451	5.207	5.737	11.060	9.627	11.834	7.888	3.210	-0.300	-7.694	-6.580	-6.764	-7.152	-5.588	-6.032	-2.656	-3.749	-2.539	2.077	1.834	8.692	8.644	10.138	257.812
-7.196	-5.012	-4.615	-2.555	-2.299	-1.512	5.213	5.637	10.960	9.646	11.726	7.754	3.297	-0.140	-7.743	-6.482	-6.568	-7.214	-5.437	-5.918	-2.512	-3.599	-2.437	2.144	1.763	8.599	8.691	10.037	261.719
-7.019	-5.035	-4.777	-2.582	-2.308	-1.616	5.206	5.570	10.886	9.672	11.670	7.668	3.392	-0.007	-7.821	-6.418	-6.388	-7.267	-5.298	-5.834	-2.395	-3.452	-2.341	2.219	1.688	8.504	8.681	9.944	265.625
-6.815	-5.098	-4.954	-2.628	-2.342	-1.756	5.192	5.534	10.832	9.702	11.655	7.624	3.501	0.102	-7.893	-6.391	-6.247	-7.280	-5.180	-5.780	-2.301	-3.310	-2.251	2.298	1.613	8.401	8.620	9.853	269.531
-6.621	-5.193	-5.124	-2.686	-2.391	-1.921	5.176	5.525	10.792	9.732	11.669	7.614	3.627	0.191	-7.935	-6.396	-6.153	-7.234	-5.084	-5.750	-2.225	-3.176	-2.165	2.382	1.544	8.286	8.523	9.758	273.438
-6.481	-5.302	-5.267	-2.750	-2.443	-2.096	5.164	5.537	10.757	9.758	11.697	7.624	3.766	0.269	-7.938	-6.426	-6.101	-7.123	-5.001	-5.737	-2.160	-3.048	-2.076	2.468	1.490	8.159	8.409	9.655	277.344
-6.423	-5.405	-5.368	-2.809	-2.486	-2.260	5.159	5.559	10.718	9.778	11.725	7.640	3.913	0.341	-7.904	-6.466	-6.073	-6.959	-4.918	-5.728	-2.095	-2.925	-1.978	2.552	1.458	8.020	8.291	9.539	281.250
-6.457	-5.475	-5.418	-2.851	-2.506	-2.391	5.165	5.585	10.672	9.789	11.741	7.649	4.056	0.411	-7.849	-6.499	-6.048	-6.770	-4.817	-5.712	-2.023	-2.806	-1.869	2.628	1.450	7.871	8.179	9.409	285.156
-6.576	-5.489	-5.412	-2.862	-2.493	-2.473	5.186	5.607	10.618	9.792	11.735	7.638	4.185	0.483	-7.787	-6.508	-6.003	-6.588	-4.687	-5.675	-1.936	-2.693	-1.752	2.688	1.466	7.714	8.070	9.264	289.062
-6.755	-5.430	-5.357	-2.832	-2.443	-2.497	5.225	5.621	10.557	9.789	11.702	7.600	4.287	0.558	-7.731	-6.480	-5.924	-6.443	-4.520	-5.609	-1.830	-2.587	-1.632	2.720	1.499	7.551	7.960	9.103	292.969
-6.965	-5.292	-5.263	-2.750	-2.357	-2.462	5.285	5.626	10.496	9.782	11.643	7.531	4.354	0.635	-7.689	-6.406	-5.804	-6.353	-4.321	-5.509	-1.704	-2.494	-1.518	2.720	1.535	7.384	7.839	8.929	296.875
-7.175	-5.083	-5.149	-2.614	-2.243	-2.374	5.368	5.620	10.441	9.775	11.561	7.435	4.383	0.712	-7.660	-6.287	-5.652	-6.323	-4.097	-5.374	-1.561	-2.413	-1.414	2.687	1.564	7.214	7.701	8.744	300.781
-7.360	-4.821	-5.034	-2.427	-2.112	-2.244	5.475	5.601	10.397	9.769	11.461	7.316	4.377	0.789	-7.641	-6.129	-5.481	-6.339	-3.864	-5.208	-1.405	-2.342	-1.324	2.625	1.575	7.045	7.544	8.551	304.688
-7.503	-4.536	-4.935	-2.200	-1.977	-2.085	5.603	5.569	10.365	9.768	11.348	7.180	4.345	0.864	-7.631	-5.945	-5.305	-6.382	-3.635	-5.021	-1.243	-2.275	-1.246	2.547	1.559	6.879	7.372	8.356	308.594
-7.597	-4.263	-4.869	-1.952	-1.850	-1.912	5.747	5.522	10.345	9.769	11.229	7.034	4.299	0.935	-7.628	-5.747	-5.137	-6.429	-3.422	-4.824	-1.083	-2.205	-1.174	2.467	1.515	6.719	7.194	8.161	312.500
-7.645	-4.031	-4.841	-1.704	-1.740	-1.738	5.899	5.462	10.333	9.774	11.111	6.884	4.252	1.001	-7.637	-5.551	-4.983	-6.462	-3.230	-4.628	-0.930	-2.124	-1.103	2.402	1.448	6.567	7.020	7.972	316.406
-7.659	-3.859	-4.852	-1.480	-1.652	-1.577	6.046	5.394	10.324	9.781	11.000	6.738	4.215	1.065	-7.666	-5.365	-4.840	-6.472	-3.059	-4.443	-0.791	-2.028	-1.025	2.363	1.367	6.425	6.860	7.792	320.312
-7.658	-3.755	-4.895	-1.294	-1.583	-1.437	6.178	5.325	10.316	9.791	10.904	6.603	4.199	1.126	-7.725	-5.194	-4.704	-6.464	-2.904	-4.272	-0.668	-1.919	-0.938	2.359	1.287	6.293	6.718	7.627	324.219
-7.662	-3.709	-4.959	-1.157	-1.528	-1.325	6.280	5.265	10.307	9.801	10.829	6.488	4.206	1.187	-7.820	-5.037	-4.569	-6.456	-2.758	-4.118	-0.561	-1.800	-0.841	2.391	1.221	6.173	6.591	7.478	328.125
-7.689	-3.701	-5.028	-1.069	-1.477	-1.242	6.344	5.220	10.296	9.809	10.781	6.400	4.235	1.252	-7.945	-4.891	-4.434	-6.464	-2.617	-3.977	-0.469	-1.679	-0.739	2.453	1.181	6.063	6.468	7.348	332.031
-7.743	-3.710	-5.086	-1.021	-1.420	-1.185	6.362	5.196	10.281	9.808	10.760	6.345	4.282	1.321	-8.089	-4.752	-4.304	-6.503	-2.475	-3.846	-0.386	-1.564	-0.639	2.535	1.171	5.960	6.339	7.237	335.938
-7.816	-3.714	-5.120	-1.003	-1.347	-1.152	6.331	5.191	10.257	9.789	10.760	6.326	4.338	1.397	-8.230	-4.618	-4.187	-6.572	-2.332	-3.720	-0.307	-1.459	-0.547	2.626	1.193	5.861	6.197	7.147	339.844
-7.893	-3.701	-5.117	-1.003	-1.254	-1.137	6.251	5.196	10.216	9.743	10.773	6.341	4.396	1.481	-8.346	-4.489	-4.096	-6.657	-2.192	-3.598	-0.230	-1.368	-0.467	2.714	1.240	5.766	6.040	7.075	343.750
-7.957	-3.668	-5.075	-1.012	-1.140	-1.137	6.131	5.201	10.149	9.662	10.782	6.380	4.451	1.571	-8.416	-4.368	-4.040	-6.732	-2.057	-3.481	-0.148	-1.287	-0.398	2.792	1.307	5.673	5.881	7.022	347.656
-7.999	-3.617	-4.995	-1.021	-1.010	-1.147	5.983	5.193	10.046	9.543	10.771	6.433	4.500	1.666	-8.435	-4.260	-4.020	-6.771	-1.932	-3.372	-0.059	-1.213	-0.336	2.856	1.386	5.586	5.738	6.985	351.562
-8.021	-3.554	-4.885	-1.027	-0.871	-1.162	5.824	5.159	9.899	9.391	10.724	6.487	4.544	1.767	-8.409	-4.169	-4.030	-6.752	-1.817	-3.273	0.039	-1.138	-0.271	2.909	1.472	5.510	5.632	6.966	355.469
-8.035	-3.485	-4.759	-1.029	-0.732	-1.175	5.674	5.094	9.708	9.215	10.631	6.527	4.589	1.870	-8.359	-4.098	-4.055	-6.669	-1.709	-3.187	0.149	-1.054	-0.194	2.959	1.559	5.454	5.586	6.964	359.375
-8.054	-3.415	-4.635	-1.025	-0.602	-1.177	5.554	4.996	9.478	9.032	10.488	6.540	4.642	1.977	-8.311	-4.046	-4.077	-6.533	-1.605	-3.113	0.272	-0.956	-0.099	3.015	1.641	5.425	5.610	6.976	363.281
-8.088	-3.347	-4.528	-1.014	-0.487	-1.159	5.484	4.873	9.222	8.864	10.297	6.516	4.709	2.085	-8.289	-4.012	-4.081	-6.369	-1.503	-3.052	0.405	-0.842	0.016	3.084	1.715	5.424	5.707	7.000	367.188
-8.136	-3.283	-4.451	-0.996	-0.388	-1.110	5.474	4.738	8.961	8.728	10.069	6.447	4.792	2.192	-8.303	-3.991	-4.061	-6.213	-1.407	-3.000	0.545	-0.719	0.143	3.170	1.773	5.449	5.861	7.027	371.094
-8.184	-3.226	-4.408	-0.972	-0.304	-1.025	5.527	4.609	8.715	8.637	9.815	6.325	4.891	2.295	-8.343	-3.979	-4.021	-6.097	-1.324	-2.955	0.686	-0.596	0.267	3.269	1.812	5.485	6.041	7.044	375.000
-8.206	-3.177	-4.393	-0.945	-0.232	-0.901	5.633	4.502	8.505	8.594	9.549	6.149	4.997	2.386	-8.379	-3.972	-3.977	-6.043	-1.266	-2.917	0.818	-0.486	0.368	3.368	1.825	5.513	6.205	7.033	378.906
-8.174	-3.141	-4.391	-0.916	-0.169	-0.744	5.770	4.432	8.345	8.591	9.283	5.921	5.095	2.456	-8.370	-3.964	-3.946	-6.050	-1.243	-2.887	0.930	-0.405	0.428	3.447	1.809	5.507	6.305	6.972	382.812
-8.062	-3.122	-4.379	-0.891	-0.111	-0.564	5.911	4.407	8.240	8.608	9.023	5.650	5.169	2.493	-8.275	-3.953	-3.949	-6.096	-1.264	-2.867	1.013	-0.363	0.430	3.486	1.757	5.442	6.297	6.841	386.719
-7.855	-3.118	-4.328	-0.871	-0.060	-0.378	6.023	4.427	8.183	8.622	8.773	5.346	5.204	2.489	-8.069	-3.935	-3.995	-6.139	-1.329	-2.861	1.059	-0.369	0.369	3.463	1.666	5.299	6.153	6.626	390.625
-7.551	-3.125	-4.216	-0.857	-0.015	-0.201	6.083	4.483	8.158	8.604	8.532	5.024	5.189	2.440	-7.747	-3.906	-4.086	-6.131	-1.434	-2.869	1.064	-0.422	0.249	3.366	1.537	5.070	5.861	6.320	394.531
-7.170	-3.131	-4.028	-0.845	0.027	-0.047	6.076	4.560	8.142	8.534	8.293	4.699	5.122	2.350	-7.328	-3.864	-4.211	-6.034	-1.566	-2.891	1.035	-0.517	0.083	3.193	1.375	4.759	5.438	5.930	398.438
-6.743	-3.124	-3.765	-0.830	0.066	0.077	6.000	4.636	8.108	8.397	8.048	4.383	5.008	2.229	-6.852	-3.804	-4.347	-5.827	-1.710	-2.921	0.980	-0.642	-0.107	2.959	1.190	4.386	4.921	5.475	402.344
-6.307	-3.093	-3.440	-0.805	0.109	0.167	5.870	4.690	8.033	8.193	7.791	4.086	4.862	2.095	-6.369	-3.725	-4.473	-5.514	-1.852	-2.950	0.915	-0.782	-0.298	2.688	0.998	3.981	4.362	4.985	406.250
-5.901	-3.032	-3.080	-0.769	0.159	0.226	5.705	4.706	7.898	7.931	7.515	3.812	4.704	1.969	-5.926	-3.629	-4.567	-5.125	-1.978	-2.969	0.855	-0.921	-0.469	2.412	0.816	3.578	3.820	4.493	410.156
-5.549	-2.948	-2.717	-0.721	0.220	0.261	5.533	4.674	7.699	7.633	7.215	3.561	4.551	1.868	-5.559	-3.517	-4.616	-4.700	-2.079	-2.971	0.815	-1.044	-0.602	2.161	0.660	3.208	3.346	4.026	414.062
-5.258	-2.855	-2.379	-0.666	0.296	0.283	5.376	4.592	7.437	7.323	6.889	3.325	4.417	1.806	-5.284	-3.398	-4.617	-4.288	-2.146	-2.949	0.804	-1.138	-0.689	1.961	0.543	2.890	2.976	3.607	417.969
-5.018	-2.770	-2.090	-0.610	0.387	0.304	5.252	4.466	7.126	7.028	6.539	3.095	4.309	1.790	-5.097	-3.277	-4.576	-3.930	-2.177	-2.900	0.825	-1.196	-0.728	1.824	0.468	2.631	2.723	3.242	421.875
-4.805	-2.711	-1.857	-0.558	0.493	0.338	5.167	4.310	6.783	6.767	6.168	2.862	4.228	1.818	-4.977	-3.162	-4.505	-3.652	-2.170	-2.824	0.880	-1.213	-0.726	1.748	0.430	2.422	2.576	2.929	425.781
-4.593	-2.684	-1.679	-0.514	0.610	0.395	5.123	4.140	6.425	6.550	5.784	2.621	4.166	1.882	-4.888	-3.058	-4.420	-3.460	-2.127	-2.722	0.962	-1.190	-0.694	1.718	0.414	2.240	2.507	2.655	429.688
-4.360	-2.683	-1.543	-0.479	0.733	0.479	5.109	3.971	6.072	6.380	5.398	2.372	4.115	1.969	-4.793	-2.963	-4.330	-3.343	-2.052	-2.598	1.063	-1.132	-0.646	1.710	0.403	2.058	2.480	2.403	433.594
-4.098	-2.696	-1.433	-0.451	0.852	0.589	5.115	3.817	5.738	6.249	5.025	2.122	4.067	2.065	-4.660	-2.877	-4.243	-3.276	-1.951	-2.457	1.174	-1.048	-0.596	1.699	0.374	1.853	2.461	2.162	437.500
-3.817	-2.699	-1.333	-0.430	0.956	0.714	5.128	3.686	5.434	6.147	4.680	1.883	4.014	2.158	-4.472	-2.793	-4.158	-3.231	-1.834	-2.305	1.284	-0.947	-0.552	1.665	0.313	1.611	2.424	1.926	441.406
-3.535	-2.674	-1.230	-0.415	1.035	0.836	5.136	3.580	5.165	6.057	4.378	1.670	3.952	2.236	-4.229	-2.707	-4.068	-3.183	-1.705	-2.150	1.385	-0.841	-0.521	1.598	0.212	1.335	2.359	1.699	445.312
-3.281	-2.605	-1.120	-0.409	1.078	0.935	5.127	3.497	4.931	5.964	4.130	1.497	3.877	2.292	-3.950	-2.613	-3.959	-3.117	-1.574	-1.997	1.471	-0.737	-0.502	1.496	0.071	1.041	2.268	1.496	449.219
-3.078	-2.489	-1.001	-0.416	1.082	0.989	5.090	3.427	4.727	5.852	3.940	1.374	3.788	2.323	-3.671	-2.510	-3.821	-3.024	-1.447	-1.852	1.537	-0.642	-0.495	1.370	-0.100	0.756	2.159	1.334	453.125
-2.940	-2.332	-0.878	-0.438	1.047	0.985	5.018	3.360	4.545	5.711	3.808	1.309	3.684	2.326	-3.430	-2.399	-3.647	-2.909	-1.331	-1.720	1.581	-0.563	-0.494	1.233	-0.285	0.512	2.048	1.234	457.031
-2.868	-2.153	-0.754	-0.475	0.981	0.919	4.903	3.284	4.375	5.535	3.729	1.302	3.567	2.305	-3.264	-2.287	-3.439	-2.783	-1.232	-1.605	1.604	-0.502	-0.497	1.099	-0.463	0.337	1.952	1.212	460.938
-2.846	-1.972	-0.635	-0.525	0.897	0.798	4.746	3.189	4.209	5.328	3.693	1.351	3.439	2.262	-3.198	-2.181	-3.209	-2.665	-1.157	-1.512	1.609	-0.463	-0.502	0.980	-0.613	0.246	1.882	1.275	464.844
-2.854	-1.813	-0.520	-0.580	0.812	0.646	4.550	3.070	4.040	5.103	3.690	1.445	3.306	2.203	-3.239	-2.091	-2.980	-2.581	-1.111	-1.440	1.599	-0.445	-0.511	0.885	-0.718	0.245	1.851	1.419	468.750
-2.869	-1.692	-0.408	-0.629	0.742	0.490	4.329	2.925	3.869	4.880	3.709	1.573	3.177	2.137	-3.375	-2.023	-2.780	-2.553	-1.098	-1.391	1.578	-0.447	-0.525	0.815	-0.766	0.322	1.864	1.628	472.656
-2.874	-1.616	-0.295	-0.658	0.701	0.362	4.097	2.759	3.701	4.681	3.740	1.717	3.059	2.073	-3.579	-1.983	-2.636	-2.598	-1.116	-1.360	1.554	-0.465	-0.545	0.774	-0.751	0.456	1.924	1.875	476.562
-2.863	-1.582	-0.179	-0.658	0.696	0.286	3.874	2.581	3.545	4.528	3.775	1.859	2.963	2.020	-3.812	-1.970	-2.570	-2.719	-1.159	-1.346	1.530	-0.495	-0.570	0.758	-0.673	0.621	2.029	2.131	480.469
-2.842	-1.576	-0.056	-0.621	0.726	0.273	3.676	2.403	3.413	4.431	3.806	1.979	2.894	1.985	-4.030	-1.981	-2.590	-2.907	-1.219	-1.343	1.513	-0.527	-0.597	0.766	-0.540	0.792	2.168	2.362	484.375
-2.825	-1.580	0.070	-0.546	0.786	0.322	3.511	2.236	3.314	4.389	3.827	2.061	2.854	1.971	-4.194	-2.007	-2.685	-3.140	-1.282	-1.347	1.505	-0.556	-0.619	0.794	-0.363	0.946	2.328	2.543	488.281
-2.830	-1.573	0.196	-0.438	0.864	0.413	3.381	2.090	3.250	4.389	3.828	2.093	2.842	1.978	-4.278	-2.035	-2.829	-3.389	-1.329	-1.350	1.508	-0.572	-0.630	0.836	-0.154	1.071	2.484	2.655	492.188
-2.864	-1.539	0.319	-0.307	0.947	0.522	3.279	1.970	3.220	4.404	3.801	2.068	2.847	2.003	-4.269	-2.052	-2.977	-3.625	-1.343	-1.347	1.522	-0.569	-0.621	0.886	0.070	1.160	2.608	2.691	496.094
-2.923	-1.468	0.434	-0.165	1.022	0.621	3.189	1.875	3.209	4.400	3.737	1.986	2.854	2.039	-4.175	-2.040	-3.081	-3.823	-1.308	-1.329	1.544	-0.543	-0.589	0.934	0.293	1.215	2.670	2.654	500.000
-2.987	-1.359	0.545	-0.024	1.081	0.685	3.091	1.799	3.201	4.342	3.627	1.856	2.846	2.078	-4.019	-1.988	-3.095	-3.965	-1.213	-1.291	1.569	-0.493	-0.535	0.970	0.502	1.239	2.645	2.555	503.906
-3.026	-1.216	0.655	0.107	1.116	0.701	2.966	1.731	3.174	4.202	3.464	1.687	2.802	2.108	-3.833	-1.888	-2.989	-4.039	-1.056	-1.231	1.589	-0.425	-0.461	0.980	0.685	1.239	2.515	2.409	507.812
-3.008	-1.045	0.770	0.223	1.127	0.667	2.799	1.663	3.112	3.963	3.246	1.497	2.705	2.118	-3.652	-1.741	-2.754	-4.036	-0.845	-1.152	1.598	-0.349	-0.378	0.952	0.832	1.217	2.280	2.232	511.719
-2.912	-0.852	0.897	0.323	1.116	0.592	2.587	1.588	3.005	3.625	2.981	1.298	2.544	2.098	-3.500	-1.555	-2.406	-3.950	-0.600	-1.059	1.588	-0.278	-0.294	0.879	0.939	1.177	1.956	2.039	515.625
-2.736	-0.643	1.034	0.408	1.090	0.497	2.338	1.504	2.853	3.211	2.681	1.104	2.319	2.041	-3.391	-1.345	-1.981	-3.779	-0.345	-0.963	1.556	-0.226	-0.221	0.757	1.005	1.116	1.572	1.838	519.531
-2.502	-0.425	1.173	0.483	1.057	0.404	2.070	1.417	2.669	2.755	2.370	0.924	2.043	1.950	-3.321	-1.128	-1.531	-3.528	-0.107	-0.872	1.502	-0.203	-0.164	0.590	1.030	1.034	1.166	1.637	523.438
-2.249	-0.207	1.300	0.550	1.029	0.334	1.813	1.337	2.473	2.308	2.074	0.763	1.739	1.832	-3.274	-0.925	-1.105	-3.208	0.092	-0.794	1.431	-0.213	-0.127	0.393	1.019	0.929	0.780	1.437	527.344
-2.029	-0.004	1.394	0.609	1.017	0.300	1.598	1.277	2.292	1.923	1.826	0.628	1.437	1.703	-3.229	-0.752	-0.752	-2.844	0.237	-0.738	1.352	-0.253	-0.108	0.187	0.977	0.805	0.452	1.242	531.250
-1.884	0.161	1.434	0.655	1.027	0.305	1.459	1.250	2.155	1.644	1.655	0.522	1.171	1.583	-3.165	-0.627	-0.502	-2.471	0.324	-0.707	1.274	-0.312	-0.102	-0.002	0.912	0.671	0.212	1.060	535.156
-1.842	0.263	1.407	0.680	1.060	0.342	1.417	1.265	2.083	1.506	1.584	0.454	0.969	1.489	-3.069	-0.561	-0.373	-2.130	0.355	-0.704	1.204	-0.376	-0.102	-0.143	0.832	0.543	0.080	0.903	539.062
-1.903	0.274	1.302	0.673	1.112	0.392	1.487	1.325	2.091	1.519	1.628	0.432	0.850	1.437	-2.942	-0.564	-0.367	-1.863	0.337	-0.735	1.146	-0.433	-0.105	-0.212	0.750	0.442	0.065	0.792	542.969
-2.042	0.173	1.122	0.624	1.169	0.432	1.663	1.427	2.182	1.675	1.787	0.467	0.822	1.433	-2.801	-0.642	-0.474	-1.707	0.279	-0.800	1.098	-0.472	-0.107	-0.192	0.677	0.395	0.168	0.752	546.875
-2.216	-0.049	0.877	0.526	1.213	0.438	1.926	1.561	2.348	1.944	2.050	0.569	0.878	1.474	-2.677	-0.792	-0.674	-1.683	0.186	-0.902	1.055	-0.489	-0.109	-0.074	0.629	0.424	0.377	0.807	550.781
-2.382	-0.385	0.581	0.371	1.225	0.389	2.241	1.714	2.568	2.281	2.390	0.747	0.999	1.548	-2.604	-1.008	-0.942	-1.792	0.065	-1.042	1.007	-0.489	-0.112	0.136	0.615	0.548	0.675	0.978	554.688
-2.511	-0.811	0.254	0.163	1.188	0.273	2.566	1.869	2.817	2.636	2.774	1.002	1.159	1.638	-2.610	-1.276	-1.249	-2.012	-0.082	-1.215	0.945	-0.482	-0.121	0.418	0.645	0.771	1.040	1.273	558.594
-2.594	-1.281	-0.088	-0.093	1.091	0.090	2.855	2.009	3.064	2.960	3.160	1.328	1.329	1.721	-2.706	-1.577	-1.561	-2.303	-0.253	-1.418	0.862	-0.485	-0.138	0.745	0.719	1.086	1.446	1.684	562.500
-2.645	-1.741	-0.427	-0.380	0.938	-0.146	3.068	2.121	3.278	3.212	3.507	1.707	1.479	1.779	-2.876	-1.885	-1.849	-2.609	-0.444	-1.637	0.752	-0.513	-0.166	1.080	0.832	1.469	1.865	2.185	566.406
-2.690	-2.134	-0.746	-0.673	0.737	-0.411	3.176	2.193	3.431	3.368	3.776	2.111	1.590	1.795	-3.078	-2.172	-2.087	-2.872	-0.649	-1.857	0.618	-0.579	-0.206	1.388	0.972	1.881	2.266	2.732	570.312
-2.754	-2.413	-1.031	-0.945	0.509	-0.674	3.163	2.217	3.504	3.416	3.939	2.501	1.648	1.765	-3.256	-2.412	-2.258	-3.040	-0.856	-2.058	0.469	-0.686	-0.256	1.637	1.122	2.277	2.618	3.266	574.219
-2.848	-2.551	-1.264	-1.167	0.276	-0.908	3.031	2.191	3.488	3.360	3.977	2.837	1.651	1.693	-3.347	-2.580	-2.354	-3.077	-1.050	-2.220	0.319	-0.826	-0.309	1.804	1.266	2.608	2.888	3.725	578.125
-2.961	-2.546	-1.431	-1.316	0.060	-1.092	2.795	2.118	3.381	3.214	3.885	3.078	1.610	1.591	-3.304	-2.660	-2.377	-2.965	-1.211	-2.323	0.187	-0.980	-0.359	1.876	1.388	2.831	3.049	4.049	582.031
-3.062	-2.422	-1.521	-1.379	-0.121	-1.215	2.483	2.005	3.192	2.998	3.673	3.194	1.539	1.480	-3.105	-2.645	-2.331	-2.711	-1.318	-2.354	0.093	-1.121	-0.394	1.855	1.478	2.916	3.079	4.190	585.938
-3.102	-2.217	-1.529	-1.355	-0.254	-1.276	2.131	1.861	2.937	2.731	3.360	3.163	1.458	1.380	-2.759	-2.537	-2.225	-2.338	-1.351	-2.304	0.052	-1.217	-0.403	1.751	1.527	2.846	2.969	4.120	589.844
-3.033	-1.977	-1.461	-1.254	-0.334	-1.280	1.774	1.697	2.633	2.430	2.969	2.982	1.385	1.310	-2.306	-2.346	-2.061	-1.885	-1.291	-2.173	0.077	-1.238	-0.374	1.586	1.535	2.623	2.722	3.835	593.750
-2.811	-1.742	-1.328	-1.094	-0.359	-1.236	1.447	1.519	2.296	2.104	2.523	2.658	1.332	1.284	-1.800	-2.089	-1.842	-1.399	-1.127	-1.968	0.172	-1.165	-0.300	1.385	1.503	2.266	2.358	3.350	597.656
-2.421	-1.537	-1.143	-0.896	-0.329	-1.158	1.178	1.331	1.940	1.756	2.039	2.210	1.306	1.308	-1.299	-1.783	-1.564	-0.928	-0.858	-1.704	0.334	-0.989	-0.177	1.174	1.436	1.803	1.907	2.703	601.562
-1.878	-1.366	-0.920	-0.678	-0.247	-1.054	0.983	1.132	1.569	1.385	1.527	1.666	1.301	1.380	-0.843	-1.444	-1.225	-0.517	-0.491	-1.397	0.553	-0.720	-0.009	0.975	1.341	1.275	1.409	1.943	605.469
-1.230	-1.216	-0.666	-0.452	-0.119	-0.937	0.865	0.915	1.184	0.989	0.988	1.057	1.309	1.492	-0.448	-1.087	-0.829	-0.197	-0.046	-1.068	0.813	-0.377	0.192	0.809	1.230	0.725	0.904	1.130	609.375
-0.552	-1.061	-0.387	-0.226	0.048	-0.814	0.818	0.673	0.780	0.565	0.419	0.414	1.313	1.629	-0.109	-0.722	-0.388	0.017	0.446	-0.735	1.098	0.006	0.412	0.688	1.114	0.195	0.426	0.319	613.281
0.069	-0.876	-0.089	-0.003	0.244	-0.689	0.825	0.403	0.354	0.119	-0.184	-0.232	1.300	1.776	0.198	-0.358	0.078	0.133	0.948	-0.414	1.389	0.393	0.633	0.614	1.004	-0.281	-0.003	-0.440	617.188
0.558	-0.644	0.222	0.218	0.458	-0.565	0.866	0.106	-0.093	-0.338	-0.816	-0.854	1.257	1.919	0.504	-0.004	0.539	0.177	1.419	-0.116	1.670	0.750	0.841	0.586	0.910	-0.680	-0.373	-1.109	621.094
0.868	-0.365	0.536	0.434	0.680	-0.439	0.919	-0.205	-0.554	-0.788	-1.468	-1.426	1.178	2.047	0.827	0.330	0.961	0.188	1.822	0.149	1.928	1.050	1.019	0.593	0.835	-0.992	-0.688	-1.664	625.000
0.990	-0.055	0.842	0.642	0.897	-0.309	0.967	-0.511	-1.011	-1.208	-2.116	-1.931	1.065	2.152	1.175	0.634	1.315	0.208	2.127	0.379	2.152	1.272	1.157	0.617	0.774	-1.224	-0.963	-2.098	628.906
0.958	0.256	1.134	0.835	1.099	-0.172	0.997	-0.786	-1.443	-1.574	-2.731	-2.354	0.924	2.227	1.535	0.898	1.581	0.274	2.318	0.570	2.334	1.407	1.245	0.639	0.719	-1.393	-1.214	-2.418	632.812
0.837	0.534	1.406	1.004	1.275	-0.027	1.002	-1.003	-1.825	-1.870	-3.279	-2.688	0.763	2.271	1.887	1.112	1.752	0.411	2.392	0.722	2.470	1.453	1.277	0.639	0.655	-1.526	-1.451	-2.639	636.719
0.704	0.751	1.660	1.139	1.416	0.124	0.980	-1.142	-2.136	-2.084	-3.730	-2.930	0.589	2.283	2.205	1.272	1.832	0.624	2.362	0.835	2.557	1.419	1.252	0.600	0.569	-1.646	-1.676	-2.782	640.625
0.628	0.891	1.897	1.234	1.514	0.276	0.932	-1.194	-2.359	-2.215	-4.059	-3.083	0.409	2.263	2.465	1.375	1.838	0.901	2.252	0.908	2.596	1.318	1.174	0.514	0.451	-1.773	-1.881	-2.867	644.531
0.647	0.955	2.117	1.287	1.568	0.420	0.863	-1.160	-2.490	-2.272	-4.255	-3.154	0.229	2.213	2.647	1.424	1.790	1.213	2.092	0.942	2.590	1.169	1.055	0.382	0.304	-1.912	-2.048	-2.908	648.438
0.765	0.957	2.314	1.300	1.575	0.546	0.776	-1.059	-2.532	-2.270	-4.318	-3.150	0.052	2.135	2.738	1.426	1.713	1.515	1.918	0.938	2.546	0.997	0.912	0.215	0.143	-2.057	-2.157	-2.914	652.344
0.949	0.921	2.477	1.275	1.538	0.642	0.676	-0.915	-2.499	-2.230	-4.257	-3.080	-0.115	2.033	2.731	1.388	1.631	1.763	1.761	0.899	2.470	0.824	0.765	0.034	-0.007	-2.189	-2.189	-2.886	656.250
1.144	0.870	2.591	1.218	1.461	0.695	0.565	-0.758	-2.410	-2.169	-4.093	-2.952	-0.264	1.910	2.629	1.316	1.560	1.911	1.644	0.826	2.371	0.673	0.636	-0.135	-0.116	-2.281	-2.140	-2.816	660.156
1.287	0.820	2.639	1.131	1.347	0.696	0.445	-0.614	-2.286	-2.102	-3.852	-2.771	-0.385	1.772	2.447	1.216	1.513	1.932	1.581	0.724	2.256	0.561	0.543	-0.268	-0.156	-2.308	-2.014	-2.698	664.062
1.325	0.779	2.609	1.019	1.201	0.643	0.318	-0.506	-2.149	-2.040	-3.564	-2.549	-0.468	1.627	2.208	1.093	1.496	1.819	1.574	0.598	2.131	0.498	0.499	-0.343	-0.110	-2.252	-1.832	-2.526	667.969
1.226	0.745	2.496	0.884	1.027	0.537	0.182	-0.445	-2.016	-1.988	-3.263	-2.298	-0.507	1.484	1.946	0.953	1.511	1.596	1.617	0.456	2.002	0.488	0.508	-0.348	0.025	-2.111	-1.623	-2.304	671.875
0.990	0.714	2.308	0.733	0.833	0.389	0.040	-0.435	-1.903	-1.953	-2.980	-2.036	-0.501	1.350	1.696	0.807	1.556	1.313	1.699	0.308	1.875	0.527	0.570	-0.282	0.232	-1.900	-1.422	-2.048	675.781
0.649	0.679	2.064	0.579	0.628	0.215	-0.110	-0.472	-1.825	-1.944	-2.749	-1.791	-0.457	1.237	1.497	0.666	1.627	1.034	1.805	0.167	1.759	0.609	0.676	-0.159	0.482	-1.652	-1.263	-1.787	679.688
0.261	0.644	1.799	0.436	0.428	0.034	-0.267	-0.551	-1.793	-1.973	-2.601	-1.590	-0.388	1.149	1.380	0.549	1.719	0.827	1.920	0.048	1.661	0.721	0.812	-0.004	0.737	-1.411	-1.173	-1.562	683.594
-0.098	0.615	1.550	0.324	0.252	-0.131	-0.427	-0.666	-1.820	-2.054	-2.560	-1.465	-0.315	1.094	1.368	0.473	1.825	0.743	2.034	-0.035	1.592	0.850	0.963	0.154	0.957	-1.225	-1.170	-1.415	687.500
-0.355	0.604	1.358	0.262	0.120	-0.258	-0.584	-0.809	-1.912	-2.201	-2.647	-1.443	-0.255	1.075	1.473	0.455	1.937	0.814	2.140	-0.068	1.564	0.984	1.110	0.282	1.108	-1.140	-1.260	-1.388	691.406
-0.452	0.625	1.256	0.266	0.053	-0.327	-0.731	-0.972	-2.074	-2.422	-2.869	-1.541	-0.226	1.092	1.688	0.508	2.050	1.040	2.235	-0.040	1.585	1.117	1.239	0.354	1.170	-1.185	-1.438	-1.513	695.312
-0.358	0.688	1.262	0.345	0.065	-0.326	-0.858	-1.147	-2.305	-2.718	-3.222	-1.768	-0.236	1.143	1.987	0.637	2.165	1.398	2.323	0.055	1.661	1.243	1.344	0.352	1.136	-1.375	-1.690	-1.803	699.219
-0.082	0.801	1.382	0.500	0.165	-0.249	-0.956	-1.323	-2.594	-3.079	-3.690	-2.117	-0.286	1.224	2.337	0.840	2.290	1.847	2.413	0.215	1.792	1.364	1.423	0.270	1.016	-1.704	-1.996	-2.256	703.125
0.337	0.964	1.602	0.723	0.351	-0.103	-1.019	-1.486	-2.924	-3.487	-4.245	-2.572	-0.370	1.328	2.697	1.107	2.434	2.335	2.516	0.434	1.972	1.484	1.482	0.115	0.829	-2.148	-2.334	-2.850	707.031
0.835	1.171	1.900	0.999	0.610	0.100	-1.047	-1.622	-3.271	-3.916	-4.850	-3.105	-0.476	1.445	3.036	1.418	2.607	2.806	2.642	0.697	2.190	1.606	1.528	-0.099	0.602	-2.670	-2.686	-3.549	710.938
1.338	1.408	2.244	1.307	0.923	0.341	-1.043	-1.714	-3.611	-4.338	-5.465	-3.686	-0.588	1.565	3.333	1.746	2.812	3.208	2.798	0.984	2.429	1.734	1.566	-0.349	0.362	-3.225	-3.035	-4.305	714.844
1.778	1.659	2.601	1.624	1.261	0.597	-1.018	-1.753	-3.919	-4.725	-6.051	-4.279	-0.693	1.674	3.584	2.062	3.043	3.498	2.980	1.272	2.668	1.865	1.602	-0.610	0.138	-3.765	-3.367	-5.064	718.750
2.103	1.906	2.939	1.926	1.596	0.849	-0.985	-1.733	-4.173	-5.056	-6.574	-4.850	-0.780	1.760	3.789	2.337	3.285	3.648	3.178	1.535	2.888	1.994	1.633	-0.857	-0.046	-4.247	-3.674	-5.775	722.656
2.287	2.132	3.233	2.194	1.896	1.078	-0.958	-1.657	-4.360	-5.316	-7.006	-5.367	-0.841	1.816	3.955	2.548	3.517	3.651	3.376	1.755	3.068	2.113	1.658	-1.068	-0.175	-4.632	-3.944	-6.385	726.562
2.327	2.323	3.461	2.409	2.137	1.266	-0.947	-1.539	-4.473	-5.497	-7.325	-5.797	-0.872	1.836	4.083	2.680	3.715	3.516	3.553	1.914	3.196	2.209	1.672	-1.225	-0.235	-4.893	-4.167	-6.851	730.469
2.245	2.462	3.609	2.558	2.298	1.402	-0.958	-1.395	-4.509	-5.598	-7.516	-6.113	-0.870	1.819	4.166	2.727	3.855	3.270	3.688	2.005	3.263	2.273	1.673	-1.315	-0.221	-5.013	-4.326	-7.137	734.375
2.079	2.538	3.670	2.630	2.366	1.476	-0.990	-1.247	-4.466	-5.617	-7.567	-6.288	-0.836	1.772	4.190	2.688	3.915	2.948	3.762	2.025	3.269	2.295	1.659	-1.333	-0.136	-4.983	-4.400	-7.220	738.281
1.875	2.535	3.641	2.617	2.337	1.485	-1.037	-1.111	-4.345	-5.555	-7.474	-6.301	-0.772	1.699	4.137	2.569	3.876	2.592	3.763	1.975	3.217	2.270	1.628	-1.282	0.016	-4.807	-4.370	-7.086	742.188
1.677	2.442	3.522	2.513	2.212	1.429	-1.087	-0.998	-4.147	-5.413	-7.233	-6.140	-0.682	1.608	3.990	2.377	3.727	2.236	3.684	1.861	3.113	2.194	1.579	-1.172	0.221	-4.492	-4.215	-6.736	746.094
1.516	2.255	3.322	2.317	1.997	1.314	-1.131	-0.912	-3.873	-5.194	-6.850	-5.802	-0.570	1.503	3.738	2.122	3.465	1.905	3.522	1.687	2.965	2.065	1.511	-1.019	0.466	-4.058	-3.926	-6.185	750.000
1.403	1.977	3.052	2.033	1.704	1.147	-1.159	-0.846	-3.528	-4.905	-6.338	-5.299	-0.447	1.387	3.387	1.814	3.096	1.611	3.284	1.459	2.779	1.885	1.421	-0.844	0.733	-3.526	-3.504	-5.462	753.906
1.329	1.627	2.728	1.672	1.348	0.937	-1.169	-0.795	-3.125	-4.558	-5.720	-4.656	-0.322	1.259	2.958	1.466	2.646	1.353	2.985	1.186	2.564	1.659	1.308	-0.667	1.006	-2.927	-2.965	-4.610	757.812
1.264	1.230	2.374	1.253	0.950	0.696	-1.165	-0.749	-2.683	-4.173	-5.029	-3.914	-0.209	1.120	2.494	1.095	2.151	1.123	2.649	0.882	2.328	1.398	1.174	-0.506	1.268	-2.297	-2.342	-3.681	761.719
1.171	0.821	2.013	0.804	0.533	0.433	-1.158	-0.705	-2.229	-3.774	-4.307	-3.122	-0.119	0.975	2.048	0.725	1.663	0.910	2.311	0.566	2.084	1.122	1.029	-0.372	1.506	-1.676	-1.682	-2.740	765.625
1.009	0.438	1.673	0.358	0.124	0.155	-1.161	-0.666	-1.798	-3.392	-3.600	-2.333	-0.060	0.828	1.684	0.382	1.235	0.706	2.012	0.264	1.849	0.854	0.886	-0.269	1.711	-1.106	-1.038	-1.850	769.531
0.748	0.112	1.375	-0.054	-0.253	-0.131	-1.188	-0.640	-1.426	-3.055	-2.951	-1.599	-0.039	0.690	1.461	0.094	0.918	0.511	1.791	0.003	1.643	0.621	0.765	-0.194	1.882	-0.625	-0.468	-1.072	773.438
0.369	-0.134	1.138	-0.401	-0.578	-0.423	-1.249	-0.639	-1.145	-2.786	-2.398	-0.958	-0.056	0.570	1.429	-0.114	0.750	0.329	1.678	-0.189	1.485	0.442	0.680	-0.141	2.024	-0.262	-0.018	-0.451	777.344
-0.132	-0.289	0.972	-0.668	-0.838	-0.721	-1.351	-0.674	-0.976	-2.598	-1.962	-0.432	-0.108	0.476	1.618	-0.227	0.745	0.165	1.689	-0.294	1.391	0.332	0.644	-0.098	2.149	-0.030	0.286	-0.011	781.250
-0.746	-0.357	0.880	-0.849	-1.032	-1.024	-1.492	-0.755	-0.927	-2.493	-1.644	-0.023	-0.187	0.412	2.032	-0.242	0.897	0.025	1.823	-0.306	1.367	0.291	0.662	-0.056	2.269	0.076	0.440	0.249	785.156
-1.453	-0.356	0.852	-0.954	-1.169	-1.335	-1.669	-0.880	-0.985	-2.458	-1.428	0.288	-0.286	0.374	2.645	-0.173	1.178	-0.093	2.060	-0.233	1.406	0.310	0.727	-0.008	2.397	0.078	0.465	0.358	789.062
-2.225	-0.309	0.869	-1.007	-1.268	-1.656	-1.871	-1.042	-1.121	-2.473	-1.282	0.534	-0.395	0.358	3.405	-0.043	1.545	-0.193	2.368	-0.098	1.494	0.370	0.827	0.050	2.541	0.010	0.400	0.366	792.969
-3.028	-0.245	0.905	-1.037	-1.352	-1.985	-2.086	-1.226	-1.295	-2.509	-1.163	0.755	-0.506	0.351	4.236	0.115	1.949	-0.286	2.709	0.067	1.604	0.450	0.946	0.119	2.699	-0.084	0.296	0.335	796.875
