FP1	F3	F7	FC3	C3	C5	P3	P7	PO7	PO3	O1	Oz	Pz	CPz	FP2	Fz	F4	F8	FC4	FCz	Cz	C4	C6	P4	P8	PO8	PO4	O2	time
0.134	0.881	0.875	0.634	0.243	0.030	0.485	0.087	-0.249	0.152	0.272	-0.005	0.513	0.828	0.095	0.798	0.050	-0.857	-0.149	0.646	0.741	-0.181	-1.021	0.042	-1.448	-0.873	-0.173	-0.653	-199.219
0.032	0.393	0.573	0.255	0.013	-0.102	0.431	0.030	-0.067	0.300	0.527	0.242	0.591	0.757	-0.080	0.230	-0.235	-0.771	-0.227	0.241	0.532	0.049	-0.699	0.325	-0.967	-0.489	0.040	-0.364	-195.312
-0.069	-0.060	0.285	-0.105	-0.191	-0.228	0.395	-0.014	0.116	0.445	0.771	0.491	0.669	0.701	-0.242	-0.293	-0.504	-0.689	-0.303	-0.128	0.349	0.251	-0.413	0.581	-0.527	-0.122	0.250	-0.071	-191.406
-0.168	-0.442	0.024	-0.420	-0.346	-0.339	0.393	-0.037	0.296	0.585	0.992	0.740	0.748	0.675	-0.380	-0.732	-0.743	-0.619	-0.374	-0.430	0.213	0.400	-0.194	0.786	-0.166	0.212	0.451	0.228	-187.500
-0.265	-0.732	-0.203	-0.673	-0.435	-0.429	0.435	-0.038	0.471	0.722	1.183	0.988	0.830	0.685	-0.485	-1.061	-0.936	-0.571	-0.438	-0.643	0.138	0.484	-0.060	0.928	0.090	0.497	0.641	0.529	-183.594
-0.361	-0.926	-0.393	-0.857	-0.454	-0.491	0.523	-0.015	0.636	0.857	1.338	1.230	0.915	0.733	-0.556	-1.267	-1.067	-0.560	-0.489	-0.757	0.127	0.499	-0.015	1.001	0.228	0.721	0.815	0.827	-179.688
-0.459	-1.034	-0.547	-0.970	-0.411	-0.522	0.653	0.029	0.786	0.992	1.453	1.461	1.003	0.810	-0.594	-1.352	-1.127	-0.597	-0.522	-0.777	0.176	0.454	-0.047	1.011	0.251	0.875	0.966	1.110	-175.781
-0.559	-1.075	-0.664	-1.019	-0.320	-0.521	0.810	0.086	0.912	1.124	1.525	1.668	1.092	0.905	-0.604	-1.333	-1.112	-0.685	-0.535	-0.719	0.267	0.367	-0.136	0.973	0.175	0.955	1.088	1.364	-171.875
-0.656	-1.070	-0.744	-1.012	-0.202	-0.486	0.977	0.145	1.003	1.246	1.546	1.834	1.178	1.001	-0.594	-1.237	-1.033	-0.816	-0.530	-0.610	0.379	0.259	-0.252	0.904	0.029	0.961	1.175	1.570	-167.969
-0.740	-1.038	-0.788	-0.958	-0.077	-0.423	1.129	0.195	1.047	1.348	1.507	1.942	1.254	1.080	-0.569	-1.096	-0.908	-0.968	-0.513	-0.479	0.486	0.150	-0.370	0.826	-0.150	0.902	1.224	1.711	-164.062
-0.800	-0.988	-0.798	-0.869	0.036	-0.338	1.242	0.223	1.035	1.414	1.399	1.974	1.313	1.128	-0.536	-0.942	-0.765	-1.113	-0.491	-0.354	0.566	0.056	-0.462	0.756	-0.324	0.793	1.232	1.776	-160.156
-0.823	-0.923	-0.782	-0.755	0.120	-0.243	1.297	0.219	0.956	1.427	1.216	1.918	1.345	1.132	-0.498	-0.802	-0.635	-1.217	-0.471	-0.258	0.603	-0.011	-0.509	0.711	-0.455	0.659	1.202	1.761	-156.250
-0.803	-0.844	-0.752	-0.627	0.162	-0.154	1.278	0.179	0.812	1.373	0.958	1.772	1.343	1.086	-0.458	-0.694	-0.541	-1.251	-0.456	-0.205	0.587	-0.046	-0.497	0.697	-0.514	0.526	1.142	1.671	-152.344
-0.737	-0.752	-0.719	-0.501	0.156	-0.083	1.180	0.106	0.610	1.247	0.635	1.545	1.299	0.991	-0.418	-0.625	-0.498	-1.200	-0.443	-0.198	0.519	-0.049	-0.421	0.716	-0.483	0.422	1.059	1.523	-148.438
-0.631	-0.653	-0.692	-0.393	0.096	-0.045	1.009	0.012	0.371	1.051	0.270	1.256	1.212	0.852	-0.379	-0.598	-0.507	-1.060	-0.426	-0.235	0.408	-0.022	-0.283	0.758	-0.358	0.369	0.962	1.336	-144.531
-0.497	-0.561	-0.672	-0.319	-0.013	-0.048	0.777	-0.085	0.121	0.800	-0.106	0.933	1.081	0.681	-0.343	-0.604	-0.555	-0.843	-0.396	-0.305	0.266	0.027	-0.096	0.812	-0.151	0.375	0.858	1.133	-140.625
-0.351	-0.495	-0.657	-0.296	-0.165	-0.095	0.509	-0.168	-0.105	0.519	-0.453	0.605	0.915	0.492	-0.311	-0.631	-0.621	-0.576	-0.345	-0.393	0.111	0.091	0.118	0.857	0.114	0.439	0.751	0.932	-136.719
-0.208	-0.470	-0.638	-0.332	-0.345	-0.185	0.232	-0.219	-0.277	0.238	-0.730	0.305	0.722	0.300	-0.285	-0.666	-0.677	-0.290	-0.271	-0.481	-0.036	0.159	0.330	0.875	0.402	0.543	0.640	0.745	-132.812
-0.084	-0.498	-0.607	-0.426	-0.533	-0.307	-0.027	-0.225	-0.371	-0.012	-0.901	0.057	0.516	0.122	-0.261	-0.693	-0.697	-0.019	-0.173	-0.550	-0.159	0.224	0.511	0.850	0.676	0.661	0.524	0.577	-128.906
0.012	-0.578	-0.562	-0.566	-0.705	-0.447	-0.242	-0.186	-0.375	-0.206	-0.943	-0.122	0.312	-0.029	-0.239	-0.699	-0.663	0.207	-0.061	-0.584	-0.243	0.276	0.636	0.771	0.898	0.761	0.400	0.423	-125.000
0.071	-0.698	-0.503	-0.727	-0.836	-0.582	-0.394	-0.108	-0.292	-0.326	-0.846	-0.228	0.125	-0.144	-0.215	-0.672	-0.566	0.365	0.055	-0.574	-0.280	0.310	0.690	0.636	1.038	0.814	0.266	0.278	-121.094
0.093	-0.832	-0.438	-0.879	-0.906	-0.689	-0.473	-0.004	-0.139	-0.366	-0.622	-0.262	-0.033	-0.217	-0.188	-0.607	-0.413	0.445	0.158	-0.515	-0.270	0.323	0.674	0.452	1.076	0.798	0.124	0.133	-117.188
0.080	-0.952	-0.379	-0.988	-0.901	-0.747	-0.478	0.108	0.057	-0.332	-0.299	-0.238	-0.153	-0.249	-0.156	-0.509	-0.222	0.447	0.235	-0.414	-0.218	0.313	0.602	0.235	1.009	0.706	-0.021	-0.012	-113.281
0.041	-1.026	-0.335	-1.029	-0.823	-0.742	-0.418	0.208	0.265	-0.239	0.083	-0.172	-0.230	-0.245	-0.121	-0.382	-0.021	0.385	0.276	-0.282	-0.139	0.282	0.495	0.006	0.848	0.546	-0.158	-0.154	-109.375
-0.013	-1.028	-0.310	-0.986	-0.685	-0.671	-0.312	0.278	0.450	-0.106	0.472	-0.083	-0.264	-0.214	-0.083	-0.240	0.162	0.278	0.276	-0.138	-0.050	0.236	0.382	-0.211	0.617	0.340	-0.276	-0.283	-105.469
-0.068	-0.945	-0.304	-0.859	-0.512	-0.546	-0.182	0.307	0.585	0.044	0.818	0.007	-0.257	-0.167	-0.044	-0.092	0.301	0.155	0.242	0.003	0.035	0.180	0.284	-0.392	0.351	0.117	-0.363	-0.387	-101.562
-0.113	-0.776	-0.310	-0.662	-0.335	-0.391	-0.054	0.289	0.650	0.186	1.077	0.082	-0.216	-0.114	-0.002	0.052	0.386	0.041	0.187	0.128	0.103	0.122	0.218	-0.520	0.086	-0.092	-0.413	-0.456	-97.656
-0.136	-0.536	-0.320	-0.423	-0.183	-0.237	0.050	0.226	0.637	0.304	1.220	0.131	-0.150	-0.065	0.045	0.185	0.420	-0.041	0.128	0.228	0.147	0.067	0.186	-0.586	-0.142	-0.261	-0.421	-0.484	-93.750
-0.136	-0.253	-0.327	-0.174	-0.079	-0.112	0.117	0.129	0.553	0.386	1.237	0.147	-0.069	-0.027	0.097	0.304	0.415	-0.077	0.085	0.304	0.166	0.021	0.180	-0.588	-0.310	-0.377	-0.391	-0.472	-89.844
-0.114	0.039	-0.328	0.053	-0.031	-0.034	0.141	0.014	0.415	0.426	1.134	0.132	0.014	-0.004	0.157	0.406	0.394	-0.062	0.069	0.356	0.163	-0.016	0.181	-0.531	-0.407	-0.439	-0.331	-0.425	-85.938
-0.076	0.303	-0.318	0.234	-0.032	-0.009	0.127	-0.099	0.246	0.426	0.934	0.093	0.091	0.003	0.223	0.491	0.381	0.000	0.089	0.392	0.145	-0.044	0.168	-0.429	-0.435	-0.453	-0.252	-0.355	-82.031
-0.034	0.512	-0.294	0.356	-0.064	-0.028	0.088	-0.192	0.072	0.388	0.668	0.038	0.150	-0.006	0.292	0.556	0.392	0.098	0.142	0.416	0.117	-0.068	0.125	-0.298	-0.406	-0.437	-0.168	-0.275	-78.125
0.005	0.648	-0.250	0.418	-0.101	-0.068	0.035	-0.252	-0.091	0.317	0.364	-0.025	0.183	-0.031	0.360	0.601	0.439	0.217	0.217	0.432	0.086	-0.090	0.043	-0.156	-0.340	-0.406	-0.090	-0.199	-74.219
0.036	0.710	-0.176	0.431	-0.116	-0.105	-0.018	-0.276	-0.232	0.214	0.048	-0.094	0.182	-0.068	0.420	0.628	0.518	0.341	0.299	0.443	0.054	-0.112	-0.072	-0.022	-0.252	-0.373	-0.028	-0.139	-70.312
0.061	0.710	-0.067	0.413	-0.090	-0.113	-0.068	-0.270	-0.352	0.082	-0.265	-0.171	0.143	-0.115	0.467	0.639	0.619	0.454	0.372	0.450	0.022	-0.135	-0.204	0.088	-0.154	-0.345	0.010	-0.103	-66.406
0.087	0.670	0.076	0.389	-0.015	-0.077	-0.115	-0.244	-0.461	-0.081	-0.567	-0.263	0.064	-0.171	0.497	0.638	0.723	0.548	0.422	0.453	-0.009	-0.156	-0.328	0.161	-0.050	-0.323	0.021	-0.099	-62.500
0.125	0.618	0.242	0.380	0.106	0.008	-0.166	-0.212	-0.568	-0.272	-0.857	-0.379	-0.057	-0.234	0.509	0.632	0.810	0.619	0.440	0.452	-0.043	-0.172	-0.418	0.188	0.058	-0.303	0.003	-0.130	-58.594
0.185	0.580	0.413	0.401	0.259	0.135	-0.230	-0.184	-0.681	-0.488	-1.132	-0.527	-0.214	-0.303	0.508	0.625	0.862	0.672	0.427	0.446	-0.081	-0.179	-0.451	0.165	0.173	-0.281	-0.044	-0.196	-54.688
0.273	0.576	0.567	0.461	0.424	0.286	-0.313	-0.166	-0.799	-0.721	-1.386	-0.710	-0.403	-0.379	0.497	0.624	0.869	0.712	0.390	0.436	-0.124	-0.176	-0.416	0.088	0.292	-0.255	-0.117	-0.298	-50.781
0.387	0.616	0.688	0.557	0.579	0.443	-0.419	-0.157	-0.914	-0.956	-1.610	-0.924	-0.615	-0.462	0.482	0.631	0.832	0.751	0.339	0.421	-0.174	-0.164	-0.314	-0.038	0.405	-0.229	-0.215	-0.432	-46.875
0.518	0.702	0.773	0.681	0.707	0.587	-0.544	-0.153	-1.012	-1.181	-1.788	-1.157	-0.841	-0.551	0.466	0.650	0.758	0.795	0.288	0.402	-0.231	-0.149	-0.159	-0.210	0.497	-0.211	-0.336	-0.591	-42.969
0.652	0.823	0.828	0.819	0.798	0.707	-0.680	-0.145	-1.077	-1.378	-1.904	-1.393	-1.070	-0.649	0.453	0.681	0.663	0.846	0.246	0.381	-0.292	-0.141	0.020	-0.420	0.549	-0.215	-0.480	-0.768	-39.062
0.770	0.968	0.874	0.958	0.847	0.799	-0.818	-0.128	-1.096	-1.534	-1.943	-1.611	-1.291	-0.754	0.441	0.726	0.568	0.901	0.220	0.362	-0.356	-0.150	0.188	-0.661	0.541	-0.255	-0.644	-0.952	-35.156
0.856	1.120	0.931	1.088	0.859	0.865	-0.943	-0.097	-1.062	-1.636	-1.896	-1.790	-1.494	-0.865	0.431	0.785	0.492	0.951	0.210	0.348	-0.417	-0.184	0.314	-0.920	0.458	-0.343	-0.827	-1.134	-31.250
0.899	1.267	1.017	1.202	0.841	0.907	-1.046	-0.050	-0.974	-1.676	-1.760	-1.912	-1.666	-0.976	0.419	0.858	0.449	0.981	0.212	0.346	-0.471	-0.248	0.372	-1.184	0.297	-0.483	-1.024	-1.302	-27.344
0.893	1.396	1.138	1.296	0.802	0.929	-1.115	0.010	-0.839	-1.652	-1.544	-1.964	-1.797	-1.081	0.404	0.941	0.446	0.978	0.221	0.358	-0.514	-0.339	0.355	-1.435	0.068	-0.671	-1.224	-1.447	-23.438
0.842	1.499	1.284	1.366	0.748	0.931	-1.143	0.079	-0.668	-1.561	-1.259	-1.941	-1.875	-1.171	0.384	1.027	0.482	0.932	0.229	0.383	-0.544	-0.444	0.272	-1.655	-0.208	-0.892	-1.412	-1.558	-19.531
0.755	1.566	1.434	1.406	0.685	0.910	-1.127	0.152	-0.477	-1.411	-0.925	-1.842	-1.891	-1.240	0.358	1.104	0.543	0.840	0.234	0.415	-0.560	-0.547	0.151	-1.823	-0.499	-1.125	-1.570	-1.629	-15.625
0.647	1.589	1.558	1.409	0.615	0.863	-1.067	0.221	-0.278	-1.209	-0.565	-1.676	-1.842	-1.280	0.326	1.156	0.611	0.708	0.231	0.443	-0.567	-0.629	0.027	-1.920	-0.768	-1.337	-1.677	-1.650	-11.719
0.534	1.559	1.625	1.368	0.539	0.787	-0.965	0.279	-0.086	-0.970	-0.203	-1.454	-1.728	-1.292	0.287	1.168	0.662	0.548	0.219	0.452	-0.572	-0.672	-0.062	-1.932	-0.978	-1.496	-1.713	-1.615	-7.812
0.426	1.470	1.611	1.277	0.456	0.681	-0.833	0.318	0.086	-0.711	0.139	-1.191	-1.558	-1.278	0.241	1.126	0.674	0.379	0.196	0.428	-0.585	-0.666	-0.086	-1.852	-1.096	-1.570	-1.662	-1.518	-3.906
0.326	1.321	1.501	1.137	0.364	0.550	-0.683	0.332	0.228	-0.452	0.441	-0.904	-1.349	-1.246	0.185	1.023	0.631	0.221	0.157	0.358	-0.615	-0.611	-0.032	-1.682	-1.100	-1.533	-1.518	-1.352	0.000
0.233	1.121	1.299	0.955	0.266	0.401	-0.533	0.314	0.329	-0.216	0.686	-0.611	-1.122	-1.206	0.118	0.861	0.527	0.089	0.102	0.241	-0.669	-0.519	0.098	-1.433	-0.983	-1.372	-1.285	-1.118	3.906
0.143	0.886	1.024	0.746	0.167	0.248	-0.402	0.263	0.378	-0.024	0.859	-0.332	-0.902	-1.168	0.042	0.654	0.371	-0.003	0.029	0.082	-0.748	-0.409	0.284	-1.127	-0.753	-1.089	-0.979	-0.823	7.812
0.053	0.642	0.711	0.537	0.076	0.104	-0.308	0.178	0.366	0.103	0.947	-0.087	-0.712	-1.138	-0.038	0.424	0.185	-0.051	-0.056	-0.099	-0.843	-0.302	0.494	-0.792	-0.431	-0.704	-0.629	-0.482	11.719
-0.035	0.420	0.402	0.354	0.006	-0.016	-0.265	0.063	0.285	0.150	0.939	0.103	-0.571	-1.118	-0.112	0.203	0.002	-0.051	-0.142	-0.274	-0.941	-0.219	0.697	-0.462	-0.054	-0.254	-0.268	-0.122	15.625
-0.112	0.251	0.139	0.225	-0.031	-0.100	-0.283	-0.077	0.130	0.109	0.828	0.217	-0.490	-1.105	-0.167	0.026	-0.140	-0.010	-0.210	-0.412	-1.023	-0.171	0.865	-0.167	0.339	0.215	0.064	0.225	19.531
-0.165	0.158	-0.044	0.172	-0.026	-0.140	-0.362	-0.233	-0.096	-0.021	0.615	0.245	-0.472	-1.095	-0.189	-0.076	-0.205	0.067	-0.237	-0.485	-1.072	-0.158	0.983	0.066	0.704	0.652	0.333	0.525	23.438
-0.184	0.155	-0.130	0.203	0.022	-0.136	-0.498	-0.398	-0.380	-0.232	0.315	0.184	-0.514	-1.083	-0.165	-0.083	-0.169	0.169	-0.204	-0.476	-1.076	-0.172	1.047	0.221	1.003	1.012	0.514	0.752	27.344
-0.162	0.239	-0.118	0.311	0.104	-0.095	-0.681	-0.560	-0.701	-0.503	-0.044	0.049	-0.604	-1.071	-0.095	0.009	-0.024	0.283	-0.102	-0.382	-1.033	-0.199	1.065	0.291	1.210	1.262	0.596	0.891	31.250
-0.105	0.395	-0.024	0.477	0.204	-0.030	-0.895	-0.709	-1.023	-0.806	-0.416	-0.129	-0.731	-1.064	0.016	0.190	0.215	0.395	0.067	-0.220	-0.954	-0.226	1.050	0.278	1.313	1.389	0.583	0.944	35.156
-0.026	0.591	0.124	0.670	0.297	0.041	-1.125	-0.829	-1.309	-1.108	-0.745	-0.305	-0.885	-1.074	0.148	0.428	0.516	0.491	0.281	-0.019	-0.860	-0.242	1.017	0.195	1.315	1.400	0.490	0.933	39.062
0.050	0.790	0.288	0.850	0.355	0.097	-1.354	-0.907	-1.514	-1.373	-0.968	-0.427	-1.054	-1.115	0.274	0.683	0.831	0.557	0.507	0.181	-0.780	-0.248	0.980	0.058	1.241	1.327	0.345	0.896	42.969
0.100	0.946	0.431	0.981	0.355	0.120	-1.566	-0.929	-1.601	-1.570	-1.032	-0.444	-1.233	-1.201	0.364	0.907	1.105	0.580	0.701	0.336	-0.746	-0.253	0.947	-0.112	1.130	1.218	0.179	0.879	46.875
0.098	1.018	0.522	1.031	0.281	0.096	-1.751	-0.884	-1.543	-1.675	-0.898	-0.317	-1.416	-1.346	0.386	1.051	1.285	0.551	0.821	0.408	-0.786	-0.270	0.917	-0.296	1.030	1.132	0.024	0.925	50.781
0.029	0.976	0.542	0.979	0.127	0.017	-1.897	-0.768	-1.333	-1.680	-0.557	-0.034	-1.602	-1.553	0.319	1.081	1.333	0.466	0.835	0.370	-0.917	-0.317	0.891	-0.476	0.992	1.131	-0.093	1.070	54.688
-0.113	0.807	0.481	0.819	-0.100	-0.115	-2.002	-0.590	-0.983	-1.588	-0.032	0.386	-1.787	-1.820	0.153	0.974	1.229	0.330	0.731	0.210	-1.147	-0.404	0.865	-0.636	1.061	1.265	-0.154	1.328	58.594
-0.321	0.519	0.345	0.560	-0.383	-0.290	-2.065	-0.370	-0.531	-1.424	0.618	0.891	-1.971	-2.134	-0.104	0.732	0.985	0.157	0.520	-0.065	-1.463	-0.530	0.842	-0.763	1.267	1.568	-0.152	1.687	62.500
-0.579	0.142	0.148	0.226	-0.697	-0.491	-2.093	-0.136	-0.031	-1.220	1.308	1.402	-2.151	-2.475	-0.427	0.376	0.637	-0.029	0.237	-0.429	-1.841	-0.684	0.826	-0.847	1.622	2.047	-0.092	2.111	66.406
-0.861	-0.281	-0.087	-0.152	-1.016	-0.698	-2.097	0.073	0.451	-1.019	1.940	1.827	-2.326	-2.817	-0.778	-0.053	0.245	-0.197	-0.064	-0.844	-2.247	-0.842	0.830	-0.880	2.117	2.683	0.013	2.548	70.312
-1.140	-0.697	-0.332	-0.539	-1.315	-0.891	-2.090	0.222	0.848	-0.861	2.423	2.083	-2.490	-3.134	-1.113	-0.503	-0.124	-0.318	-0.329	-1.265	-2.642	-0.975	0.868	-0.857	2.723	3.434	0.147	2.937	74.219
-1.387	-1.062	-0.563	-0.899	-1.574	-1.058	-2.086	0.280	1.108	-0.779	2.690	2.112	-2.637	-3.400	-1.392	-0.921	-0.412	-0.369	-0.508	-1.649	-2.988	-1.053	0.951	-0.774	3.400	4.245	0.297	3.227	78.125
-1.583	-1.341	-0.761	-1.208	-1.784	-1.195	-2.096	0.231	1.196	-0.790	2.711	1.897	-2.760	-3.597	-1.586	-1.263	-0.577	-0.340	-0.574	-1.961	-3.260	-1.056	1.083	-0.631	4.106	5.059	0.454	3.389	82.031
-1.719	-1.518	-0.916	-1.449	-1.941	-1.308	-2.125	0.072	1.106	-0.892	2.501	1.468	-2.851	-3.716	-1.681	-1.500	-0.607	-0.235	-0.524	-2.185	-3.442	-0.975	1.260	-0.429	4.797	5.827	0.620	3.422	85.938
-1.798	-1.599	-1.035	-1.619	-2.053	-1.415	-2.178	-0.185	0.857	-1.067	2.115	0.896	-2.902	-3.758	-1.683	-1.626	-0.522	-0.072	-0.383	-2.319	-3.537	-0.821	1.465	-0.175	5.442	6.517	0.805	3.355	89.844
-1.831	-1.602	-1.131	-1.726	-2.132	-1.535	-2.250	-0.515	0.492	-1.283	1.636	0.281	-2.906	-3.735	-1.615	-1.656	-0.364	0.119	-0.196	-2.377	-3.558	-0.614	1.675	0.122	6.018	7.117	1.025	3.241	93.750
-1.840	-1.557	-1.225	-1.785	-2.191	-1.689	-2.337	-0.884	0.068	-1.500	1.158	-0.271	-2.863	-3.664	-1.509	-1.620	-0.189	0.300	-0.016	-2.383	-3.527	-0.388	1.866	0.446	6.515	7.629	1.291	3.141	97.656
-1.844	-1.495	-1.333	-1.814	-2.245	-1.886	-2.430	-1.252	-0.352	-1.681	0.771	-0.667	-2.772	-3.566	-1.401	-1.552	-0.052	0.434	0.109	-2.364	-3.466	-0.177	2.015	0.780	6.926	8.061	1.611	3.111	101.562
-1.858	-1.441	-1.467	-1.827	-2.301	-2.126	-2.519	-1.585	-0.710	-1.792	0.543	-0.844	-2.640	-3.457	-1.321	-1.484	0.005	0.493	0.145	-2.340	-3.396	-0.010	2.107	1.102	7.247	8.419	1.978	3.185	105.469
-1.888	-1.411	-1.623	-1.837	-2.362	-2.395	-2.593	-1.854	-0.961	-1.814	0.512	-0.781	-2.475	-3.350	-1.287	-1.437	-0.038	0.461	0.082	-2.322	-3.325	0.095	2.138	1.390	7.467	8.699	2.371	3.370	109.375
-1.932	-1.409	-1.788	-1.848	-2.424	-2.664	-2.643	-2.040	-1.080	-1.740	0.682	-0.494	-2.287	-3.251	-1.302	-1.416	-0.180	0.337	-0.068	-2.307	-3.258	0.135	2.111	1.621	7.574	8.882	2.758	3.643	113.281
-1.982	-1.426	-1.941	-1.856	-2.477	-2.902	-2.660	-2.139	-1.059	-1.576	1.030	-0.034	-2.085	-3.156	-1.359	-1.414	-0.395	0.135	-0.274	-2.286	-3.189	0.119	2.038	1.780	7.555	8.943	3.102	3.958	117.188
-2.026	-1.447	-2.062	-1.856	-2.510	-3.078	-2.636	-2.155	-0.910	-1.335	1.513	0.531	-1.875	-3.059	-1.438	-1.412	-0.646	-0.124	-0.494	-2.242	-3.106	0.067	1.936	1.858	7.398	8.853	3.367	4.256	121.094
-2.054	-1.456	-2.138	-1.837	-2.509	-3.170	-2.564	-2.099	-0.655	-1.039	2.078	1.129	-1.660	-2.946	-1.515	-1.388	-0.885	-0.413	-0.683	-2.157	-2.996	0.005	1.824	1.858	7.101	8.594	3.525	4.481	125.000
-2.058	-1.432	-2.173	-1.791	-2.464	-3.171	-2.438	-1.984	-0.322	-0.705	2.676	1.694	-1.440	-2.806	-1.568	-1.323	-1.071	-0.709	-0.804	-2.017	-2.849	-0.045	1.718	1.790	6.671	8.160	3.564	4.588	128.906
-2.034	-1.366	-2.181	-1.710	-2.369	-3.086	-2.255	-1.822	0.061	-0.348	3.268	2.179	-1.212	-2.627	-1.579	-1.199	-1.169	-0.997	-0.834	-1.812	-2.655	-0.066	1.627	1.670	6.130	7.571	3.487	4.551	132.812
-1.983	-1.252	-2.189	-1.593	-2.221	-2.929	-2.012	-1.618	0.471	0.021	3.829	2.555	-0.976	-2.405	-1.537	-1.014	-1.161	-1.266	-0.764	-1.545	-2.412	-0.051	1.554	1.516	5.509	6.863	3.308	4.367	136.719
-1.911	-1.095	-2.221	-1.442	-2.021	-2.723	-1.711	-1.378	0.892	0.399	4.347	2.816	-0.732	-2.143	-1.441	-0.771	-1.044	-1.515	-0.602	-1.225	-2.126	-0.004	1.491	1.342	4.850	6.094	3.053	4.057	140.625
-1.824	-0.911	-2.295	-1.265	-1.776	-2.489	-1.357	-1.103	1.313	0.782	4.821	2.969	-0.489	-1.857	-1.302	-0.488	-0.835	-1.742	-0.371	-0.873	-1.814	0.057	1.422	1.160	4.194	5.330	2.752	3.656	144.531
-1.735	-0.720	-2.413	-1.074	-1.495	-2.245	-0.957	-0.796	1.728	1.164	5.254	3.037	-0.257	-1.567	-1.136	-0.190	-0.560	-1.951	-0.103	-0.516	-1.498	0.111	1.328	0.974	3.587	4.643	2.434	3.211	148.438
-1.659	-0.547	-2.566	-0.887	-1.193	-2.002	-0.527	-0.464	2.131	1.540	5.651	3.047	-0.054	-1.301	-0.968	0.094	-0.258	-2.141	0.165	-0.188	-1.208	0.132	1.188	0.786	3.069	4.100	2.125	2.773	152.344
-1.612	-0.418	-2.733	-0.720	-0.886	-1.767	-0.086	-0.116	2.520	1.899	6.014	3.031	0.104	-1.089	-0.825	0.330	0.032	-2.314	0.395	0.078	-0.973	0.097	0.990	0.594	2.675	3.756	1.846	2.394	156.250
-1.611	-0.352	-2.892	-0.593	-0.593	-1.546	0.343	0.234	2.891	2.228	6.341	3.020	0.201	-0.956	-0.734	0.493	0.270	-2.474	0.555	0.252	-0.822	-0.009	0.730	0.403	2.433	3.652	1.618	2.117	160.156
-1.671	-0.364	-3.025	-0.520	-0.334	-1.344	0.736	0.568	3.236	2.512	6.631	3.039	0.226	-0.921	-0.718	0.558	0.421	-2.624	0.618	0.312	-0.775	-0.190	0.418	0.219	2.362	3.808	1.455	1.980	164.062
-1.800	-0.461	-3.126	-0.513	-0.127	-1.171	1.069	0.868	3.551	2.741	6.879	3.108	0.180	-0.992	-0.789	0.514	0.463	-2.768	0.572	0.246	-0.842	-0.438	0.079	0.056	2.472	4.221	1.370	2.006	167.969
-1.995	-0.641	-3.201	-0.578	0.016	-1.039	1.324	1.115	3.828	2.909	7.087	3.237	0.069	-1.164	-0.950	0.362	0.387	-2.910	0.418	0.057	-1.020	-0.732	-0.255	-0.068	2.758	4.869	1.374	2.201	171.875
-2.248	-0.892	-3.267	-0.710	0.089	-0.960	1.493	1.299	4.065	3.013	7.259	3.423	-0.095	-1.422	-1.187	0.112	0.205	-3.051	0.175	-0.240	-1.296	-1.045	-0.549	-0.136	3.201	5.705	1.466	2.553	175.781
-2.539	-1.195	-3.350	-0.897	0.097	-0.943	1.576	1.420	4.265	3.060	7.402	3.656	-0.297	-1.745	-1.478	-0.210	-0.054	-3.191	-0.126	-0.618	-1.647	-1.343	-0.770	-0.137	3.766	6.666	1.641	3.031	179.688
-2.844	-1.521	-3.474	-1.117	0.053	-0.986	1.582	1.490	4.438	3.060	7.531	3.912	-0.520	-2.108	-1.790	-0.573	-0.347	-3.328	-0.442	-1.042	-2.048	-1.598	-0.901	-0.069	4.405	7.680	1.879	3.586	183.594
-3.137	-1.841	-3.656	-1.343	-0.023	-1.079	1.528	1.532	4.603	3.029	7.659	4.164	-0.754	-2.489	-2.091	-0.939	-0.625	-3.462	-0.730	-1.476	-2.469	-1.790	-0.936	0.054	5.060	8.666	2.151	4.156	187.500
-3.392	-2.124	-3.901	-1.546	-0.108	-1.199	1.436	1.577	4.781	2.981	7.804	4.384	-0.994	-2.869	-2.351	-1.274	-0.846	-3.593	-0.956	-1.887	-2.889	-1.911	-0.890	0.209	5.673	9.553	2.420	4.677	191.406
-3.589	-2.345	-4.195	-1.700	-0.180	-1.318	1.329	1.657	4.993	2.934	7.979	4.549	-1.239	-3.238	-2.553	-1.551	-0.981	-3.725	-1.097	-2.252	-3.290	-1.968	-0.792	0.362	6.192	10.283	2.648	5.091	195.312
-3.719	-2.492	-4.510	-1.790	-0.225	-1.408	1.224	1.797	5.256	2.898	8.196	4.646	-1.492	-3.590	-2.695	-1.758	-1.026	-3.863	-1.155	-2.559	-3.664	-1.979	-0.680	0.477	6.585	10.821	2.805	5.358	199.219
-3.784	-2.569	-4.809	-1.815	-0.240	-1.449	1.135	2.012	5.579	2.883	8.459	4.675	-1.754	-3.926	-2.786	-1.900	-0.997	-4.010	-1.146	-2.812	-4.011	-1.974	-0.594	0.525	6.839	11.162	2.869	5.464	203.125
-3.799	-2.593	-5.052	-1.791	-0.234	-1.432	1.065	2.302	5.959	2.891	8.766	4.652	-2.027	-4.250	-2.851	-1.997	-0.928	-4.167	-1.102	-3.027	-4.337	-1.984	-0.567	0.488	6.967	11.328	2.836	5.424	207.031
-3.791	-2.595	-5.211	-1.745	-0.232	-1.365	1.012	2.654	6.383	2.919	9.111	4.601	-2.309	-4.566	-2.917	-2.080	-0.863	-4.327	-1.061	-3.227	-4.653	-2.035	-0.621	0.363	7.004	11.365	2.717	5.278	210.938
-3.793	-2.612	-5.273	-1.718	-0.262	-1.272	0.966	3.042	6.831	2.961	9.483	4.556	-2.593	-4.877	-3.014	-2.184	-0.842	-4.480	-1.060	-3.441	-4.972	-2.148	-0.759	0.161	6.998	11.332	2.538	5.085	214.844
-3.838	-2.677	-5.243	-1.746	-0.354	-1.182	0.917	3.438	7.282	3.013	9.870	4.555	-2.869	-5.184	-3.162	-2.341	-0.897	-4.614	-1.125	-3.692	-5.304	-2.332	-0.972	-0.094	6.999	11.291	2.334	4.911	218.750
-3.951	-2.818	-5.143	-1.862	-0.530	-1.127	0.855	3.815	7.716	3.071	10.261	4.628	-3.124	-5.483	-3.374	-2.573	-1.045	-4.720	-1.271	-3.996	-5.654	-2.587	-1.241	-0.372	7.049	11.293	2.142	4.816	222.656
-4.143	-3.044	-5.007	-2.077	-0.797	-1.132	0.778	4.155	8.121	3.134	10.648	4.798	-3.344	-5.768	-3.648	-2.885	-1.286	-4.792	-1.500	-4.355	-6.019	-2.904	-1.543	-0.644	7.172	11.368	1.994	4.847	226.562
-4.409	-3.346	-4.869	-2.383	-1.142	-1.203	0.686	4.450	8.489	3.204	11.024	5.068	-3.520	-6.034	-3.971	-3.268	-1.606	-4.830	-1.803	-4.760	-6.393	-3.269	-1.858	-0.888	7.367	11.525	1.908	5.022	230.469
-4.727	-3.697	-4.753	-2.750	-1.535	-1.328	0.589	4.698	8.818	3.281	11.377	5.426	-3.651	-6.275	-4.320	-3.695	-1.984	-4.837	-2.163	-5.189	-6.764	-3.667	-2.168	-1.092	7.614	11.743	1.888	5.333	234.375
-5.067	-4.054	-4.675	-3.133	-1.933	-1.479	0.496	4.906	9.107	3.364	11.696	5.838	-3.739	-6.487	-4.667	-4.133	-2.392	-4.815	-2.559	-5.616	-7.119	-4.078	-2.456	-1.253	7.877	11.985	1.923	5.741	238.281
-5.392	-4.373	-4.632	-3.478	-2.289	-1.618	0.418	5.079	9.353	3.447	11.967	6.260	-3.796	-6.672	-4.987	-4.545	-2.802	-4.772	-2.968	-6.014	-7.445	-4.485	-2.709	-1.376	8.116	12.203	1.989	6.190	242.188
-5.665	-4.610	-4.608	-3.740	-2.563	-1.710	0.363	5.224	9.549	3.522	12.171	6.638	-3.835	-6.831	-5.259	-4.903	-3.192	-4.713	-3.370	-6.360	-7.735	-4.864	-2.911	-1.468	8.299	12.352	2.060	6.612	246.094
-5.860	-4.739	-4.577	-3.885	-2.726	-1.727	0.337	5.342	9.686	3.578	12.296	6.925	-3.869	-6.968	-5.470	-5.188	-3.549	-4.642	-3.750	-6.643	-7.984	-5.195	-3.045	-1.536	8.405	12.399	2.111	6.944	250.000
-5.958	-4.752	-4.512	-3.905	-2.769	-1.662	0.341	5.435	9.757	3.604	12.334	7.084	-3.905	-7.083	-5.620	-5.398	-3.868	-4.563	-4.095	-6.861	-8.193	-5.456	-3.092	-1.580	8.434	12.330	2.126	7.139	253.906
-5.957	-4.662	-4.391	-3.811	-2.702	-1.520	0.373	5.498	9.760	3.599	12.290	7.101	-3.944	-7.178	-5.713	-5.548	-4.153	-4.480	-4.400	-7.025	-8.365	-5.626	-3.039	-1.595	8.397	12.150	2.104	7.172	257.812
-5.867	-4.505	-4.209	-3.640	-2.549	-1.325	0.431	5.533	9.702	3.566	12.179	6.984	-3.978	-7.249	-5.763	-5.661	-4.413	-4.395	-4.663	-7.153	-8.503	-5.693	-2.877	-1.571	8.321	11.887	2.055	7.048	261.719
-5.710	-4.326	-3.975	-3.438	-2.349	-1.107	0.511	5.541	9.603	3.521	12.033	6.765	-3.996	-7.293	-5.786	-5.770	-4.657	-4.307	-4.884	-7.266	-8.613	-5.654	-2.612	-1.497	8.232	11.576	1.997	6.794	265.625
-5.517	-4.172	-3.712	-3.255	-2.143	-0.900	0.609	5.525	9.492	3.482	11.893	6.492	-3.985	-7.308	-5.797	-5.901	-4.891	-4.220	-5.064	-7.382	-8.700	-5.514	-2.261	-1.367	8.154	11.259	1.954	6.457	269.531
-5.320	-4.085	-3.454	-3.132	-1.966	-0.731	0.722	5.493	9.405	3.473	11.802	6.219	-3.937	-7.295	-5.808	-6.075	-5.115	-4.137	-5.202	-7.516	-8.769	-5.294	-1.858	-1.183	8.102	10.972	1.941	6.092	273.438
-5.149	-4.084	-3.230	-3.095	-1.847	-0.621	0.845	5.454	9.374	3.512	11.799	5.998	-3.851	-7.262	-5.826	-6.298	-5.321	-4.062	-5.296	-7.673	-8.826	-5.023	-1.447	-0.961	8.079	10.740	1.967	5.750	277.344
-5.026	-4.170	-3.060	-3.146	-1.800	-0.576	0.973	5.415	9.425	3.609	11.909	5.869	-3.737	-7.222	-5.856	-6.558	-5.497	-4.007	-5.345	-7.848	-8.875	-4.734	-1.078	-0.728	8.079	10.577	2.030	5.477	281.250
-4.967	-4.324	-2.954	-3.271	-1.825	-0.595	1.097	5.384	9.568	3.765	12.138	5.857	-3.610	-7.187	-5.896	-6.833	-5.630	-3.979	-5.348	-8.027	-8.923	-4.468	-0.795	-0.516	8.085	10.482	2.116	5.304	285.156
-4.976	-4.517	-2.906	-3.440	-1.911	-0.668	1.210	5.363	9.793	3.970	12.474	5.968	-3.488	-7.174	-5.945	-7.091	-5.709	-3.987	-5.312	-8.193	-8.973	-4.257	-0.634	-0.357	8.083	10.447	2.211	5.249	289.062
-5.049	-4.714	-2.903	-3.621	-2.040	-0.782	1.305	5.358	10.079	4.207	12.887	6.193	-3.388	-7.192	-6.000	-7.304	-5.735	-4.033	-5.248	-8.331	-9.029	-4.130	-0.613	-0.275	8.059	10.463	2.299	5.319	292.969
-5.178	-4.891	-2.928	-3.785	-2.194	-0.922	1.377	5.368	10.389	4.453	13.336	6.515	-3.321	-7.248	-6.058	-7.453	-5.721	-4.110	-5.176	-8.432	-9.094	-4.103	-0.728	-0.280	8.009	10.519	2.371	5.513	296.875
-5.349	-5.033	-2.968	-3.914	-2.357	-1.076	1.423	5.391	10.685	4.688	13.775	6.909	-3.286	-7.339	-6.122	-7.534	-5.690	-4.202	-5.121	-8.496	-9.170	-4.178	-0.959	-0.367	7.943	10.612	2.428	5.823	300.781
-5.545	-5.140	-3.013	-4.005	-2.517	-1.237	1.445	5.423	10.930	4.894	14.163	7.349	-3.277	-7.457	-6.191	-7.559	-5.672	-4.288	-5.106	-8.534	-9.258	-4.343	-1.269	-0.516	7.879	10.739	2.481	6.235	304.688
-5.750	-5.227	-3.059	-4.069	-2.671	-1.398	1.445	5.455	11.094	5.061	14.465	7.805	-3.281	-7.590	-6.267	-7.553	-5.694	-4.344	-5.145	-8.561	-9.358	-4.575	-1.614	-0.696	7.844	10.902	2.545	6.729	308.594
-5.946	-5.309	-3.107	-4.121	-2.817	-1.556	1.428	5.477	11.159	5.181	14.656	8.247	-3.279	-7.721	-6.346	-7.545	-5.769	-4.348	-5.240	-8.595	-9.466	-4.838	-1.946	-0.869	7.864	11.097	2.636	7.274	312.500
-6.117	-5.405	-3.158	-4.182	-2.958	-1.713	1.400	5.478	11.119	5.254	14.722	8.644	-3.254	-7.829	-6.419	-7.557	-5.890	-4.287	-5.372	-8.645	-9.571	-5.090	-2.221	-1.001	7.955	11.313	2.766	7.831	316.406
-6.244	-5.525	-3.215	-4.262	-3.093	-1.868	1.365	5.445	10.977	5.282	14.654	8.961	-3.192	-7.896	-6.471	-7.597	-6.031	-4.156	-5.507	-8.711	-9.658	-5.286	-2.400	-1.061	8.118	11.528	2.934	8.351	320.312
-6.310	-5.670	-3.280	-4.364	-3.216	-2.020	1.329	5.371	10.748	5.267	14.452	9.166	-3.087	-7.903	-6.485	-7.657	-6.151	-3.964	-5.603	-8.780	-9.706	-5.389	-2.454	-1.035	8.334	11.713	3.129	8.781	324.219
-6.298	-5.829	-3.357	-4.476	-3.316	-2.165	1.297	5.252	10.453	5.215	14.125	9.233	-2.935	-7.836	-6.442	-7.717	-6.208	-3.731	-5.618	-8.828	-9.694	-5.368	-2.369	-0.921	8.568	11.830	3.329	9.070	328.125
-6.196	-5.983	-3.450	-4.580	-3.378	-2.293	1.278	5.097	10.116	5.131	13.688	9.149	-2.742	-7.689	-6.327	-7.746	-6.166	-3.483	-5.521	-8.828	-9.604	-5.213	-2.148	-0.731	8.770	11.845	3.507	9.182	332.031
-5.998	-6.106	-3.560	-4.648	-3.386	-2.389	1.282	4.922	9.768	5.024	13.167	8.914	-2.517	-7.461	-6.135	-7.716	-6.006	-3.252	-5.300	-8.756	-9.423	-4.927	-1.811	-0.489	8.891	11.730	3.637	9.097	335.938
-5.710	-6.175	-3.686	-4.659	-3.327	-2.442	1.317	4.748	9.437	4.907	12.597	8.547	-2.271	-7.163	-5.871	-7.608	-5.735	-3.066	-4.967	-8.598	-9.155	-4.535	-1.397	-0.227	8.891	11.470	3.699	8.822	339.844
-5.348	-6.166	-3.823	-4.596	-3.197	-2.442	1.392	4.600	9.146	4.792	12.022	8.084	-2.018	-6.814	-5.551	-7.414	-5.374	-2.946	-4.551	-8.354	-8.813	-4.073	-0.955	0.025	8.746	11.072	3.681	8.383	343.750
-4.942	-6.068	-3.957	-4.458	-3.000	-2.387	1.510	4.498	8.915	4.694	11.488	7.574	-1.771	-6.440	-5.202	-7.144	-4.964	-2.903	-4.096	-8.039	-8.422	-3.587	-0.539	0.236	8.457	10.560	3.586	7.830	347.656
-4.529	-5.884	-4.073	-4.257	-2.753	-2.282	1.667	4.452	8.754	4.624	11.037	7.068	-1.542	-6.070	-4.853	-6.821	-4.547	-2.936	-3.649	-7.678	-8.014	-3.125	-0.200	0.387	8.049	9.974	3.427	7.218	351.562
-4.144	-5.629	-4.153	-4.016	-2.481	-2.143	1.853	4.463	8.662	4.590	10.701	6.613	-1.341	-5.729	-4.533	-6.473	-4.161	-3.030	-3.252	-7.302	-7.622	-2.726	0.029	0.465	7.565	9.363	3.224	6.604	355.469
-3.816	-5.335	-4.183	-3.769	-2.213	-1.987	2.052	4.517	8.633	4.594	10.496	6.242	-1.177	-5.440	-4.263	-6.129	-3.835	-3.159	-2.931	-6.939	-7.272	-2.415	0.133	0.470	7.059	8.774	2.999	6.035	359.375
-3.565	-5.037	-4.155	-3.547	-1.976	-1.836	2.241	4.596	8.650	4.632	10.420	5.969	-1.054	-5.215	-4.055	-5.816	-3.582	-3.295	-2.696	-6.611	-6.982	-2.203	0.124	0.411	6.583	8.249	2.777	5.541	363.281
-3.395	-4.773	-4.071	-3.378	-1.796	-1.710	2.401	4.674	8.695	4.695	10.453	5.791	-0.974	-5.058	-3.908	-5.551	-3.404	-3.406	-2.541	-6.333	-6.757	-2.082	0.033	0.306	6.180	7.819	2.577	5.139	367.188
-3.301	-4.573	-3.944	-3.280	-1.687	-1.626	2.512	4.732	8.751	4.772	10.564	5.694	-0.933	-4.966	-3.817	-5.341	-3.291	-3.472	-2.446	-6.110	-6.597	-2.032	-0.095	0.180	5.880	7.501	2.417	4.830	371.094
-3.270	-4.458	-3.797	-3.259	-1.660	-1.595	2.565	4.756	8.805	4.849	10.716	5.655	-0.924	-4.926	-3.769	-5.190	-3.228	-3.482	-2.389	-5.946	-6.495	-2.028	-0.212	0.061	5.695	7.300	2.311	4.614	375.000
-3.290	-4.429	-3.659	-3.310	-1.712	-1.620	2.558	4.745	8.850	4.918	10.874	5.656	-0.933	-4.927	-3.753	-5.095	-3.197	-3.440	-2.350	-5.839	-6.443	-2.044	-0.281	-0.027	5.620	7.212	2.268	4.486	378.906
-3.348	-4.477	-3.561	-3.418	-1.837	-1.699	2.499	4.704	8.885	4.972	11.014	5.686	-0.946	-4.954	-3.756	-5.050	-3.184	-3.360	-2.316	-5.789	-6.435	-2.059	-0.277	-0.064	5.641	7.223	2.296	4.445	382.812
-3.435	-4.581	-3.524	-3.562	-2.021	-1.819	2.403	4.648	8.909	5.010	11.118	5.741	-0.946	-4.991	-3.772	-5.049	-3.177	-3.261	-2.281	-5.794	-6.463	-2.061	-0.195	-0.038	5.731	7.309	2.394	4.491	386.719
-3.543	-4.713	-3.552	-3.721	-2.244	-1.966	2.287	4.588	8.922	5.031	11.177	5.825	-0.917	-5.026	-3.794	-5.085	-3.169	-3.161	-2.250	-5.847	-6.519	-2.045	-0.048	0.050	5.860	7.441	2.556	4.622	390.625
-3.659	-4.847	-3.632	-3.875	-2.485	-2.122	2.169	4.532	8.915	5.036	11.186	5.939	-0.850	-5.045	-3.815	-5.147	-3.157	-3.072	-2.227	-5.935	-6.592	-2.013	0.142	0.191	5.994	7.584	2.766	4.828	394.531
-3.770	-4.958	-3.733	-4.006	-2.720	-2.269	2.059	4.480	8.873	5.023	11.141	6.079	-0.742	-5.037	-3.830	-5.221	-3.140	-2.995	-2.218	-6.040	-6.663	-1.969	0.347	0.365	6.099	7.698	3.000	5.087	398.438
-3.858	-5.027	-3.816	-4.098	-2.928	-2.390	1.965	4.423	8.778	4.985	11.029	6.229	-0.594	-4.992	-3.828	-5.287	-3.117	-2.921	-2.222	-6.131	-6.711	-1.914	0.543	0.550	6.143	7.742	3.226	5.364	402.344
-3.904	-5.038	-3.838	-4.139	-3.089	-2.472	1.884	4.346	8.608	4.912	10.836	6.360	-0.418	-4.898	-3.799	-5.323	-3.081	-2.836	-2.230	-6.176	-6.709	-1.847	0.710	0.721	6.101	7.678	3.409	5.613	406.250
-3.890	-4.977	-3.768	-4.116	-3.187	-2.505	1.808	4.233	8.344	4.792	10.542	6.435	-0.225	-4.751	-3.728	-5.302	-3.024	-2.722	-2.226	-6.142	-6.631	-1.762	0.841	0.857	5.954	7.480	3.519	5.783	410.156
-3.799	-4.835	-3.593	-4.019	-3.211	-2.484	1.729	4.067	7.977	4.614	10.129	6.412	-0.030	-4.544	-3.603	-5.200	-2.930	-2.565	-2.189	-5.999	-6.456	-1.649	0.936	0.945	5.693	7.129	3.531	5.825	414.062
-3.620	-4.608	-3.314	-3.840	-3.152	-2.408	1.640	3.842	7.507	4.371	9.587	6.252	0.155	-4.277	-3.411	-4.996	-2.786	-2.360	-2.098	-5.730	-6.168	-1.496	1.002	0.975	5.323	6.624	3.434	5.703	417.969
-3.347	-4.298	-2.953	-3.579	-3.010	-2.280	1.537	3.558	6.949	4.064	8.917	5.930	0.320	-3.953	-3.147	-4.680	-2.577	-2.108	-1.931	-5.330	-5.763	-1.292	1.054	0.951	4.857	5.977	3.229	5.395	421.875
-2.983	-3.918	-2.539	-3.240	-2.785	-2.103	1.424	3.224	6.323	3.700	8.133	5.432	0.458	-3.580	-2.809	-4.253	-2.294	-1.818	-1.677	-4.808	-5.251	-1.031	1.106	0.879	4.316	5.216	2.928	4.900	425.781
-2.539	-3.484	-2.106	-2.835	-2.485	-1.884	1.309	2.854	5.660	3.294	7.262	4.768	0.566	-3.172	-2.406	-3.731	-1.935	-1.505	-1.335	-4.191	-4.651	-0.715	1.174	0.773	3.729	4.379	2.552	4.237	429.688
-2.036	-3.017	-1.683	-2.385	-2.121	-1.628	1.203	2.471	4.990	2.863	6.343	3.966	0.643	-2.745	-1.954	-3.140	-1.511	-1.184	-0.916	-3.514	-3.995	-0.354	1.268	0.645	3.126	3.512	2.128	3.442	433.594
-1.503	-2.540	-1.293	-1.911	-1.712	-1.345	1.113	2.097	4.343	2.428	5.419	3.071	0.688	-2.320	-1.477	-2.516	-1.042	-0.868	-0.446	-2.824	-3.323	0.034	1.393	0.510	2.538	2.660	1.686	2.563	437.500
-0.974	-2.074	-0.953	-1.441	-1.278	-1.047	1.046	1.755	3.748	2.009	4.539	2.141	0.703	-1.920	-1.002	-1.900	-0.559	-0.569	0.040	-2.165	-2.675	0.422	1.551	0.380	1.995	1.867	1.254	1.658	441.406
-0.479	-1.635	-0.672	-0.998	-0.842	-0.749	1.004	1.465	3.225	1.625	3.747	1.241	0.692	-1.563	-0.558	-1.331	-0.098	-0.293	0.502	-1.578	-2.089	0.788	1.740	0.266	1.521	1.170	0.860	0.783	445.312
-0.048	-1.238	-0.457	-0.601	-0.428	-0.465	0.987	1.241	2.790	1.295	3.081	0.434	0.664	-1.264	-0.171	-0.843	0.305	-0.045	0.904	-1.094	-1.591	1.108	1.951	0.175	1.132	0.593	0.526	-0.006	449.219
0.303	-0.892	-0.314	-0.263	-0.052	-0.210	0.993	1.088	2.450	1.036	2.572	-0.224	0.628	-1.025	0.144	-0.459	0.619	0.168	1.220	-0.727	-1.195	1.370	2.174	0.115	0.835	0.150	0.269	-0.663	453.125
0.567	-0.598	-0.244	0.013	0.278	0.006	1.022	1.004	2.204	0.859	2.233	-0.696	0.602	-0.842	0.378	-0.188	0.828	0.339	1.436	-0.475	-0.899	1.566	2.389	0.091	0.628	-0.157	0.099	-1.153	457.031
0.746	-0.357	-0.245	0.230	0.561	0.177	1.075	0.974	2.045	0.773	2.066	-0.965	0.600	-0.700	0.536	-0.026	0.931	0.462	1.557	-0.320	-0.688	1.702	2.578	0.108	0.497	-0.340	0.020	-1.459	460.938
0.851	-0.160	-0.310	0.400	0.802	0.303	1.154	0.976	1.952	0.776	2.054	-1.036	0.642	-0.581	0.632	0.045	0.946	0.532	1.602	-0.233	-0.537	1.789	2.718	0.166	0.419	-0.416	0.028	-1.579	464.844
0.895	0.002	-0.428	0.537	1.013	0.388	1.258	0.980	1.903	0.862	2.164	-0.934	0.741	-0.466	0.688	0.055	0.906	0.548	1.598	-0.181	-0.419	1.843	2.796	0.265	0.369	-0.408	0.114	-1.527	468.750
0.892	0.139	-0.587	0.656	1.200	0.438	1.383	0.955	1.867	1.011	2.353	-0.698	0.903	-0.338	0.725	0.035	0.855	0.515	1.579	-0.134	-0.310	1.883	2.810	0.405	0.327	-0.339	0.265	-1.331	472.656
0.854	0.258	-0.774	0.765	1.368	0.459	1.523	0.876	1.817	1.201	2.572	-0.377	1.129	-0.188	0.766	0.018	0.831	0.439	1.576	-0.070	-0.192	1.927	2.770	0.583	0.276	-0.227	0.469	-1.026	476.562
0.793	0.363	-0.979	0.869	1.516	0.457	1.666	0.727	1.730	1.404	2.772	-0.020	1.408	-0.013	0.825	0.027	0.865	0.333	1.610	0.023	-0.058	1.989	2.701	0.792	0.210	-0.090	0.707	-0.656	480.469
0.721	0.453	-1.193	0.963	1.640	0.435	1.800	0.509	1.593	1.591	2.908	0.324	1.723	0.186	0.909	0.080	0.971	0.208	1.696	0.147	0.095	2.080	2.636	1.026	0.131	0.057	0.963	-0.267	484.375
0.654	0.528	-1.407	1.043	1.736	0.393	1.912	0.237	1.403	1.737	2.946	0.614	2.050	0.400	1.020	0.181	1.146	0.081	1.835	0.296	0.263	2.202	2.606	1.268	0.047	0.201	1.212	0.098	488.281
0.610	0.589	-1.608	1.102	1.801	0.336	1.991	-0.061	1.167	1.822	2.867	0.817	2.363	0.623	1.154	0.330	1.378	-0.031	2.022	0.464	0.442	2.353	2.636	1.501	-0.034	0.323	1.430	0.394	492.188
0.607	0.640	-1.782	1.141	1.840	0.270	2.029	-0.353	0.901	1.835	2.663	0.907	2.637	0.843	1.306	0.519	1.645	-0.112	2.246	0.645	0.629	2.524	2.735	1.699	-0.106	0.404	1.588	0.583	496.094
0.663	0.690	-1.917	1.165	1.864	0.208	2.023	-0.606	0.622	1.770	2.340	0.870	2.848	1.051	1.474	0.743	1.928	-0.145	2.494	0.837	0.826	2.703	2.901	1.838	-0.169	0.421	1.662	0.635	500.000
0.791	0.752	-2.000	1.187	1.888	0.166	1.974	-0.795	0.348	1.628	1.912	0.697	2.980	1.238	1.656	0.994	2.210	-0.117	2.752	1.043	1.033	2.875	3.116	1.895	-0.227	0.355	1.630	0.530	503.906
0.995	0.841	-2.022	1.225	1.927	0.161	1.885	-0.905	0.093	1.415	1.402	0.391	3.022	1.397	1.849	1.265	2.482	-0.020	3.010	1.266	1.251	3.031	3.358	1.858	-0.288	0.194	1.480	0.263	507.812
1.267	0.968	-1.976	1.296	1.996	0.207	1.764	-0.937	-0.135	1.143	0.842	-0.039	2.972	1.520	2.054	1.553	2.740	0.149	3.258	1.509	1.479	3.161	3.605	1.724	-0.361	-0.067	1.210	-0.159	511.719
1.594	1.142	-1.862	1.412	2.100	0.307	1.620	-0.902	-0.331	0.827	0.265	-0.572	2.835	1.605	2.269	1.851	2.987	0.386	3.490	1.770	1.710	3.264	3.839	1.503	-0.455	-0.420	0.831	-0.714	515.625
1.950	1.365	-1.688	1.579	2.237	0.456	1.462	-0.822	-0.491	0.487	-0.289	-1.179	2.625	1.649	2.488	2.155	3.224	0.674	3.700	2.042	1.936	3.344	4.050	1.216	-0.574	-0.849	0.366	-1.367	519.531
2.308	1.630	-1.471	1.793	2.399	0.640	1.303	-0.717	-0.609	0.147	-0.778	-1.824	2.362	1.656	2.703	2.455	3.453	0.988	3.882	2.311	2.146	3.408	4.231	0.894	-0.720	-1.326	-0.154	-2.073	523.438
2.638	1.920	-1.235	2.038	2.572	0.839	1.156	-0.604	-0.677	-0.167	-1.161	-2.462	2.073	1.631	2.904	2.741	3.670	1.293	4.032	2.563	2.326	3.462	4.379	0.568	-0.887	-1.817	-0.690	-2.782	527.344
2.916	2.212	-1.010	2.294	2.743	1.033	1.036	-0.492	-0.687	-0.427	-1.405	-3.047	1.785	1.583	3.077	2.999	3.868	1.556	4.144	2.780	2.467	3.514	4.489	0.270	-1.069	-2.286	-1.198	-3.438	531.250
3.121	2.480	-0.826	2.536	2.897	1.206	0.954	-0.383	-0.631	-0.611	-1.488	-3.532	1.528	1.519	3.209	3.213	4.034	1.742	4.211	2.946	2.561	3.563	4.556	0.025	-1.252	-2.695	-1.639	-3.989	535.156
3.244	2.695	-0.709	2.739	3.026	1.349	0.921	-0.278	-0.508	-0.703	-1.407	-3.877	1.324	1.449	3.291	3.367	4.152	1.830	4.226	3.053	2.604	3.605	4.572	-0.148	-1.423	-3.013	-1.976	-4.389	539.062
3.283	2.837	-0.674	2.886	3.128	1.455	0.940	-0.173	-0.330	-0.698	-1.178	-4.053	1.190	1.382	3.315	3.450	4.206	1.812	4.185	3.093	2.598	3.636	4.531	-0.239	-1.565	-3.214	-2.181	-4.603	542.969
3.245	2.894	-0.725	2.968	3.203	1.525	1.008	-0.075	-0.118	-0.602	-0.838	-4.048	1.137	1.324	3.283	3.455	4.184	1.697	4.085	3.069	2.548	3.648	4.433	-0.248	-1.660	-3.283	-2.239	-4.608	546.875
3.145	2.869	-0.857	2.987	3.260	1.562	1.114	0.010	0.096	-0.433	-0.439	-3.870	1.167	1.283	3.201	3.384	4.085	1.504	3.932	2.989	2.465	3.640	4.282	-0.178	-1.696	-3.219	-2.147	-4.402	550.781
3.001	2.775	-1.051	2.956	3.304	1.571	1.246	0.067	0.277	-0.216	-0.040	-3.543	1.273	1.264	3.082	3.248	3.914	1.264	3.738	2.866	2.362	3.612	4.093	-0.040	-1.661	-3.031	-1.916	-4.001	554.688
2.834	2.635	-1.283	2.892	3.344	1.556	1.387	0.082	0.390	0.021	0.302	-3.107	1.445	1.273	2.944	3.068	3.689	1.007	3.523	2.717	2.253	3.572	3.885	0.156	-1.556	-2.741	-1.565	-3.440	558.594
2.663	2.474	-1.526	2.810	3.380	1.522	1.525	0.044	0.415	0.252	0.543	-2.609	1.669	1.312	2.803	2.863	3.434	0.763	3.309	2.555	2.148	3.530	3.685	0.397	-1.385	-2.376	-1.123	-2.769	562.500
2.499	2.315	-1.752	2.720	3.409	1.471	1.651	-0.053	0.345	0.456	0.660	-2.095	1.931	1.381	2.674	2.656	3.173	0.551	3.122	2.391	2.056	3.498	3.515	0.670	-1.165	-1.972	-0.624	-2.046	566.406
2.352	2.170	-1.937	2.626	3.421	1.404	1.758	-0.203	0.191	0.620	0.652	-1.607	2.213	1.476	2.564	2.460	2.931	0.385	2.977	2.233	1.979	3.485	3.395	0.960	-0.916	-1.560	-0.102	-1.328	570.312
2.224	2.043	-2.065	2.522	3.404	1.318	1.845	-0.395	-0.023	0.738	0.540	-1.175	2.500	1.590	2.478	2.284	2.724	0.267	2.886	2.081	1.919	3.494	3.333	1.256	-0.664	-1.170	0.409	-0.670	574.219
2.114	1.932	-2.127	2.404	3.349	1.214	1.911	-0.610	-0.261	0.813	0.359	-0.820	2.778	1.716	2.412	2.132	2.561	0.196	2.847	1.939	1.874	3.527	3.329	1.542	-0.434	-0.827	0.879	-0.116	578.125
2.023	1.829	-2.129	2.268	3.255	1.093	1.957	-0.824	-0.487	0.851	0.150	-0.552	3.036	1.846	2.366	2.003	2.444	0.166	2.852	1.808	1.845	3.578	3.371	1.802	-0.247	-0.548	1.281	0.304	582.031
1.952	1.733	-2.087	2.117	3.128	0.963	1.985	-1.013	-0.669	0.860	-0.048	-0.371	3.262	1.971	2.336	1.900	2.372	0.166	2.891	1.695	1.833	3.639	3.441	2.020	-0.122	-0.346	1.592	0.574	585.938
1.906	1.644	-2.026	1.966	2.987	0.835	1.997	-1.158	-0.783	0.850	-0.205	-0.276	3.446	2.086	2.324	1.824	2.342	0.188	2.951	1.610	1.843	3.700	3.517	2.179	-0.071	-0.229	1.797	0.691	589.844
1.892	1.571	-1.973	1.838	2.856	0.724	1.995	-1.247	-0.820	0.828	-0.306	-0.261	3.579	2.185	2.333	1.786	2.354	0.219	3.022	1.568	1.882	3.753	3.579	2.267	-0.100	-0.202	1.884	0.663	593.750
1.917	1.525	-1.955	1.755	2.760	0.644	1.981	-1.274	-0.781	0.800	-0.347	-0.317	3.654	2.264	2.366	1.796	2.406	0.250	3.100	1.583	1.954	3.789	3.611	2.273	-0.207	-0.263	1.851	0.508	597.656
1.983	1.520	-1.986	1.738	2.717	0.607	1.957	-1.243	-0.678	0.766	-0.336	-0.437	3.667	2.322	2.426	1.864	2.495	0.272	3.182	1.663	2.058	3.805	3.606	2.197	-0.385	-0.408	1.705	0.253	601.562
2.088	1.561	-2.071	1.796	2.738	0.618	1.925	-1.162	-0.526	0.728	-0.286	-0.609	3.617	2.353	2.511	1.992	2.615	0.278	3.266	1.806	2.188	3.798	3.569	2.044	-0.618	-0.624	1.460	-0.070	605.469
2.221	1.649	-2.199	1.926	2.819	0.678	1.889	-1.041	-0.341	0.684	-0.211	-0.818	3.507	2.356	2.612	2.172	2.758	0.265	3.350	1.999	2.329	3.771	3.511	1.828	-0.883	-0.893	1.142	-0.429	609.375
2.365	1.775	-2.347	2.110	2.946	0.784	1.855	-0.891	-0.137	0.634	-0.124	-1.050	3.346	2.328	2.716	2.384	2.910	0.234	3.428	2.215	2.462	3.727	3.448	1.569	-1.155	-1.191	0.778	-0.794	613.281
2.499	1.922	-2.485	2.321	3.098	0.928	1.828	-0.717	0.075	0.579	-0.032	-1.286	3.149	2.268	2.806	2.597	3.054	0.191	3.493	2.422	2.567	3.673	3.394	1.291	-1.405	-1.490	0.404	-1.137	617.188
2.603	2.069	-2.582	2.523	3.250	1.096	1.814	-0.522	0.287	0.523	0.065	-1.506	2.935	2.178	2.864	2.779	3.174	0.142	3.537	2.585	2.625	3.614	3.362	1.021	-1.610	-1.763	0.053	-1.436	621.094
2.661	2.190	-2.612	2.685	3.379	1.273	1.818	-0.309	0.494	0.473	0.171	-1.690	2.725	2.066	2.878	2.896	3.251	0.096	3.548	2.676	2.625	3.556	3.356	0.784	-1.748	-1.984	-0.243	-1.672	625.000
2.664	2.262	-2.566	2.778	3.464	1.440	1.841	-0.083	0.690	0.438	0.293	-1.815	2.542	1.942	2.838	2.926	3.269	0.055	3.518	2.677	2.568	3.502	3.373	0.601	-1.805	-2.130	-0.456	-1.828	628.906
2.613	2.268	-2.450	2.784	3.495	1.576	1.883	0.145	0.868	0.429	0.438	-1.862	2.408	1.821	2.742	2.857	3.217	0.020	3.440	2.585	2.461	3.454	3.406	0.493	-1.773	-2.183	-0.565	-1.888	632.812
2.516	2.201	-2.292	2.700	3.464	1.662	1.937	0.359	1.019	0.453	0.609	-1.816	2.339	1.719	2.598	2.694	3.088	-0.015	3.315	2.414	2.322	3.414	3.448	0.471	-1.651	-2.133	-0.554	-1.841	636.719
2.386	2.065	-2.132	2.535	3.375	1.682	1.994	0.535	1.129	0.518	0.802	-1.670	2.346	1.650	2.420	2.458	2.887	-0.057	3.150	2.187	2.172	3.383	3.493	0.542	-1.445	-1.976	-0.421	-1.680	640.625
2.238	1.873	-2.019	2.309	3.235	1.628	2.046	0.646	1.184	0.621	1.004	-1.429	2.433	1.622	2.227	2.179	2.629	-0.115	2.959	1.937	2.032	3.362	3.540	0.705	-1.170	-1.718	-0.168	-1.405	644.531
2.085	1.645	-1.992	2.049	3.055	1.501	2.083	0.669	1.172	0.757	1.194	-1.108	2.598	1.641	2.041	1.892	2.343	-0.189	2.765	1.697	1.922	3.354	3.591	0.953	-0.847	-1.377	0.185	-1.029	648.438
1.936	1.405	-2.078	1.785	2.851	1.311	2.098	0.587	1.082	0.913	1.350	-0.738	2.829	1.705	1.884	1.632	2.061	-0.278	2.589	1.496	1.852	3.361	3.650	1.267	-0.505	-0.980	0.612	-0.576	652.344
1.794	1.174	-2.279	1.540	2.639	1.073	2.090	0.397	0.913	1.074	1.448	-0.352	3.111	1.809	1.772	1.428	1.819	-0.370	2.452	1.353	1.827	3.385	3.723	1.626	-0.171	-0.564	1.079	-0.081	656.250
1.658	0.967	-2.572	1.333	2.431	0.807	2.059	0.110	0.674	1.222	1.476	0.010	3.423	1.942	1.714	1.294	1.650	-0.451	2.368	1.272	1.845	3.424	3.810	2.001	0.125	-0.169	1.546	0.417	660.156
1.526	0.797	-2.916	1.171	2.240	0.533	2.008	-0.249	0.381	1.342	1.426	0.314	3.741	2.090	1.712	1.235	1.573	-0.505	2.342	1.250	1.895	3.475	3.908	2.364	0.361	0.167	1.977	0.874	664.062
1.396	0.669	-3.253	1.052	2.068	0.266	1.941	-0.645	0.064	1.422	1.307	0.536	4.040	2.239	1.758	1.241	1.597	-0.519	2.371	1.269	1.961	3.532	4.007	2.686	0.526	0.413	2.341	1.254	667.969
1.269	0.585	-3.526	0.970	1.917	0.018	1.859	-1.034	-0.246	1.454	1.136	0.663	4.298	2.372	1.836	1.296	1.711	-0.489	2.443	1.310	2.026	3.586	4.096	2.942	0.616	0.550	2.612	1.528	671.875
1.151	0.548	-3.691	0.915	1.781	-0.200	1.764	-1.374	-0.514	1.439	0.936	0.695	4.492	2.472	1.928	1.382	1.892	-0.422	2.537	1.355	2.072	3.626	4.159	3.115	0.640	0.573	2.779	1.682	675.781
1.052	0.558	-3.724	0.881	1.657	-0.381	1.657	-1.629	-0.714	1.380	0.732	0.645	4.608	2.526	2.015	1.480	2.105	-0.334	2.634	1.389	2.088	3.641	4.186	3.194	0.612	0.490	2.838	1.714	679.688
0.984	0.616	-3.630	0.866	1.543	-0.516	1.537	-1.776	-0.829	1.285	0.546	0.530	4.637	2.526	2.080	1.580	2.312	-0.246	2.711	1.407	2.066	3.620	4.168	3.174	0.548	0.319	2.792	1.634	683.594
0.959	0.721	-3.439	0.871	1.439	-0.600	1.408	-1.809	-0.853	1.167	0.393	0.373	4.581	2.472	2.116	1.673	2.478	-0.178	2.753	1.411	2.012	3.560	4.104	3.062	0.462	0.087	2.656	1.462	687.500
0.981	0.864	-3.198	0.899	1.350	-0.633	1.275	-1.736	-0.795	1.039	0.280	0.200	4.451	2.372	2.119	1.757	2.579	-0.147	2.750	1.408	1.934	3.459	3.996	2.868	0.366	-0.180	2.446	1.227	691.406
1.049	1.031	-2.962	0.948	1.280	-0.618	1.148	-1.578	-0.672	0.915	0.211	0.032	4.266	2.241	2.096	1.832	2.605	-0.159	2.701	1.409	1.850	3.324	3.855	2.614	0.264	-0.454	2.186	0.962	695.312
1.152	1.197	-2.778	1.011	1.231	-0.568	1.038	-1.364	-0.505	0.810	0.186	-0.108	4.053	2.098	2.054	1.895	2.564	-0.208	2.614	1.421	1.775	3.167	3.692	2.326	0.157	-0.714	1.903	0.703	699.219
1.271	1.339	-2.675	1.077	1.205	-0.498	0.960	-1.126	-0.317	0.739	0.202	-0.200	3.840	1.966	2.005	1.945	2.470	-0.281	2.500	1.448	1.722	3.003	3.521	2.030	0.043	-0.940	1.625	0.482	703.125
1.382	1.433	-2.658	1.134	1.196	-0.426	0.921	-0.895	-0.127	0.712	0.259	-0.227	3.656	1.859	1.956	1.977	2.343	-0.359	2.372	1.486	1.698	2.844	3.354	1.756	-0.080	-1.119	1.377	0.331	707.031
1.462	1.464	-2.714	1.172	1.198	-0.368	0.926	-0.697	0.047	0.735	0.357	-0.179	3.521	1.789	1.911	1.984	2.201	-0.424	2.238	1.527	1.700	2.704	3.203	1.527	-0.212	-1.244	1.185	0.270	710.938
1.494	1.428	-2.812	1.184	1.203	-0.337	0.971	-0.549	0.192	0.808	0.494	-0.053	3.452	1.758	1.868	1.961	2.053	-0.467	2.101	1.558	1.721	2.591	3.079	1.361	-0.346	-1.309	1.064	0.309	714.844
1.473	1.331	-2.915	1.167	1.200	-0.337	1.044	-0.462	0.297	0.921	0.664	0.145	3.451	1.762	1.820	1.903	1.898	-0.487	1.963	1.566	1.745	2.509	2.987	1.270	-0.471	-1.311	1.025	0.448	718.750
1.403	1.190	-2.989	1.124	1.183	-0.365	1.129	-0.438	0.357	1.060	0.856	0.398	3.513	1.790	1.758	1.805	1.728	-0.491	1.820	1.540	1.758	2.457	2.931	1.256	-0.573	-1.251	1.066	0.671	722.656
1.300	1.029	-3.009	1.062	1.147	-0.410	1.209	-0.472	0.366	1.205	1.053	0.680	3.625	1.829	1.678	1.671	1.533	-0.491	1.671	1.474	1.745	2.432	2.909	1.315	-0.638	-1.134	1.179	0.954	726.562
1.183	0.870	-2.964	0.988	1.093	-0.457	1.267	-0.553	0.326	1.335	1.231	0.960	3.767	1.868	1.575	1.504	1.310	-0.500	1.521	1.368	1.698	2.431	2.916	1.432	-0.654	-0.966	1.346	1.268	730.469
1.071	0.735	-2.856	0.910	1.025	-0.488	1.295	-0.665	0.241	1.431	1.367	1.207	3.918	1.896	1.454	1.318	1.066	-0.526	1.375	1.230	1.616	2.445	2.940	1.590	-0.617	-0.762	1.545	1.577	734.375
0.981	0.640	-2.702	0.837	0.950	-0.494	1.289	-0.789	0.120	1.483	1.440	1.394	4.062	1.910	1.324	1.129	0.818	-0.574	1.247	1.073	1.506	2.469	2.968	1.766	-0.531	-0.537	1.754	1.851	738.281
0.921	0.590	-2.532	0.771	0.877	-0.468	1.254	-0.906	-0.025	1.490	1.440	1.502	4.187	1.911	1.199	0.957	0.591	-0.644	1.150	0.918	1.384	2.498	2.987	1.942	-0.406	-0.313	1.951	2.062	742.188
0.894	0.582	-2.377	0.715	0.813	-0.418	1.201	-1.000	-0.176	1.458	1.369	1.524	4.288	1.904	1.093	0.822	0.415	-0.733	1.094	0.783	1.268	2.527	2.988	2.099	-0.260	-0.111	2.121	2.194	746.094
0.896	0.605	-2.267	0.666	0.762	-0.355	1.143	-1.055	-0.314	1.406	1.239	1.467	4.369	1.899	1.021	0.738	0.314	-0.838	1.087	0.689	1.178	2.556	2.971	2.226	-0.112	0.046	2.253	2.237	750.000
0.923	0.642	-2.227	0.618	0.728	-0.294	1.097	-1.066	-0.422	1.354	1.073	1.347	4.437	1.903	0.990	0.715	0.301	-0.951	1.132	0.647	1.129	2.584	2.941	2.321	0.019	0.140	2.344	2.194	753.906
0.971	0.672	-2.267	0.566	0.707	-0.250	1.077	-1.030	-0.485	1.321	0.899	1.186	4.501	1.924	1.004	0.750	0.374	-1.064	1.221	0.660	1.129	2.614	2.909	2.384	0.115	0.161	2.396	2.073	757.812
1.034	0.682	-2.383	0.506	0.698	-0.232	1.090	-0.954	-0.494	1.322	0.741	1.008	4.568	1.966	1.058	0.831	0.516	-1.169	1.339	0.722	1.174	2.646	2.886	2.421	0.167	0.104	2.413	1.892	761.719
1.110	0.663	-2.555	0.440	0.695	-0.239	1.142	-0.846	-0.449	1.361	0.620	0.832	4.644	2.027	1.142	0.941	0.695	-1.257	1.467	0.817	1.255	2.681	2.882	2.438	0.169	-0.028	2.403	1.666	765.625
1.200	0.620	-2.746	0.374	0.699	-0.263	1.230	-0.719	-0.358	1.431	0.544	0.671	4.725	2.104	1.240	1.055	0.869	-1.320	1.578	0.923	1.354	2.717	2.897	2.440	0.120	-0.227	2.370	1.411	769.531
1.306	0.574	-2.908	0.322	0.709	-0.287	1.348	-0.584	-0.238	1.518	0.510	0.523	4.806	2.189	1.336	1.151	0.997	-1.353	1.648	1.018	1.454	2.751	2.927	2.430	0.027	-0.485	2.314	1.135	773.438
1.433	0.552	-2.987	0.304	0.731	-0.290	1.486	-0.444	-0.105	1.599	0.506	0.378	4.874	2.276	1.413	1.213	1.045	-1.355	1.657	1.084	1.537	2.778	2.960	2.405	-0.104	-0.793	2.234	0.840	777.344
1.587	0.584	-2.942	0.338	0.774	-0.251	1.634	-0.300	0.024	1.652	0.516	0.219	4.921	2.355	1.460	1.229	0.991	-1.327	1.592	1.108	1.594	2.791	2.979	2.364	-0.264	-1.145	2.125	0.523	781.250
1.774	0.695	-2.745	0.438	0.843	-0.154	1.786	-0.146	0.137	1.663	0.521	0.029	4.938	2.422	1.472	1.199	0.830	-1.277	1.452	1.085	1.617	2.788	2.972	2.303	-0.443	-1.533	1.986	0.180	785.156
1.993	0.894	-2.399	0.605	0.941	0.004	1.934	0.022	0.229	1.624	0.509	-0.200	4.924	2.475	1.450	1.128	0.571	-1.212	1.245	1.020	1.609	2.768	2.932	2.223	-0.633	-1.952	1.816	-0.191	789.062
2.241	1.168	-1.934	0.828	1.064	0.217	2.077	0.205	0.301	1.544	0.475	-0.469	4.884	2.515	1.402	1.027	0.239	-1.140	0.990	0.923	1.578	2.734	2.861	2.127	-0.827	-2.393	1.621	-0.590	792.969
2.505	1.488	-1.402	1.082	1.200	0.461	2.215	0.398	0.360	1.436	0.424	-0.765	4.828	2.547	1.339	0.912	-0.131	-1.067	0.710	0.809	1.533	2.691	2.769	2.024	-1.021	-2.843	1.413	-1.006	796.875
