FP1	F3	F7	FC3	C3	C5	P3	P7	PO7	PO3	O1	Oz	Pz	CPz	FP2	Fz	F4	F8	FC4	FCz	Cz	C4	C6	P4	P8	PO8	PO4	O2	time
-0.763	-0.970	0.844	-0.988	-1.185	-0.409	-0.220	-0.607	0.225	0.094	0.931	0.150	0.505	0.737	-0.181	-1.007	-0.125	1.186	-0.342	-0.538	0.219	0.990	0.673	1.029	0.098	-0.108	0.292	-0.463	-199.219
-0.821	-0.962	0.261	-0.964	-0.946	-0.475	0.076	-0.509	0.227	0.286	0.942	0.318	0.699	0.879	-0.160	-0.887	-0.102	0.877	-0.250	-0.485	0.281	0.785	0.398	1.040	0.172	0.140	0.397	-0.264	-195.312
-0.873	-0.961	-0.264	-0.943	-0.719	-0.518	0.354	-0.397	0.241	0.469	0.963	0.481	0.866	0.987	-0.154	-0.790	-0.103	0.579	-0.187	-0.451	0.317	0.578	0.132	1.043	0.247	0.380	0.499	-0.066	-191.406
-0.905	-0.967	-0.681	-0.923	-0.516	-0.519	0.593	-0.264	0.276	0.631	0.990	0.628	0.984	1.039	-0.171	-0.722	-0.142	0.305	-0.171	-0.443	0.315	0.374	-0.123	1.029	0.325	0.597	0.593	0.120	-187.500
-0.905	-0.978	-0.959	-0.901	-0.344	-0.473	0.778	-0.105	0.331	0.758	1.016	0.744	1.039	1.024	-0.209	-0.688	-0.223	0.068	-0.206	-0.459	0.271	0.180	-0.362	0.991	0.405	0.779	0.673	0.283	-183.594
-0.864	-0.991	-1.093	-0.873	-0.211	-0.384	0.895	0.072	0.402	0.839	1.029	0.817	1.027	0.946	-0.262	-0.681	-0.337	-0.122	-0.284	-0.492	0.195	0.007	-0.579	0.928	0.482	0.909	0.731	0.408	-179.688
-0.777	-0.999	-1.097	-0.837	-0.117	-0.269	0.938	0.252	0.478	0.866	1.010	0.831	0.955	0.821	-0.316	-0.687	-0.465	-0.256	-0.386	-0.524	0.104	-0.129	-0.764	0.839	0.550	0.972	0.758	0.479	-175.781
-0.640	-0.992	-0.998	-0.785	-0.060	-0.149	0.908	0.417	0.542	0.832	0.944	0.777	0.837	0.674	-0.352	-0.686	-0.578	-0.328	-0.483	-0.535	0.023	-0.213	-0.907	0.727	0.598	0.953	0.747	0.481	-171.875
-0.454	-0.958	-0.830	-0.710	-0.032	-0.043	0.810	0.543	0.576	0.738	0.816	0.650	0.692	0.535	-0.351	-0.654	-0.644	-0.334	-0.543	-0.502	-0.021	-0.232	-0.995	0.599	0.614	0.844	0.691	0.405	-167.969
-0.226	-0.882	-0.629	-0.603	-0.021	0.036	0.658	0.613	0.565	0.587	0.624	0.451	0.542	0.430	-0.296	-0.570	-0.638	-0.276	-0.542	-0.406	-0.009	-0.180	-1.017	0.459	0.588	0.641	0.587	0.247	-164.062
0.033	-0.756	-0.424	-0.460	-0.013	0.085	0.469	0.617	0.502	0.392	0.371	0.194	0.403	0.374	-0.183	-0.424	-0.543	-0.162	-0.465	-0.242	0.069	-0.060	-0.969	0.315	0.514	0.351	0.437	0.013	-160.156
0.304	-0.577	-0.238	-0.282	0.005	0.107	0.265	0.557	0.390	0.170	0.079	-0.099	0.288	0.372	-0.015	-0.219	-0.364	-0.005	-0.315	-0.017	0.207	0.112	-0.850	0.172	0.393	-0.008	0.250	-0.280	-156.250
0.563	-0.354	-0.088	-0.078	0.040	0.114	0.069	0.448	0.245	-0.055	-0.223	-0.398	0.201	0.412	0.188	0.025	-0.123	0.175	-0.110	0.244	0.384	0.310	-0.668	0.036	0.233	-0.409	0.041	-0.603	-152.344
0.784	-0.107	0.020	0.133	0.094	0.117	-0.098	0.312	0.093	-0.256	-0.497	-0.667	0.143	0.475	0.397	0.276	0.143	0.356	0.116	0.502	0.566	0.503	-0.440	-0.088	0.049	-0.818	-0.173	-0.924	-148.438
0.944	0.138	0.087	0.326	0.163	0.126	-0.218	0.178	-0.037	-0.408	-0.704	-0.872	0.108	0.535	0.580	0.490	0.386	0.516	0.324	0.715	0.716	0.658	-0.187	-0.195	-0.143	-1.199	-0.370	-1.207	-144.531
1.026	0.349	0.118	0.477	0.237	0.142	-0.277	0.071	-0.116	-0.491	-0.813	-0.988	0.088	0.568	0.704	0.629	0.557	0.637	0.474	0.841	0.799	0.745	0.064	-0.279	-0.323	-1.515	-0.530	-1.420	-140.625
1.026	0.500	0.125	0.564	0.304	0.166	-0.272	0.010	-0.127	-0.493	-0.807	-1.001	0.078	0.559	0.749	0.663	0.618	0.704	0.538	0.855	0.795	0.746	0.283	-0.336	-0.475	-1.738	-0.639	-1.538	-136.719
0.951	0.572	0.120	0.574	0.354	0.191	-0.205	0.003	-0.065	-0.414	-0.690	-0.916	0.072	0.500	0.703	0.578	0.549	0.712	0.500	0.747	0.698	0.660	0.445	-0.363	-0.584	-1.845	-0.689	-1.551	-132.812
0.817	0.558	0.116	0.506	0.380	0.212	-0.090	0.049	0.062	-0.268	-0.481	-0.752	0.066	0.399	0.572	0.381	0.355	0.660	0.368	0.530	0.520	0.498	0.534	-0.360	-0.641	-1.826	-0.677	-1.461	-128.906
0.646	0.463	0.121	0.371	0.379	0.227	0.055	0.136	0.229	-0.080	-0.218	-0.537	0.059	0.267	0.374	0.098	0.062	0.554	0.162	0.232	0.287	0.286	0.544	-0.326	-0.639	-1.679	-0.608	-1.282	-125.000
0.460	0.306	0.136	0.190	0.354	0.236	0.206	0.245	0.406	0.118	0.057	-0.306	0.047	0.119	0.135	-0.232	-0.287	0.405	-0.083	-0.106	0.029	0.056	0.487	-0.266	-0.580	-1.415	-0.493	-1.035	-121.094
0.280	0.112	0.157	-0.009	0.309	0.241	0.338	0.354	0.564	0.294	0.304	-0.089	0.027	-0.031	-0.115	-0.567	-0.639	0.224	-0.327	-0.442	-0.222	-0.160	0.385	-0.184	-0.469	-1.052	-0.342	-0.744	-117.188
0.116	-0.088	0.174	-0.196	0.252	0.246	0.428	0.443	0.677	0.419	0.493	0.095	-0.002	-0.173	-0.350	-0.863	-0.945	0.027	-0.539	-0.737	-0.442	-0.334	0.263	-0.091	-0.317	-0.618	-0.168	-0.436	-113.281
-0.024	-0.264	0.179	-0.344	0.191	0.254	0.461	0.500	0.733	0.476	0.609	0.236	-0.046	-0.303	-0.546	-1.089	-1.167	-0.171	-0.696	-0.965	-0.617	-0.453	0.151	0.002	-0.139	-0.143	0.014	-0.130	-109.375
-0.143	-0.396	0.166	-0.434	0.132	0.269	0.430	0.518	0.730	0.458	0.650	0.337	-0.106	-0.422	-0.693	-1.227	-1.286	-0.356	-0.790	-1.114	-0.741	-0.514	0.065	0.083	0.044	0.337	0.192	0.154	-105.469
-0.245	-0.468	0.138	-0.458	0.079	0.290	0.337	0.501	0.680	0.371	0.628	0.406	-0.181	-0.530	-0.787	-1.271	-1.301	-0.511	-0.826	-1.184	-0.820	-0.527	0.014	0.139	0.215	0.784	0.351	0.404	-101.562
-0.335	-0.478	0.104	-0.417	0.033	0.317	0.193	0.457	0.595	0.233	0.559	0.456	-0.268	-0.630	-0.829	-1.231	-1.226	-0.621	-0.815	-1.185	-0.861	-0.508	-0.007	0.161	0.354	1.166	0.478	0.609	-97.656
-0.417	-0.430	0.077	-0.326	-0.003	0.347	0.016	0.394	0.493	0.064	0.459	0.495	-0.359	-0.718	-0.828	-1.124	-1.084	-0.675	-0.772	-1.132	-0.872	-0.475	-0.013	0.145	0.448	1.454	0.565	0.763	-93.750
-0.490	-0.334	0.072	-0.202	-0.030	0.374	-0.171	0.321	0.380	-0.112	0.341	0.529	-0.445	-0.790	-0.788	-0.968	-0.897	-0.666	-0.707	-1.036	-0.856	-0.442	-0.020	0.092	0.488	1.628	0.603	0.865	-89.844
-0.547	-0.196	0.100	-0.061	-0.044	0.394	-0.348	0.238	0.257	-0.277	0.208	0.551	-0.511	-0.833	-0.714	-0.776	-0.682	-0.595	-0.624	-0.904	-0.812	-0.419	-0.042	0.010	0.471	1.675	0.590	0.912	-85.938
-0.575	-0.020	0.170	0.088	-0.041	0.403	-0.500	0.139	0.114	-0.418	0.053	0.551	-0.549	-0.836	-0.604	-0.557	-0.449	-0.471	-0.522	-0.735	-0.730	-0.406	-0.084	-0.092	0.395	1.590	0.526	0.904	-82.031
-0.561	0.194	0.282	0.243	-0.013	0.398	-0.617	0.016	-0.062	-0.532	-0.134	0.511	-0.551	-0.790	-0.458	-0.308	-0.200	-0.310	-0.393	-0.523	-0.600	-0.398	-0.140	-0.204	0.263	1.375	0.415	0.838	-78.125
-0.491	0.448	0.429	0.409	0.046	0.382	-0.695	-0.138	-0.285	-0.620	-0.364	0.413	-0.516	-0.690	-0.273	-0.024	0.066	-0.132	-0.231	-0.261	-0.417	-0.388	-0.196	-0.316	0.077	1.040	0.260	0.713	-74.219
-0.357	0.737	0.600	0.593	0.141	0.362	-0.736	-0.326	-0.560	-0.688	-0.641	0.247	-0.451	-0.542	-0.051	0.299	0.346	0.039	-0.037	0.053	-0.181	-0.365	-0.234	-0.423	-0.155	0.603	0.069	0.529	-70.312
-0.158	1.048	0.778	0.798	0.272	0.348	-0.745	-0.540	-0.879	-0.744	-0.956	0.012	-0.367	-0.360	0.195	0.654	0.628	0.182	0.183	0.406	0.096	-0.324	-0.236	-0.522	-0.421	0.093	-0.150	0.290	-66.406
0.096	1.351	0.943	1.016	0.431	0.349	-0.726	-0.760	-1.219	-0.792	-1.288	-0.278	-0.280	-0.167	0.449	1.022	0.891	0.285	0.410	0.775	0.387	-0.264	-0.189	-0.611	-0.702	-0.449	-0.383	0.009	-62.500
0.382	1.609	1.073	1.228	0.600	0.370	-0.686	-0.959	-1.541	-0.829	-1.602	-0.595	-0.207	0.009	0.685	1.371	1.105	0.341	0.620	1.122	0.658	-0.189	-0.089	-0.686	-0.974	-0.976	-0.616	-0.293	-58.594
0.671	1.783	1.151	1.402	0.753	0.409	-0.629	-1.105	-1.801	-0.849	-1.853	-0.901	-0.162	0.143	0.875	1.659	1.241	0.353	0.786	1.407	0.869	-0.107	0.056	-0.745	-1.207	-1.436	-0.828	-0.586	-54.688
0.926	1.836	1.164	1.506	0.861	0.452	-0.558	-1.172	-1.953	-0.844	-1.998	-1.153	-0.156	0.212	0.996	1.849	1.277	0.330	0.884	1.589	0.988	-0.029	0.232	-0.781	-1.370	-1.779	-1.001	-0.834	-50.781
1.111	1.750	1.106	1.509	0.897	0.479	-0.475	-1.139	-1.962	-0.801	-2.001	-1.312	-0.189	0.206	1.030	1.910	1.206	0.281	0.903	1.642	0.993	0.036	0.415	-0.787	-1.436	-1.963	-1.115	-0.999	-46.875
1.198	1.526	0.981	1.395	0.840	0.469	-0.385	-1.004	-1.813	-0.713	-1.843	-1.349	-0.255	0.126	0.972	1.833	1.044	0.212	0.844	1.560	0.880	0.083	0.581	-0.758	-1.388	-1.963	-1.154	-1.049	-42.969
1.169	1.188	0.797	1.163	0.686	0.400	-0.291	-0.782	-1.513	-0.578	-1.529	-1.253	-0.341	-0.015	0.830	1.627	0.822	0.126	0.727	1.356	0.666	0.108	0.708	-0.692	-1.220	-1.774	-1.110	-0.963	-39.062
1.023	0.776	0.570	0.835	0.445	0.264	-0.200	-0.503	-1.095	-0.402	-1.085	-1.030	-0.429	-0.193	0.623	1.326	0.583	0.022	0.580	1.064	0.382	0.114	0.779	-0.589	-0.941	-1.411	-0.981	-0.736	-35.156
0.776	0.342	0.313	0.448	0.147	0.064	-0.116	-0.206	-0.609	-0.197	-0.561	-0.705	-0.501	-0.382	0.381	0.973	0.369	-0.102	0.436	0.726	0.067	0.103	0.787	-0.455	-0.572	-0.911	-0.775	-0.381	-31.250
0.456	-0.062	0.042	0.051	-0.170	-0.180	-0.043	0.070	-0.115	0.017	-0.015	-0.317	-0.543	-0.559	0.133	0.617	0.213	-0.242	0.320	0.388	-0.239	0.078	0.732	-0.302	-0.148	-0.322	-0.508	0.071	-27.344
0.106	-0.395	-0.230	-0.305	-0.461	-0.436	0.014	0.291	0.330	0.219	0.489	0.089	-0.548	-0.704	-0.089	0.303	0.129	-0.389	0.248	0.088	-0.504	0.041	0.627	-0.142	0.293	0.299	-0.204	0.575	-23.438
-0.232	-0.628	-0.488	-0.574	-0.684	-0.665	0.055	0.436	0.680	0.389	0.898	0.467	-0.517	-0.807	-0.262	0.062	0.115	-0.523	0.221	-0.150	-0.706	-0.010	0.488	0.008	0.711	0.895	0.107	1.082	-19.531
-0.518	-0.752	-0.722	-0.728	-0.809	-0.831	0.078	0.501	0.909	0.508	1.173	0.780	-0.461	-0.869	-0.373	-0.092	0.153	-0.624	0.230	-0.315	-0.840	-0.074	0.333	0.133	1.069	1.415	0.395	1.540	-15.625
-0.722	-0.772	-0.917	-0.754	-0.819	-0.907	0.085	0.493	1.008	0.567	1.296	0.999	-0.395	-0.893	-0.416	-0.158	0.219	-0.670	0.259	-0.408	-0.908	-0.151	0.177	0.219	1.338	1.823	0.632	1.907	-11.719
-0.825	-0.708	-1.061	-0.661	-0.720	-0.883	0.074	0.430	0.987	0.559	1.272	1.109	-0.335	-0.889	-0.396	-0.150	0.288	-0.648	0.291	-0.436	-0.921	-0.238	0.030	0.258	1.502	2.096	0.794	2.153	-7.812
-0.825	-0.582	-1.140	-0.473	-0.531	-0.767	0.046	0.333	0.866	0.485	1.118	1.106	-0.295	-0.864	-0.326	-0.087	0.343	-0.556	0.319	-0.410	-0.890	-0.328	-0.103	0.246	1.555	2.224	0.867	2.259	-3.906
-0.732	-0.421	-1.141	-0.229	-0.287	-0.582	-0.003	0.220	0.669	0.351	0.862	0.995	-0.287	-0.826	-0.220	0.012	0.376	-0.403	0.340	-0.343	-0.827	-0.413	-0.221	0.184	1.507	2.214	0.846	2.227	0.000
-0.565	-0.246	-1.054	0.031	-0.028	-0.364	-0.076	0.102	0.421	0.167	0.535	0.786	-0.314	-0.778	-0.094	0.128	0.395	-0.205	0.365	-0.244	-0.742	-0.480	-0.324	0.081	1.375	2.080	0.735	2.066	3.906
-0.348	-0.074	-0.880	0.269	0.206	-0.149	-0.176	-0.013	0.140	-0.057	0.164	0.494	-0.375	-0.726	0.042	0.250	0.414	0.021	0.408	-0.119	-0.642	-0.515	-0.409	-0.048	1.186	1.846	0.551	1.798	7.812
-0.104	0.089	-0.629	0.460	0.388	0.029	-0.304	-0.128	-0.162	-0.309	-0.232	0.136	-0.460	-0.670	0.181	0.374	0.457	0.256	0.485	0.024	-0.531	-0.505	-0.467	-0.186	0.969	1.535	0.316	1.450	11.719
0.148	0.243	-0.325	0.596	0.503	0.150	-0.457	-0.246	-0.476	-0.577	-0.636	-0.268	-0.562	-0.613	0.323	0.500	0.545	0.487	0.610	0.181	-0.415	-0.441	-0.487	-0.315	0.749	1.174	0.055	1.048	15.625
0.391	0.392	-0.005	0.685	0.554	0.207	-0.628	-0.373	-0.797	-0.849	-1.036	-0.695	-0.667	-0.556	0.472	0.632	0.694	0.702	0.787	0.345	-0.296	-0.317	-0.460	-0.417	0.549	0.788	-0.202	0.624	19.531
0.615	0.545	0.289	0.747	0.556	0.207	-0.804	-0.511	-1.118	-1.112	-1.420	-1.115	-0.765	-0.505	0.630	0.770	0.905	0.893	1.012	0.508	-0.178	-0.135	-0.377	-0.480	0.381	0.404	-0.431	0.208	23.438
0.810	0.706	0.517	0.804	0.529	0.165	-0.972	-0.656	-1.425	-1.353	-1.767	-1.490	-0.848	-0.462	0.793	0.912	1.163	1.051	1.267	0.658	-0.068	0.092	-0.236	-0.497	0.253	0.047	-0.611	-0.169	27.344
0.967	0.876	0.653	0.875	0.494	0.099	-1.117	-0.802	-1.701	-1.554	-2.049	-1.779	-0.912	-0.437	0.951	1.046	1.439	1.169	1.526	0.782	0.027	0.344	-0.046	-0.467	0.166	-0.256	-0.727	-0.469	31.250
1.071	1.042	0.686	0.966	0.465	0.025	-1.228	-0.933	-1.919	-1.699	-2.230	-1.937	-0.954	-0.438	1.086	1.155	1.693	1.237	1.755	0.862	0.092	0.590	0.177	-0.398	0.119	-0.479	-0.773	-0.657	35.156
1.110	1.184	0.625	1.066	0.445	-0.047	-1.298	-1.035	-2.054	-1.774	-2.269	-1.927	-0.980	-0.475	1.175	1.218	1.884	1.245	1.918	0.881	0.113	0.798	0.404	-0.306	0.110	-0.597	-0.749	-0.698	39.062
1.068	1.276	0.491	1.155	0.427	-0.116	-1.327	-1.094	-2.083	-1.770	-2.137	-1.725	-0.999	-0.559	1.191	1.215	1.973	1.185	1.984	0.826	0.074	0.930	0.605	-0.209	0.141	-0.584	-0.665	-0.566	42.969
0.932	1.293	0.313	1.203	0.398	-0.183	-1.322	-1.103	-1.992	-1.690	-1.819	-1.332	-1.024	-0.699	1.116	1.131	1.939	1.058	1.931	0.688	-0.040	0.957	0.745	-0.130	0.218	-0.421	-0.532	-0.251	46.875
0.698	1.218	0.119	1.185	0.342	-0.255	-1.299	-1.058	-1.783	-1.546	-1.331	-0.775	-1.072	-0.903	0.939	0.961	1.776	0.866	1.754	0.467	-0.237	0.862	0.800	-0.086	0.352	-0.096	-0.369	0.237	50.781
0.375	1.046	-0.069	1.089	0.245	-0.337	-1.279	-0.968	-1.477	-1.366	-0.720	-0.118	-1.161	-1.173	0.665	0.711	1.503	0.627	1.465	0.173	-0.518	0.643	0.756	-0.092	0.561	0.397	-0.193	0.863	54.688
-0.012	0.792	-0.235	0.916	0.100	-0.433	-1.288	-0.848	-1.115	-1.192	-0.066	0.551	-1.307	-1.503	0.315	0.403	1.153	0.363	1.096	-0.171	-0.872	0.316	0.616	-0.153	0.863	1.049	-0.024	1.570	58.594
-0.424	0.482	-0.372	0.683	-0.091	-0.544	-1.349	-0.724	-0.753	-1.071	0.532	1.128	-1.520	-1.882	-0.077	0.067	0.773	0.107	0.692	-0.539	-1.278	-0.083	0.404	-0.264	1.276	1.840	0.122	2.286	62.500
-0.812	0.157	-0.476	0.419	-0.320	-0.669	-1.486	-0.626	-0.453	-1.048	0.970	1.508	-1.803	-2.289	-0.468	-0.259	0.415	-0.101	0.306	-0.895	-1.706	-0.506	0.155	-0.406	1.810	2.736	0.236	2.932	66.406
-1.126	-0.143	-0.547	0.157	-0.574	-0.809	-1.709	-0.586	-0.275	-1.159	1.163	1.609	-2.146	-2.697	-0.812	-0.540	0.122	-0.229	-0.012	-1.205	-2.118	-0.898	-0.085	-0.556	2.463	3.692	0.313	3.438	70.312
-1.324	-0.384	-0.590	-0.075	-0.838	-0.966	-2.020	-0.630	-0.260	-1.417	1.064	1.389	-2.527	-3.075	-1.070	-0.743	-0.074	-0.250	-0.223	-1.439	-2.477	-1.205	-0.274	-0.683	3.220	4.656	0.357	3.752	74.219
-1.383	-0.546	-0.617	-0.261	-1.098	-1.143	-2.402	-0.769	-0.418	-1.809	0.680	0.857	-2.915	-3.393	-1.218	-0.849	-0.160	-0.159	-0.303	-1.580	-2.751	-1.387	-0.380	-0.756	4.050	5.577	0.380	3.854	78.125
-1.305	-0.628	-0.642	-0.398	-1.345	-1.340	-2.823	-0.998	-0.729	-2.293	0.072	0.081	-3.274	-3.631	-1.248	-0.855	-0.140	0.031	-0.253	-1.623	-2.922	-1.423	-0.390	-0.751	4.909	6.410	0.405	3.762	82.031
-1.117	-0.648	-0.684	-0.497	-1.573	-1.558	-3.239	-1.292	-1.142	-2.804	-0.651	-0.828	-3.565	-3.776	-1.176	-0.776	-0.035	0.284	-0.092	-1.577	-2.988	-1.311	-0.309	-0.650	5.748	7.121	0.454	3.526	85.938
-0.870	-0.636	-0.762	-0.578	-1.780	-1.790	-3.600	-1.615	-1.584	-3.267	-1.349	-1.729	-3.758	-3.828	-1.030	-0.638	0.126	0.551	0.145	-1.466	-2.960	-1.076	-0.156	-0.451	6.514	7.690	0.551	3.218	89.844
-0.626	-0.628	-0.888	-0.660	-1.962	-2.027	-3.861	-1.923	-1.975	-3.605	-1.883	-2.480	-3.831	-3.796	-0.850	-0.474	0.310	0.779	0.413	-1.319	-2.864	-0.754	0.039	-0.163	7.160	8.109	0.714	2.920	93.750
-0.440	-0.650	-1.073	-0.756	-2.116	-2.252	-3.984	-2.172	-2.242	-3.757	-2.137	-2.960	-3.774	-3.696	-0.677	-0.317	0.482	0.914	0.666	-1.163	-2.724	-0.392	0.244	0.191	7.646	8.382	0.951	2.707	97.656
-0.355	-0.716	-1.315	-0.868	-2.235	-2.451	-3.948	-2.331	-2.333	-3.685	-2.039	-3.092	-3.589	-3.541	-0.544	-0.189	0.614	0.920	0.866	-1.021	-2.565	-0.036	0.432	0.583	7.944	8.517	1.258	2.632	101.562
-0.390	-0.824	-1.606	-0.986	-2.310	-2.608	-3.749	-2.384	-2.224	-3.378	-1.571	-2.850	-3.287	-3.340	-0.472	-0.107	0.685	0.774	0.990	-0.904	-2.399	0.279	0.583	0.983	8.042	8.529	1.622	2.722	105.469
-0.540	-0.957	-1.927	-1.092	-2.329	-2.715	-3.402	-2.335	-1.918	-2.853	-0.766	-2.256	-2.881	-3.096	-0.466	-0.072	0.685	0.477	1.030	-0.814	-2.231	0.530	0.687	1.365	7.944	8.432	2.022	2.973	109.375
-0.778	-1.090	-2.259	-1.166	-2.285	-2.774	-2.933	-2.203	-1.447	-2.148	0.301	-1.376	-2.390	-2.803	-0.520	-0.077	0.615	0.048	0.995	-0.744	-2.053	0.711	0.736	1.710	7.670	8.247	2.436	3.358	113.281
-1.069	-1.195	-2.576	-1.196	-2.179	-2.792	-2.376	-2.015	-0.857	-1.315	1.533	-0.301	-1.835	-2.461	-0.615	-0.110	0.487	-0.479	0.903	-0.681	-1.859	0.829	0.731	2.006	7.250	7.994	2.840	3.832	117.188
-1.373	-1.253	-2.859	-1.174	-2.012	-2.781	-1.768	-1.800	-0.199	-0.411	2.824	0.869	-1.238	-2.070	-0.727	-0.156	0.324	-1.057	0.784	-0.614	-1.640	0.897	0.673	2.243	6.723	7.692	3.209	4.341	121.094
-1.653	-1.250	-3.088	-1.102	-1.793	-2.751	-1.145	-1.578	0.477	0.506	4.080	2.032	-0.630	-1.641	-0.833	-0.199	0.151	-1.639	0.665	-0.531	-1.395	0.931	0.561	2.413	6.128	7.359	3.519	4.827	125.000
-1.878	-1.184	-3.257	-0.985	-1.534	-2.704	-0.538	-1.358	1.128	1.381	5.220	3.100	-0.045	-1.197	-0.912	-0.222	-0.002	-2.179	0.572	-0.426	-1.130	0.944	0.397	2.507	5.499	7.004	3.745	5.238	128.906
-2.031	-1.057	-3.362	-0.834	-1.243	-2.636	0.027	-1.141	1.723	2.167	6.183	4.003	0.480	-0.767	-0.950	-0.211	-0.110	-2.641	0.523	-0.293	-0.856	0.941	0.179	2.512	4.865	6.637	3.864	5.531	132.812
-2.100	-0.882	-3.411	-0.656	-0.933	-2.535	0.529	-0.918	2.240	2.825	6.929	4.690	0.908	-0.385	-0.940	-0.156	-0.155	-3.000	0.526	-0.135	-0.591	0.924	-0.089	2.421	4.248	6.262	3.856	5.675	136.719
-2.088	-0.674	-3.415	-0.463	-0.613	-2.389	0.954	-0.678	2.668	3.327	7.437	5.136	1.209	-0.083	-0.883	-0.057	-0.129	-3.247	0.577	0.041	-0.354	0.888	-0.399	2.229	3.668	5.889	3.715	5.657	140.625
-2.005	-0.459	-3.385	-0.265	-0.294	-2.189	1.294	-0.414	3.002	3.660	7.705	5.338	1.364	0.116	-0.792	0.079	-0.040	-3.383	0.664	0.218	-0.166	0.826	-0.738	1.945	3.148	5.532	3.445	5.485	144.531
-1.872	-0.264	-3.334	-0.076	0.007	-1.934	1.546	-0.123	3.243	3.822	7.748	5.316	1.371	0.197	-0.685	0.227	0.093	-3.420	0.766	0.372	-0.048	0.733	-1.083	1.588	2.711	5.215	3.070	5.183	148.438
-1.717	-0.117	-3.277	0.083	0.274	-1.637	1.711	0.189	3.398	3.829	7.600	5.109	1.240	0.157	-0.589	0.356	0.239	-3.378	0.858	0.473	-0.017	0.605	-1.411	1.191	2.387	4.968	2.630	4.791	152.344
-1.571	-0.049	-3.225	0.191	0.484	-1.321	1.794	0.508	3.479	3.704	7.309	4.768	0.998	0.006	-0.527	0.427	0.365	-3.277	0.916	0.489	-0.086	0.442	-1.698	0.792	2.203	4.824	2.175	4.361	156.250
-1.466	-0.079	-3.189	0.223	0.618	-1.015	1.801	0.815	3.501	3.481	6.936	4.354	0.675	-0.240	-0.522	0.406	0.436	-3.135	0.919	0.395	-0.260	0.248	-1.926	0.430	2.181	4.811	1.760	3.945	160.156
-1.427	-0.219	-3.179	0.162	0.661	-0.755	1.743	1.088	3.484	3.196	6.547	3.926	0.307	-0.561	-0.588	0.270	0.425	-2.973	0.856	0.180	-0.537	0.027	-2.089	0.140	2.332	4.946	1.430	3.591	164.062
-1.471	-0.467	-3.202	0.000	0.609	-0.568	1.630	1.311	3.454	2.886	6.210	3.538	-0.075	-0.932	-0.733	0.012	0.319	-2.808	0.725	-0.157	-0.904	-0.214	-2.192	-0.060	2.649	5.231	1.219	3.336	167.969
-1.600	-0.808	-3.264	-0.258	0.467	-0.475	1.479	1.478	3.439	2.587	5.984	3.233	-0.448	-1.332	-0.952	-0.359	0.114	-2.657	0.532	-0.597	-1.341	-0.470	-2.250	-0.162	3.107	5.652	1.138	3.202	171.875
-1.809	-1.217	-3.368	-0.598	0.255	-0.479	1.307	1.593	3.472	2.331	5.919	3.042	-0.796	-1.741	-1.234	-0.817	-0.180	-2.541	0.287	-1.113	-1.824	-0.737	-2.283	-0.176	3.666	6.179	1.179	3.196	175.781
-2.080	-1.662	-3.520	-0.993	-0.001	-0.574	1.138	1.676	3.585	2.145	6.046	2.981	-1.112	-2.148	-1.564	-1.331	-0.544	-2.478	0.005	-1.674	-2.331	-1.012	-2.311	-0.123	4.281	6.774	1.318	3.312	179.688
-2.395	-2.116	-3.725	-1.415	-0.272	-0.740	0.994	1.755	3.808	2.051	6.381	3.059	-1.400	-2.547	-1.924	-1.868	-0.951	-2.488	-0.301	-2.250	-2.845	-1.293	-2.347	-0.029	4.904	7.399	1.521	3.535	183.594
-2.732	-2.557	-3.986	-1.838	-0.534	-0.952	0.893	1.861	4.160	2.061	6.921	3.276	-1.664	-2.939	-2.301	-2.404	-1.377	-2.580	-0.624	-2.819	-3.356	-1.580	-2.396	0.077	5.498	8.022	1.752	3.848	187.500
-3.079	-2.974	-4.303	-2.240	-0.770	-1.181	0.847	2.026	4.652	2.179	7.649	3.621	-1.916	-3.330	-2.683	-2.920	-1.798	-2.760	-0.957	-3.370	-3.864	-1.872	-2.453	0.168	6.037	8.620	1.979	4.230	191.406
-3.425	-3.365	-4.668	-2.612	-0.977	-1.402	0.857	2.273	5.278	2.396	8.531	4.081	-2.165	-3.728	-3.064	-3.411	-2.194	-3.017	-1.297	-3.901	-4.373	-2.169	-2.512	0.221	6.508	9.178	2.178	4.661	195.312
-3.765	-3.738	-5.062	-2.952	-1.161	-1.596	0.917	2.617	6.020	2.695	9.526	4.632	-2.420	-4.141	-3.440	-3.876	-2.555	-3.333	-1.643	-4.417	-4.891	-2.470	-2.564	0.222	6.912	9.690	2.331	5.120	199.219
-4.096	-4.103	-5.461	-3.267	-1.333	-1.749	1.011	3.057	6.850	3.048	10.581	5.244	-2.684	-4.573	-3.812	-4.321	-2.878	-3.681	-1.992	-4.922	-5.423	-2.773	-2.605	0.162	7.251	10.149	2.428	5.584	203.125
-4.416	-4.465	-5.834	-3.563	-1.505	-1.855	1.122	3.580	7.727	3.425	11.638	5.880	-2.958	-5.020	-4.177	-4.749	-3.166	-4.033	-2.339	-5.422	-5.968	-3.072	-2.635	0.041	7.535	10.552	2.464	6.028	207.031
-4.716	-4.820	-6.152	-3.846	-1.687	-1.912	1.230	4.160	8.607	3.790	12.639	6.496	-3.236	-5.473	-4.533	-5.161	-3.427	-4.360	-2.675	-5.916	-6.517	-3.360	-2.655	-0.135	7.768	10.892	2.439	6.425	210.938
-4.985	-5.156	-6.389	-4.115	-1.876	-1.921	1.323	4.765	9.445	4.115	13.526	7.047	-3.509	-5.914	-4.872	-5.554	-3.668	-4.643	-2.991	-6.397	-7.052	-3.626	-2.667	-0.351	7.951	11.158	2.358	6.749	214.844
-5.211	-5.449	-6.530	-4.360	-2.064	-1.884	1.392	5.358	10.199	4.376	14.252	7.494	-3.764	-6.323	-5.186	-5.916	-3.897	-4.867	-3.275	-6.848	-7.550	-3.865	-2.676	-0.594	8.081	11.341	2.228	6.979	218.750
-5.378	-5.675	-6.568	-4.568	-2.237	-1.805	1.439	5.910	10.837	4.561	14.784	7.804	-3.988	-6.680	-5.459	-6.234	-4.112	-5.027	-3.518	-7.253	-7.984	-4.069	-2.687	-0.846	8.151	11.433	2.062	7.102	222.656
-5.476	-5.815	-6.510	-4.724	-2.380	-1.690	1.469	6.399	11.342	4.668	15.112	7.962	-4.168	-6.969	-5.678	-6.492	-4.307	-5.122	-3.709	-7.588	-8.333	-4.240	-2.710	-1.094	8.153	11.428	1.871	7.112	226.562
-5.501	-5.859	-6.374	-4.815	-2.483	-1.548	1.495	6.812	11.711	4.710	15.243	7.967	-4.297	-7.180	-5.830	-6.674	-4.465	-5.154	-3.844	-7.837	-8.580	-4.383	-2.756	-1.330	8.083	11.331	1.672	7.016	230.469
-5.455	-5.813	-6.182	-4.834	-2.541	-1.393	1.525	7.149	11.951	4.702	15.208	7.835	-4.371	-7.311	-5.906	-6.770	-4.570	-5.129	-3.923	-7.986	-8.720	-4.506	-2.839	-1.552	7.944	11.154	1.475	6.828	234.375
-5.352	-5.690	-5.960	-4.783	-2.557	-1.238	1.568	7.413	12.082	4.667	15.051	7.595	-4.399	-7.371	-5.905	-6.778	-4.610	-5.053	-3.953	-8.032	-8.762	-4.622	-2.971	-1.760	7.744	10.915	1.290	6.571	238.281
-5.208	-5.515	-5.727	-4.669	-2.543	-1.099	1.625	7.617	12.130	4.623	14.822	7.285	-4.392	-7.377	-5.837	-6.704	-4.583	-4.938	-3.949	-7.986	-8.724	-4.744	-3.156	-1.957	7.502	10.642	1.122	6.273	242.188
-5.047	-5.317	-5.498	-4.511	-2.513	-0.986	1.690	7.775	12.123	4.585	14.571	6.944	-4.370	-7.354	-5.720	-6.571	-4.498	-4.794	-3.931	-7.872	-8.638	-4.881	-3.390	-2.144	7.241	10.365	0.974	5.961	246.094
-4.894	-5.126	-5.279	-4.333	-2.484	-0.906	1.753	7.902	12.090	4.564	14.341	6.614	-4.349	-7.328	-5.584	-6.411	-4.382	-4.638	-3.926	-7.726	-8.540	-5.037	-3.654	-2.316	6.991	10.115	0.848	5.666	250.000
-4.770	-4.973	-5.069	-4.161	-2.473	-0.861	1.806	8.013	12.058	4.562	14.170	6.329	-4.348	-7.325	-5.462	-6.266	-4.272	-4.482	-3.960	-7.592	-8.470	-5.211	-3.923	-2.466	6.781	9.920	0.746	5.413	253.906
-4.695	-4.880	-4.866	-4.024	-2.492	-0.844	1.840	8.117	12.048	4.582	14.081	6.121	-4.375	-7.366	-5.386	-6.180	-4.207	-4.342	-4.055	-7.517	-8.461	-5.397	-4.163	-2.581	6.638	9.801	0.672	5.227	257.812
-4.681	-4.865	-4.665	-3.944	-2.547	-0.849	1.853	8.223	12.077	4.623	14.092	6.010	-4.433	-7.464	-5.382	-6.190	-4.223	-4.230	-4.224	-7.538	-8.541	-5.586	-4.345	-2.649	6.581	9.770	0.630	5.124	261.719
-4.731	-4.930	-4.469	-3.935	-2.638	-0.868	1.850	8.331	12.153	4.685	14.208	6.012	-4.517	-7.621	-5.465	-6.318	-4.344	-4.158	-4.467	-7.678	-8.718	-5.764	-4.444	-2.659	6.616	9.828	0.624	5.119	265.625
-4.841	-5.068	-4.288	-4.000	-2.758	-0.894	1.839	8.437	12.279	4.770	14.426	6.130	-4.613	-7.827	-5.631	-6.568	-4.574	-4.128	-4.767	-7.940	-8.986	-5.918	-4.449	-2.605	6.736	9.964	0.659	5.215	269.531
-4.995	-5.260	-4.136	-4.129	-2.898	-0.926	1.830	8.532	12.446	4.878	14.734	6.360	-4.704	-8.063	-5.863	-6.920	-4.896	-4.141	-5.098	-8.302	-9.320	-6.034	-4.360	-2.486	6.918	10.157	0.734	5.412	273.438
-5.178	-5.480	-4.032	-4.305	-3.046	-0.969	1.833	8.602	12.636	5.010	15.109	6.690	-4.768	-8.301	-6.131	-7.339	-5.276	-4.187	-5.422	-8.728	-9.684	-6.101	-4.191	-2.309	7.133	10.379	0.850	5.702	277.344
-5.369	-5.701	-3.990	-4.504	-3.192	-1.032	1.852	8.630	12.826	5.163	15.520	7.098	-4.787	-8.510	-6.400	-7.782	-5.671	-4.254	-5.702	-9.172	-10.034	-6.110	-3.960	-2.083	7.343	10.601	1.005	6.071	281.250
-5.549	-5.900	-4.017	-4.703	-3.327	-1.122	1.885	8.602	12.986	5.330	15.927	7.561	-4.745	-8.663	-6.636	-8.205	-6.037	-4.326	-5.907	-9.586	-10.331	-6.057	-3.692	-1.822	7.521	10.795	1.198	6.502	285.156
-5.704	-6.061	-4.103	-4.881	-3.449	-1.248	1.921	8.503	13.085	5.499	16.288	8.046	-4.636	-8.740	-6.811	-8.572	-6.339	-4.384	-6.017	-9.932	-10.544	-5.942	-3.412	-1.541	7.645	10.944	1.427	6.975	289.062
-5.823	-6.177	-4.229	-5.024	-3.555	-1.413	1.947	8.325	13.095	5.653	16.561	8.523	-4.460	-8.732	-6.911	-8.861	-6.554	-4.412	-6.026	-10.183	-10.658	-5.773	-3.140	-1.254	7.710	11.040	1.691	7.467	292.969
-5.896	-6.251	-4.366	-5.127	-3.646	-1.611	1.948	8.067	12.997	5.771	16.709	8.959	-4.229	-8.641	-6.930	-9.060	-6.673	-4.394	-5.938	-10.329	-10.670	-5.560	-2.893	-0.975	7.724	11.083	1.985	7.953	296.875
-5.917	-6.294	-4.485	-5.190	-3.720	-1.833	1.912	7.736	12.783	5.837	16.706	9.323	-3.955	-8.476	-6.873	-9.172	-6.698	-4.322	-5.767	-10.371	-10.589	-5.315	-2.681	-0.716	7.704	11.078	2.299	8.406	300.781
-5.884	-6.320	-4.564	-5.218	-3.771	-2.059	1.836	7.349	12.460	5.838	16.537	9.587	-3.658	-8.254	-6.748	-9.204	-6.635	-4.191	-5.527	-10.318	-10.431	-5.051	-2.509	-0.487	7.667	11.030	2.616	8.794	304.688
-5.792	-6.338	-4.591	-5.214	-3.791	-2.267	1.725	6.930	12.047	5.770	16.203	9.726	-3.356	-7.990	-6.563	-9.164	-6.493	-4.001	-5.233	-10.182	-10.214	-4.779	-2.379	-0.295	7.629	10.941	2.912	9.086	308.594
-5.641	-6.355	-4.566	-5.183	-3.767	-2.432	1.598	6.509	11.575	5.638	15.721	9.722	-3.066	-7.699	-6.329	-9.062	-6.278	-3.758	-4.895	-9.977	-9.950	-4.508	-2.288	-0.147	7.591	10.804	3.162	9.252	312.500
-5.433	-6.365	-4.500	-5.124	-3.689	-2.534	1.479	6.120	11.085	5.458	15.121	9.565	-2.798	-7.394	-6.052	-8.904	-5.994	-3.476	-4.522	-9.714	-9.654	-4.243	-2.235	-0.048	7.550	10.608	3.337	9.264	316.406
-5.173	-6.355	-4.406	-5.035	-3.548	-2.557	1.397	5.799	10.620	5.252	14.444	9.255	-2.562	-7.083	-5.740	-8.694	-5.647	-3.175	-4.122	-9.405	-9.333	-3.990	-2.213	-0.000	7.487	10.339	3.415	9.107	320.312
-4.868	-6.307	-4.296	-4.912	-3.342	-2.494	1.380	5.575	10.220	5.046	13.736	8.806	-2.361	-6.774	-5.403	-8.438	-5.246	-2.880	-3.705	-9.064	-8.998	-3.752	-2.216	-0.003	7.382	9.984	3.383	8.774	324.219
-4.530	-6.203	-4.177	-4.753	-3.078	-2.350	1.448	5.471	9.919	4.863	13.044	8.241	-2.197	-6.474	-5.055	-8.146	-4.809	-2.620	-3.287	-8.704	-8.658	-3.533	-2.234	-0.052	7.215	9.539	3.242	8.279	328.125
-4.171	-6.032	-4.052	-4.557	-2.769	-2.135	1.608	5.496	9.736	4.726	12.415	7.597	-2.067	-6.190	-4.713	-7.831	-4.363	-2.423	-2.888	-8.344	-8.326	-3.336	-2.253	-0.138	6.972	9.011	3.005	7.651	332.031
-3.808	-5.794	-3.924	-4.333	-2.439	-1.870	1.855	5.642	9.676	4.650	11.887	6.925	-1.967	-5.930	-4.396	-7.515	-3.941	-2.308	-2.530	-8.002	-8.015	-3.162	-2.262	-0.244	6.648	8.420	2.700	6.937	335.938
-3.460	-5.507	-3.798	-4.093	-2.115	-1.580	2.171	5.887	9.730	4.644	11.493	6.281	-1.890	-5.702	-4.125	-7.222	-3.580	-2.285	-2.234	-7.699	-7.738	-3.008	-2.248	-0.353	6.255	7.799	2.364	6.196	339.844
-3.150	-5.201	-3.686	-3.861	-1.824	-1.296	2.529	6.195	9.877	4.710	11.256	5.726	-1.826	-5.509	-3.916	-6.977	-3.317	-2.352	-2.017	-7.452	-7.506	-2.872	-2.208	-0.445	5.818	7.194	2.041	5.498	343.750
-2.898	-4.917	-3.606	-3.662	-1.592	-1.049	2.900	6.524	10.092	4.850	11.190	5.320	-1.764	-5.352	-3.781	-6.801	-3.177	-2.495	-1.890	-7.274	-7.327	-2.751	-2.146	-0.499	5.374	6.653	1.776	4.914	347.656
-2.725	-4.698	-3.580	-3.524	-1.439	-0.865	3.258	6.831	10.346	5.059	11.295	5.110	-1.687	-5.225	-3.724	-6.711	-3.175	-2.691	-1.854	-7.173	-7.201	-2.640	-2.072	-0.500	4.965	6.224	1.609	4.507	351.562
-2.642	-4.578	-3.630	-3.469	-1.373	-0.763	3.583	7.078	10.610	5.331	11.558	5.124	-1.580	-5.116	-3.740	-6.710	-3.305	-2.913	-1.900	-7.146	-7.122	-2.536	-2.004	-0.436	4.634	5.944	1.567	4.323	355.469
-2.652	-4.574	-3.769	-3.507	-1.390	-0.752	3.864	7.234	10.854	5.655	11.946	5.362	-1.429	-5.011	-3.813	-6.789	-3.543	-3.136	-2.010	-7.181	-7.077	-2.436	-1.956	-0.305	4.413	5.834	1.665	4.382	359.375
-2.745	-4.682	-4.002	-3.634	-1.477	-0.830	4.093	7.280	11.052	6.011	12.408	5.790	-1.225	-4.891	-3.919	-6.926	-3.846	-3.337	-2.156	-7.253	-7.044	-2.334	-1.937	-0.110	4.319	5.893	1.898	4.670	363.281
-2.897	-4.874	-4.316	-3.830	-1.609	-0.986	4.270	7.207	11.177	6.374	12.878	6.343	-0.965	-4.739	-4.029	-7.085	-4.157	-3.505	-2.302	-7.333	-7.000	-2.221	-1.943	0.140	4.349	6.094	2.242	5.141	367.188
-3.073	-5.106	-4.690	-4.059	-1.756	-1.197	4.395	7.018	11.206	6.712	13.279	6.932	-0.657	-4.542	-4.111	-7.228	-4.416	-3.635	-2.412	-7.385	-6.919	-2.087	-1.956	0.429	4.479	6.392	2.659	5.720	371.094
-3.233	-5.325	-5.091	-4.279	-1.884	-1.438	4.471	6.725	11.121	6.987	13.533	7.456	-0.312	-4.291	-4.138	-7.313	-4.571	-3.733	-2.451	-7.378	-6.779	-1.922	-1.950	0.739	4.671	6.727	3.101	6.316	375.000
-3.338	-5.481	-5.485	-4.447	-1.967	-1.679	4.501	6.350	10.911	7.168	13.576	7.822	0.049	-3.985	-4.090	-7.310	-4.587	-3.808	-2.398	-7.284	-6.563	-1.714	-1.894	1.055	4.879	7.035	3.518	6.832	378.906
-3.353	-5.536	-5.840	-4.530	-1.982	-1.893	4.489	5.919	10.575	7.231	13.368	7.961	0.408	-3.627	-3.959	-7.200	-4.455	-3.870	-2.246	-7.089	-6.265	-1.459	-1.760	1.362	5.056	7.258	3.869	7.189	382.812
-3.259	-5.470	-6.128	-4.508	-1.919	-2.058	4.444	5.464	10.127	7.163	12.898	7.836	0.750	-3.228	-3.748	-6.979	-4.190	-3.924	-2.003	-6.790	-5.884	-1.158	-1.532	1.651	5.162	7.352	4.123	7.331	386.719
-3.050	-5.284	-6.330	-4.379	-1.780	-2.161	4.374	5.016	9.587	6.970	12.190	7.453	1.064	-2.798	-3.468	-6.660	-3.827	-3.968	-1.691	-6.398	-5.433	-0.817	-1.209	1.914	5.171	7.293	4.267	7.235	390.625
-2.733	-4.994	-6.433	-4.156	-1.575	-2.198	4.290	4.600	8.984	6.668	11.292	6.850	1.345	-2.350	-3.137	-6.265	-3.410	-3.989	-1.340	-5.933	-4.927	-0.448	-0.807	2.150	5.068	7.073	4.302	6.913	394.531
-2.329	-4.625	-6.430	-3.861	-1.319	-2.174	4.201	4.234	8.347	6.284	10.270	6.090	1.595	-1.897	-2.772	-5.821	-2.982	-3.970	-0.977	-5.418	-4.387	-0.067	-0.356	2.354	4.854	6.705	4.243	6.399	398.438
-1.865	-4.204	-6.317	-3.520	-1.031	-2.097	4.111	3.930	7.704	5.845	9.193	5.241	1.812	-1.452	-2.391	-5.356	-2.575	-3.889	-0.627	-4.881	-3.836	0.313	0.106	2.523	4.542	6.212	4.105	5.745	402.344
-1.370	-3.754	-6.096	-3.159	-0.728	-1.978	4.024	3.687	7.076	5.376	8.122	4.367	1.993	-1.029	-2.008	-4.891	-2.206	-3.731	-0.303	-4.347	-3.296	0.675	0.541	2.650	4.154	5.625	3.905	5.006	406.250
-0.874	-3.295	-5.775	-2.797	-0.424	-1.823	3.934	3.499	6.478	4.897	7.104	3.517	2.132	-0.641	-1.634	-4.444	-1.878	-3.490	-0.014	-3.835	-2.785	1.008	0.917	2.727	3.718	4.980	3.654	4.231	410.156
-0.398	-2.838	-5.366	-2.442	-0.124	-1.636	3.837	3.356	5.918	4.423	6.172	2.719	2.217	-0.301	-1.277	-4.024	-1.585	-3.174	0.241	-3.360	-2.319	1.300	1.211	2.741	3.258	4.307	3.357	3.457	414.062
0.040	-2.392	-4.889	-2.096	0.168	-1.415	3.725	3.243	5.402	3.961	5.344	1.985	2.236	-0.021	-0.944	-3.635	-1.311	-2.802	0.467	-2.929	-1.907	1.544	1.414	2.684	2.798	3.633	3.013	2.709	417.969
0.432	-1.964	-4.370	-1.758	0.453	-1.159	3.594	3.146	4.932	3.518	4.626	1.317	2.179	0.191	-0.639	-3.279	-1.043	-2.400	0.673	-2.543	-1.554	1.733	1.527	2.547	2.353	2.979	2.621	2.001	421.875
0.773	-1.560	-3.840	-1.422	0.732	-0.866	3.440	3.049	4.506	3.100	4.024	0.713	2.043	0.336	-0.364	-2.952	-0.767	-1.997	0.867	-2.201	-1.257	1.866	1.563	2.333	1.933	2.359	2.185	1.344	425.781
1.061	-1.189	-3.332	-1.088	1.002	-0.544	3.263	2.934	4.125	2.715	3.537	0.177	1.838	0.417	-0.116	-2.653	-0.476	-1.619	1.058	-1.896	-1.012	1.946	1.539	2.050	1.545	1.787	1.719	0.746	429.688
1.297	-0.859	-2.879	-0.759	1.259	-0.208	3.069	2.789	3.784	2.371	3.168	-0.282	1.582	0.446	0.106	-2.378	-0.169	-1.283	1.251	-1.622	-0.809	1.980	1.475	1.716	1.191	1.274	1.242	0.221	433.594
1.481	-0.578	-2.506	-0.442	1.494	0.121	2.864	2.606	3.480	2.077	2.915	-0.650	1.303	0.440	0.305	-2.121	0.148	-1.001	1.449	-1.370	-0.639	1.978	1.389	1.356	0.873	0.828	0.784	-0.217	437.500
1.618	-0.351	-2.227	-0.144	1.700	0.417	2.657	2.380	3.208	1.840	2.768	-0.913	1.032	0.417	0.485	-1.875	0.464	-0.775	1.648	-1.133	-0.490	1.955	1.296	1.000	0.593	0.456	0.374	-0.555	441.406
1.711	-0.170	-2.044	0.128	1.870	0.655	2.456	2.116	2.957	1.658	2.712	-1.065	0.797	0.395	0.652	-1.629	0.768	-0.600	1.844	-0.902	-0.353	1.923	1.204	0.676	0.349	0.160	0.036	-0.786	445.312
1.771	-0.022	-1.945	0.375	2.004	0.819	2.267	1.822	2.719	1.528	2.715	-1.114	0.622	0.387	0.811	-1.369	1.049	-0.466	2.034	-0.666	-0.219	1.897	1.121	0.404	0.141	-0.062	-0.217	-0.914	449.219
1.808	0.116	-1.905	0.601	2.104	0.903	2.096	1.512	2.479	1.436	2.740	-1.085	0.515	0.403	0.970	-1.077	1.307	-0.359	2.216	-0.414	-0.077	1.886	1.049	0.197	-0.036	-0.222	-0.385	-0.959	453.125
1.836	0.269	-1.897	0.813	2.178	0.911	1.944	1.199	2.225	1.367	2.744	-1.015	0.476	0.449	1.136	-0.738	1.545	-0.268	2.394	-0.134	0.080	1.900	0.992	0.058	-0.188	-0.335	-0.480	-0.951	457.031
1.871	0.455	-1.892	1.017	2.236	0.857	1.812	0.896	1.949	1.303	2.686	-0.948	0.494	0.523	1.316	-0.345	1.776	-0.179	2.574	0.179	0.258	1.942	0.953	-0.019	-0.321	-0.421	-0.524	-0.927	460.938
1.923	0.684	-1.869	1.218	2.287	0.764	1.698	0.613	1.647	1.230	2.539	-0.929	0.553	0.626	1.515	0.101	2.013	-0.085	2.767	0.529	0.460	2.015	0.935	-0.045	-0.444	-0.500	-0.544	-0.925	464.844
2.002	0.951	-1.818	1.418	2.343	0.656	1.604	0.357	1.324	1.138	2.288	-0.990	0.635	0.752	1.732	0.582	2.266	0.019	2.977	0.905	0.683	2.116	0.941	-0.035	-0.561	-0.587	-0.562	-0.973	468.750
2.109	1.244	-1.743	1.617	2.412	0.562	1.529	0.132	0.991	1.025	1.937	-1.148	0.724	0.895	1.964	1.071	2.536	0.137	3.206	1.293	0.922	2.241	0.973	-0.003	-0.675	-0.689	-0.594	-1.087	472.656
2.240	1.544	-1.654	1.814	2.502	0.506	1.477	-0.059	0.664	0.894	1.506	-1.404	0.808	1.048	2.203	1.532	2.820	0.270	3.447	1.668	1.165	2.383	1.034	0.041	-0.789	-0.808	-0.647	-1.268	476.562
2.388	1.833	-1.567	2.009	2.620	0.505	1.448	-0.214	0.357	0.750	1.022	-1.743	0.880	1.205	2.439	1.934	3.104	0.421	3.689	2.006	1.399	2.536	1.123	0.088	-0.899	-0.935	-0.719	-1.503	480.469
2.545	2.098	-1.497	2.204	2.767	0.569	1.443	-0.335	0.079	0.598	0.511	-2.143	0.937	1.357	2.663	2.250	3.374	0.588	3.917	2.286	1.611	2.694	1.241	0.137	-1.003	-1.059	-0.802	-1.772	484.375
2.705	2.333	-1.453	2.399	2.943	0.696	1.457	-0.424	-0.166	0.443	-0.001	-2.576	0.979	1.498	2.867	2.471	3.615	0.766	4.120	2.496	1.790	2.851	1.389	0.189	-1.093	-1.168	-0.883	-2.051	488.281
2.864	2.539	-1.438	2.596	3.140	0.874	1.484	-0.489	-0.385	0.284	-0.499	-3.018	1.010	1.624	3.046	2.600	3.815	0.943	4.286	2.632	1.931	3.006	1.563	0.250	-1.163	-1.251	-0.949	-2.323	492.188
3.021	2.717	-1.444	2.794	3.349	1.085	1.512	-0.539	-0.589	0.116	-0.975	-3.452	1.029	1.731	3.194	2.653	3.962	1.106	4.412	2.700	2.032	3.158	1.758	0.323	-1.206	-1.304	-0.992	-2.575	496.094
3.177	2.870	-1.458	2.983	3.554	1.307	1.534	-0.582	-0.790	-0.060	-1.421	-3.863	1.037	1.818	3.310	2.655	4.050	1.240	4.496	2.714	2.093	3.306	1.963	0.411	-1.217	-1.329	-1.009	-2.804	500.000
3.332	2.994	-1.464	3.151	3.739	1.519	1.541	-0.623	-0.993	-0.244	-1.828	-4.243	1.031	1.883	3.389	2.627	4.079	1.336	4.538	2.686	2.120	3.448	2.166	0.509	-1.196	-1.337	-1.007	-3.016	503.906
3.482	3.081	-1.446	3.279	3.887	1.703	1.533	-0.659	-1.193	-0.427	-2.181	-4.585	1.010	1.924	3.433	2.587	4.051	1.391	4.542	2.630	2.116	3.579	2.351	0.608	-1.148	-1.344	-0.997	-3.223	507.812
3.622	3.122	-1.390	3.350	3.986	1.848	1.511	-0.683	-1.373	-0.594	-2.459	-4.881	0.970	1.938	3.441	2.543	3.975	1.414	4.512	2.552	2.083	3.693	2.506	0.693	-1.082	-1.366	-0.998	-3.436	511.719
3.742	3.108	-1.293	3.350	4.033	1.954	1.487	-0.678	-1.508	-0.727	-2.634	-5.122	0.908	1.924	3.416	2.495	3.863	1.417	4.453	2.456	2.024	3.782	2.622	0.747	-1.012	-1.420	-1.031	-3.664	515.625
3.836	3.040	-1.156	3.280	4.030	2.026	1.475	-0.628	-1.567	-0.802	-2.681	-5.297	0.826	1.880	3.362	2.435	3.728	1.412	4.369	2.342	1.942	3.840	2.693	0.753	-0.957	-1.515	-1.109	-3.909	519.531
3.899	2.926	-0.993	3.152	3.994	2.081	1.491	-0.517	-1.525	-0.804	-2.581	-5.392	0.727	1.810	3.284	2.358	3.580	1.406	4.262	2.212	1.843	3.862	2.720	0.702	-0.934	-1.655	-1.240	-4.163	523.438
3.930	2.788	-0.824	2.992	3.947	2.136	1.549	-0.337	-1.371	-0.719	-2.328	-5.395	0.623	1.723	3.190	2.258	3.431	1.396	4.137	2.072	1.736	3.846	2.707	0.592	-0.961	-1.835	-1.418	-4.406	527.344
3.933	2.654	-0.675	2.836	3.915	2.209	1.659	-0.096	-1.108	-0.548	-1.937	-5.300	0.529	1.634	3.089	2.141	3.289	1.372	4.000	1.934	1.638	3.796	2.659	0.431	-1.052	-2.042	-1.625	-4.613	531.250
3.914	2.552	-0.571	2.718	3.923	2.311	1.823	0.189	-0.763	-0.300	-1.441	-5.109	0.464	1.564	2.993	2.018	3.162	1.318	3.857	1.813	1.564	3.719	2.580	0.238	-1.210	-2.260	-1.833	-4.759	535.156
3.885	2.506	-0.532	2.662	3.985	2.445	2.035	0.487	-0.375	0.001	-0.892	-4.834	0.449	1.535	2.913	1.905	3.059	1.222	3.723	1.728	1.534	3.629	2.478	0.037	-1.430	-2.471	-2.009	-4.824	539.062
3.853	2.525	-0.568	2.679	4.103	2.602	2.277	0.764	0.002	0.328	-0.351	-4.500	0.500	1.565	2.860	1.818	2.986	1.079	3.611	1.691	1.560	3.543	2.359	-0.142	-1.694	-2.657	-2.121	-4.796	542.969
3.828	2.601	-0.675	2.759	4.267	2.767	2.528	0.982	0.314	0.647	0.119	-4.139	0.626	1.663	2.839	1.767	2.943	0.896	3.535	1.705	1.648	3.481	2.235	-0.271	-1.975	-2.804	-2.146	-4.678	546.875
3.815	2.712	-0.839	2.876	4.452	2.915	2.762	1.111	0.514	0.925	0.460	-3.790	0.826	1.829	2.852	1.752	2.929	0.694	3.504	1.765	1.792	3.456	2.121	-0.324	-2.238	-2.904	-2.070	-4.486	550.781
3.816	2.824	-1.035	2.994	4.626	3.023	2.956	1.132	0.571	1.135	0.631	-3.490	1.089	2.053	2.893	1.765	2.932	0.499	3.521	1.852	1.978	3.481	2.034	-0.288	-2.446	-2.950	-1.897	-4.243	554.688
3.831	2.903	-1.236	3.076	4.760	3.070	3.091	1.036	0.471	1.257	0.609	-3.270	1.394	2.313	2.955	1.789	2.942	0.344	3.581	1.947	2.182	3.558	1.994	-0.157	-2.568	-2.940	-1.641	-3.977	558.594
3.856	2.922	-1.419	3.095	4.832	3.042	3.155	0.829	0.223	1.282	0.397	-3.150	1.714	2.583	3.025	1.808	2.945	0.254	3.672	2.026	2.382	3.684	2.017	0.061	-2.583	-2.876	-1.327	-3.711	562.500
3.887	2.868	-1.573	3.038	4.830	2.936	3.146	0.533	-0.146	1.212	0.020	-3.138	2.019	2.839	3.093	1.807	2.932	0.244	3.777	2.075	2.556	3.847	2.114	0.348	-2.484	-2.760	-0.985	-3.467	566.406
3.918	2.745	-1.695	2.910	4.762	2.764	3.073	0.179	-0.591	1.062	-0.479	-3.225	2.283	3.058	3.153	1.777	2.900	0.314	3.880	2.083	2.689	4.032	2.284	0.677	-2.278	-2.597	-0.643	-3.253	570.312
3.945	2.573	-1.795	2.733	4.644	2.549	2.951	-0.188	-1.056	0.856	-1.039	-3.390	2.489	3.224	3.196	1.716	2.853	0.448	3.959	2.052	2.773	4.218	2.515	1.019	-1.987	-2.390	-0.325	-3.070	574.219
3.966	2.380	-1.884	2.538	4.503	2.320	2.802	-0.521	-1.483	0.626	-1.595	-3.598	2.625	3.329	3.220	1.627	2.792	0.615	3.999	1.988	2.807	4.385	2.783	1.343	-1.645	-2.146	-0.047	-2.914	578.125
3.977	2.196	-1.975	2.355	4.364	2.110	2.652	-0.774	-1.815	0.406	-2.079	-3.811	2.693	3.371	3.221	1.515	2.718	0.778	3.985	1.897	2.793	4.513	3.060	1.624	-1.286	-1.873	0.184	-2.773	582.031
3.977	2.046	-2.073	2.210	4.249	1.948	2.527	-0.914	-2.010	0.229	-2.434	-3.987	2.702	3.355	3.192	1.388	2.628	0.897	3.909	1.786	2.738	4.587	3.312	1.846	-0.947	-1.580	0.371	-2.633	585.938
3.962	1.940	-2.176	2.112	4.167	1.855	2.447	-0.922	-2.041	0.121	-2.616	-4.087	2.667	3.290	3.128	1.250	2.515	0.939	3.768	1.660	2.645	4.601	3.512	1.999	-0.655	-1.279	0.520	-2.484	589.844
3.927	1.874	-2.281	2.054	4.116	1.838	2.428	-0.797	-1.900	0.101	-2.603	-4.085	2.606	3.187	3.024	1.102	2.370	0.880	3.569	1.517	2.521	4.555	3.638	2.087	-0.429	-0.985	0.641	-2.316	593.750
3.870	1.831	-2.381	2.019	4.084	1.890	2.477	-0.558	-1.602	0.179	-2.388	-3.965	2.537	3.063	2.880	0.946	2.190	0.717	3.328	1.356	2.371	4.458	3.681	2.120	-0.277	-0.715	0.743	-2.130	597.656
3.789	1.786	-2.468	1.980	4.055	1.995	2.593	-0.234	-1.176	0.351	-1.990	-3.732	2.476	2.932	2.700	0.781	1.977	0.460	3.066	1.178	2.204	4.328	3.642	2.110	-0.197	-0.489	0.827	-1.932	601.562
3.686	1.715	-2.540	1.915	4.010	2.124	2.766	0.137	-0.662	0.604	-1.442	-3.405	2.434	2.810	2.495	0.610	1.741	0.140	2.807	0.985	2.030	4.182	3.534	2.071	-0.184	-0.325	0.891	-1.738	605.469
3.568	1.602	-2.595	1.806	3.938	2.250	2.977	0.522	-0.105	0.917	-0.793	-3.016	2.414	2.713	2.281	0.436	1.499	-0.204	2.575	0.787	1.865	4.037	3.376	2.013	-0.225	-0.243	0.924	-1.570	609.375
3.446	1.445	-2.634	1.652	3.833	2.344	3.204	0.891	0.454	1.260	-0.098	-2.607	2.414	2.649	2.076	0.270	1.273	-0.529	2.386	0.599	1.722	3.907	3.194	1.942	-0.309	-0.253	0.916	-1.453	613.281
3.331	1.258	-2.661	1.465	3.698	2.388	3.422	1.221	0.979	1.604	0.588	-2.221	2.428	2.622	1.901	0.123	1.081	-0.793	2.250	0.434	1.613	3.798	3.014	1.860	-0.424	-0.361	0.854	-1.408	617.188
3.235	1.066	-2.684	1.266	3.541	2.370	3.604	1.497	1.444	1.919	1.215	-1.894	2.446	2.630	1.769	0.007	0.941	-0.965	2.170	0.307	1.544	3.714	2.863	1.764	-0.557	-0.559	0.735	-1.443	621.094
3.162	0.898	-2.717	1.081	3.375	2.286	3.730	1.707	1.831	2.180	1.743	-1.646	2.459	2.662	1.691	-0.069	0.860	-1.032	2.141	0.227	1.514	3.653	2.763	1.658	-0.693	-0.825	0.564	-1.552	625.000
3.113	0.780	-2.771	0.930	3.207	2.140	3.784	1.843	2.130	2.369	2.151	-1.482	2.464	2.706	1.666	-0.103	0.838	-0.997	2.153	0.195	1.518	3.614	2.726	1.547	-0.820	-1.125	0.362	-1.714	628.906
3.081	0.724	-2.860	0.822	3.043	1.943	3.761	1.901	2.338	2.481	2.429	-1.390	2.461	2.748	1.688	-0.099	0.869	-0.881	2.195	0.204	1.544	3.597	2.756	1.446	-0.920	-1.419	0.160	-1.889	632.812
3.054	0.728	-2.990	0.754	2.884	1.704	3.663	1.876	2.453	2.517	2.583	-1.342	2.459	2.778	1.742	-0.069	0.935	-0.717	2.252	0.242	1.580	3.601	2.847	1.374	-0.977	-1.659	-0.002	-2.031	636.719
3.018	0.769	-3.161	0.708	2.722	1.435	3.502	1.767	2.479	2.487	2.630	-1.308	2.470	2.791	1.808	-0.028	1.017	-0.543	2.312	0.292	1.615	3.631	2.983	1.353	-0.977	-1.804	-0.084	-2.093	640.625
2.962	0.816	-3.363	0.660	2.551	1.149	3.293	1.579	2.418	2.408	2.591	-1.255	2.505	2.789	1.868	0.004	1.094	-0.392	2.361	0.337	1.639	3.687	3.142	1.402	-0.907	-1.822	-0.054	-2.040	644.531
2.881	0.835	-3.579	0.586	2.363	0.858	3.060	1.323	2.279	2.298	2.490	-1.162	2.575	2.775	1.906	0.011	1.145	-0.288	2.390	0.362	1.649	3.769	3.298	1.534	-0.762	-1.700	0.107	-1.850	648.438
2.777	0.796	-3.789	0.468	2.155	0.577	2.823	1.020	2.071	2.176	2.348	-1.020	2.683	2.760	1.911	-0.019	1.152	-0.242	2.388	0.359	1.645	3.874	3.431	1.748	-0.544	-1.441	0.395	-1.524	652.344
2.660	0.684	-3.970	0.301	1.933	0.323	2.604	0.694	1.808	2.057	2.181	-0.833	2.825	2.750	1.882	-0.087	1.108	-0.249	2.353	0.328	1.631	3.991	3.523	2.029	-0.266	-1.071	0.789	-1.086	656.250
2.544	0.505	-4.103	0.095	1.711	0.113	2.423	0.378	1.509	1.953	1.997	-0.623	2.991	2.755	1.825	-0.186	1.016	-0.294	2.285	0.275	1.613	4.109	3.568	2.352	0.047	-0.631	1.249	-0.577	660.156
2.445	0.281	-4.174	-0.129	1.508	-0.034	2.293	0.098	1.193	1.869	1.796	-0.423	3.167	2.780	1.755	-0.299	0.892	-0.353	2.196	0.217	1.601	4.213	3.564	2.682	0.360	-0.176	1.724	-0.056	664.062
2.376	0.049	-4.178	-0.339	1.349	-0.107	2.223	-0.123	0.879	1.805	1.575	-0.270	3.337	2.831	1.690	-0.401	0.761	-0.402	2.101	0.172	1.606	4.294	3.521	2.981	0.635	0.235	2.160	0.417	667.969
2.345	-0.147	-4.119	-0.502	1.256	-0.101	2.218	-0.270	0.587	1.757	1.329	-0.199	3.489	2.909	1.652	-0.466	0.658	-0.420	2.023	0.163	1.636	4.345	3.448	3.218	0.833	0.548	2.508	0.782	671.875
2.356	-0.269	-4.011	-0.590	1.242	-0.022	2.273	-0.341	0.331	1.720	1.056	-0.235	3.612	3.016	1.657	-0.471	0.614	-0.395	1.983	0.208	1.699	4.367	3.355	3.370	0.922	0.719	2.733	0.991	675.781
2.408	-0.289	-3.875	-0.588	1.309	0.113	2.377	-0.338	0.127	1.687	0.762	-0.389	3.702	3.148	1.717	-0.400	0.650	-0.325	1.996	0.314	1.799	4.364	3.251	3.427	0.886	0.726	2.814	1.014	679.688
2.497	-0.197	-3.730	-0.494	1.443	0.278	2.515	-0.273	-0.017	1.656	0.463	-0.656	3.760	3.297	1.830	-0.252	0.771	-0.220	2.066	0.483	1.934	4.343	3.137	3.392	0.723	0.562	2.749	0.843	683.594
2.617	-0.007	-3.592	-0.323	1.619	0.444	2.667	-0.158	-0.092	1.629	0.182	-1.011	3.788	3.453	1.987	-0.036	0.962	-0.097	2.183	0.702	2.093	4.313	3.015	3.279	0.449	0.246	2.555	0.490	687.500
2.760	0.252	-3.469	-0.106	1.806	0.587	2.812	-0.007	-0.093	1.611	-0.049	-1.420	3.793	3.602	2.168	0.224	1.192	0.022	2.327	0.947	2.262	4.277	2.884	3.110	0.097	-0.191	2.258	-0.011	691.406
2.916	0.535	-3.362	0.119	1.971	0.692	2.932	0.166	-0.017	1.610	-0.201	-1.838	3.782	3.730	2.346	0.494	1.421	0.117	2.468	1.192	2.422	4.239	2.748	2.907	-0.294	-0.706	1.897	-0.614	695.312
3.076	0.794	-3.263	0.316	2.087	0.751	3.014	0.348	0.133	1.632	-0.252	-2.222	3.763	3.823	2.497	0.737	1.609	0.175	2.577	1.405	2.553	4.199	2.610	2.694	-0.680	-1.251	1.511	-1.262	699.219
3.230	0.986	-3.163	0.450	2.137	0.772	3.052	0.526	0.346	1.683	-0.191	-2.531	3.740	3.872	2.599	0.918	1.723	0.190	2.628	1.558	2.640	4.154	2.479	2.488	-1.019	-1.781	1.140	-1.892	703.125
3.367	1.083	-3.056	0.504	2.116	0.764	3.047	0.688	0.606	1.763	-0.020	-2.736	3.718	3.872	2.641	1.012	1.745	0.167	2.605	1.631	2.669	4.102	2.362	2.303	-1.280	-2.254	0.821	-2.449	707.031
3.477	1.077	-2.939	0.474	2.030	0.741	3.006	0.824	0.888	1.867	0.242	-2.820	3.699	3.824	2.619	1.006	1.673	0.118	2.509	1.614	2.637	4.043	2.268	2.148	-1.441	-2.637	0.580	-2.884	710.938
3.548	0.980	-2.817	0.370	1.894	0.716	2.941	0.928	1.167	1.990	0.567	-2.778	3.683	3.733	2.540	0.904	1.520	0.058	2.348	1.509	2.545	3.976	2.203	2.024	-1.498	-2.908	0.433	-3.164	714.844
3.571	0.819	-2.698	0.217	1.727	0.694	2.866	0.999	1.416	2.120	0.921	-2.620	3.669	3.608	2.417	0.721	1.310	0.001	2.145	1.329	2.400	3.901	2.172	1.934	-1.458	-3.054	0.385	-3.271	718.750
3.539	0.625	-2.596	0.038	1.545	0.678	2.795	1.041	1.612	2.248	1.270	-2.364	3.658	3.460	2.266	0.485	1.075	-0.044	1.928	1.092	2.213	3.819	2.174	1.877	-1.340	-3.071	0.433	-3.202	722.656
3.445	0.431	-2.522	-0.140	1.361	0.663	2.736	1.061	1.742	2.364	1.580	-2.035	3.650	3.301	2.103	0.226	0.850	-0.078	1.727	0.823	1.998	3.735	2.204	1.857	-1.167	-2.964	0.565	-2.972	726.562
3.288	0.257	-2.487	-0.304	1.180	0.641	2.691	1.064	1.798	2.459	1.830	-1.662	3.646	3.142	1.942	-0.023	0.666	-0.102	1.570	0.544	1.769	3.654	2.255	1.877	-0.965	-2.745	0.766	-2.606	730.469
3.074	0.115	-2.498	-0.445	1.003	0.601	2.657	1.054	1.780	2.525	2.001	-1.275	3.647	2.992	1.795	-0.238	0.547	-0.123	1.479	0.278	1.541	3.584	2.315	1.942	-0.752	-2.435	1.019	-2.140	734.375
2.816	0.006	-2.555	-0.565	0.826	0.532	2.623	1.031	1.696	2.557	2.087	-0.902	3.657	2.863	1.669	-0.404	0.502	-0.148	1.462	0.046	1.330	3.534	2.372	2.057	-0.544	-2.059	1.306	-1.611	738.281
2.537	-0.079	-2.655	-0.669	0.649	0.428	2.578	0.987	1.553	2.551	2.086	-0.568	3.678	2.764	1.571	-0.514	0.523	-0.179	1.515	-0.138	1.151	3.513	2.411	2.225	-0.348	-1.645	1.612	-1.062	742.188
2.268	-0.147	-2.791	-0.760	0.474	0.290	2.513	0.916	1.363	2.504	2.002	-0.293	3.714	2.704	1.502	-0.572	0.584	-0.217	1.617	-0.267	1.019	3.527	2.421	2.441	-0.165	-1.225	1.922	-0.529	746.094
2.041	-0.208	-2.948	-0.842	0.311	0.126	2.426	0.814	1.140	2.421	1.846	-0.089	3.771	2.689	1.458	-0.594	0.650	-0.259	1.739	-0.338	0.946	3.574	2.391	2.695	0.005	-0.827	2.220	-0.047	750.000
1.887	-0.264	-3.113	-0.910	0.174	-0.045	2.326	0.685	0.901	2.311	1.632	0.037	3.850	2.724	1.434	-0.596	0.680	-0.305	1.846	-0.358	0.935	3.648	2.314	2.971	0.167	-0.479	2.490	0.355	753.906
1.826	-0.315	-3.264	-0.960	0.077	-0.203	2.228	0.541	0.664	2.186	1.377	0.085	3.952	2.805	1.425	-0.597	0.646	-0.352	1.907	-0.340	0.986	3.735	2.194	3.245	0.322	-0.202	2.718	0.657	757.812
1.863	-0.358	-3.382	-0.986	0.034	-0.324	2.152	0.403	0.449	2.066	1.103	0.061	4.072	2.924	1.422	-0.612	0.533	-0.400	1.900	-0.298	1.084	3.817	2.041	3.493	0.468	-0.009	2.889	0.842	761.719
1.990	-0.387	-3.449	-0.985	0.053	-0.389	2.118	0.290	0.275	1.965	0.829	-0.027	4.203	3.067	1.421	-0.649	0.350	-0.443	1.823	-0.250	1.211	3.879	1.878	3.689	0.603	0.093	2.995	0.905	765.625
2.181	-0.397	-3.449	-0.957	0.133	-0.388	2.138	0.215	0.151	1.897	0.574	-0.167	4.331	3.213	1.422	-0.705	0.131	-0.472	1.688	-0.210	1.341	3.910	1.736	3.815	0.721	0.109	3.030	0.845	769.531
2.401	-0.384	-3.375	-0.904	0.266	-0.320	2.216	0.182	0.079	1.869	0.351	-0.347	4.443	3.344	1.430	-0.770	-0.078	-0.471	1.527	-0.189	1.447	3.904	1.654	3.859	0.820	0.045	2.994	0.669	773.438
2.614	-0.346	-3.227	-0.832	0.438	-0.192	2.345	0.181	0.052	1.879	0.166	-0.558	4.526	3.441	1.453	-0.828	-0.220	-0.417	1.376	-0.189	1.510	3.862	1.674	3.818	0.895	-0.086	2.894	0.388	777.344
2.785	-0.282	-3.014	-0.745	0.635	-0.017	2.512	0.192	0.053	1.920	0.019	-0.790	4.573	3.493	1.502	-0.861	-0.247	-0.292	1.275	-0.207	1.517	3.793	1.826	3.699	0.947	-0.269	2.739	0.019	781.250
2.894	-0.197	-2.750	-0.650	0.840	0.188	2.700	0.194	0.067	1.981	-0.096	-1.038	4.579	3.498	1.585	-0.858	-0.126	-0.082	1.249	-0.238	1.467	3.708	2.127	3.515	0.979	-0.492	2.541	-0.419	785.156
2.933	-0.093	-2.452	-0.549	1.043	0.407	2.895	0.173	0.078	2.053	-0.189	-1.296	4.549	3.460	1.705	-0.814	0.148	0.212	1.309	-0.274	1.366	3.616	2.570	3.286	0.997	-0.740	2.314	-0.904	789.062
2.914	0.022	-2.138	-0.448	1.238	0.628	3.086	0.123	0.078	2.127	-0.271	-1.561	4.493	3.391	1.856	-0.734	0.548	0.575	1.445	-0.310	1.228	3.526	3.124	3.031	1.007	-1.000	2.073	-1.417	792.969
2.858	0.142	-1.821	-0.348	1.424	0.844	3.270	0.051	0.066	2.197	-0.351	-1.828	4.423	3.308	2.026	-0.632	1.021	0.975	1.629	-0.342	1.073	3.441	3.737	2.771	1.015	-1.261	1.829	-1.936	796.875
