FP1	F3	F7	FC3	C3	C5	P3	P7	PO7	PO3	O1	Oz	Pz	CPz	FP2	Fz	F4	F8	FC4	FCz	Cz	C4	C6	P4	P8	PO8	PO4	O2	time
0.242	1.996	0.365	1.379	1.098	0.810	0.046	-0.730	-0.706	-0.540	-0.662	-0.471	0.071	0.197	0.567	0.840	0.564	0.504	-0.042	0.764	0.318	0.385	0.547	-0.442	-0.442	-0.701	-0.242	-0.943	-199.219
0.477	1.619	0.442	1.115	0.917	0.566	0.026	-0.691	-0.757	-0.542	-0.764	-0.774	0.089	0.305	0.615	0.862	0.557	0.562	0.075	0.902	0.465	0.409	0.528	-0.433	-0.407	-1.003	-0.473	-1.253	-195.312
0.703	1.280	0.510	0.885	0.762	0.361	0.012	-0.633	-0.794	-0.548	-0.874	-1.083	0.098	0.402	0.670	0.887	0.569	0.623	0.206	1.031	0.603	0.435	0.512	-0.433	-0.395	-1.302	-0.699	-1.567	-191.406
0.908	1.005	0.566	0.713	0.644	0.221	0.004	-0.545	-0.805	-0.559	-0.993	-1.395	0.094	0.479	0.732	0.915	0.611	0.690	0.359	1.136	0.721	0.463	0.504	-0.445	-0.422	-1.589	-0.910	-1.875	-187.500
1.076	0.812	0.600	0.608	0.568	0.157	0.002	-0.429	-0.783	-0.572	-1.112	-1.696	0.074	0.533	0.801	0.944	0.689	0.760	0.535	1.210	0.812	0.495	0.507	-0.465	-0.495	-1.847	-1.093	-2.166	-183.594
1.196	0.703	0.600	0.570	0.530	0.160	0.001	-0.296	-0.730	-0.581	-1.217	-1.967	0.044	0.563	0.874	0.973	0.804	0.819	0.733	1.249	0.877	0.533	0.521	-0.485	-0.607	-2.057	-1.231	-2.421	-179.688
1.258	0.667	0.551	0.583	0.515	0.207	-0.003	-0.165	-0.654	-0.578	-1.288	-2.180	0.011	0.576	0.942	1.001	0.944	0.851	0.939	1.256	0.918	0.576	0.544	-0.495	-0.744	-2.199	-1.308	-2.613	-175.781
1.256	0.679	0.446	0.624	0.507	0.266	-0.013	-0.060	-0.563	-0.552	-1.304	-2.307	-0.012	0.580	0.994	1.021	1.088	0.838	1.133	1.234	0.940	0.623	0.565	-0.479	-0.880	-2.251	-1.305	-2.716	-171.875
1.191	0.703	0.284	0.666	0.489	0.305	-0.027	0.001	-0.469	-0.494	-1.249	-2.323	-0.014	0.587	1.019	1.022	1.207	0.770	1.284	1.183	0.944	0.669	0.571	-0.428	-0.986	-2.195	-1.213	-2.708	-167.969
1.068	0.702	0.080	0.678	0.449	0.299	-0.039	0.007	-0.376	-0.396	-1.116	-2.210	0.017	0.604	1.005	0.988	1.268	0.643	1.359	1.101	0.932	0.704	0.542	-0.332	-1.036	-2.021	-1.026	-2.572	-164.062
0.895	0.644	-0.143	0.641	0.385	0.237	-0.040	-0.039	-0.288	-0.255	-0.909	-1.966	0.088	0.637	0.941	0.903	1.244	0.465	1.333	0.983	0.901	0.721	0.463	-0.191	-1.010	-1.732	-0.750	-2.303	-160.156
0.685	0.509	-0.356	0.543	0.303	0.121	-0.017	-0.123	-0.202	-0.073	-0.643	-1.605	0.199	0.687	0.824	0.754	1.120	0.248	1.192	0.825	0.847	0.711	0.324	-0.009	-0.900	-1.343	-0.401	-1.912	-156.250
0.455	0.295	-0.531	0.383	0.216	-0.035	0.042	-0.224	-0.116	0.138	-0.340	-1.154	0.345	0.749	0.657	0.540	0.895	0.009	0.940	0.627	0.771	0.671	0.128	0.203	-0.714	-0.883	-0.002	-1.422	-152.344
0.222	0.017	-0.648	0.176	0.142	-0.207	0.144	-0.315	-0.027	0.365	-0.026	-0.652	0.515	0.816	0.450	0.272	0.589	-0.239	0.601	0.398	0.677	0.601	-0.111	0.429	-0.470	-0.391	0.416	-0.870	-148.438
0.002	-0.295	-0.700	-0.054	0.099	-0.365	0.289	-0.376	0.067	0.587	0.272	-0.147	0.694	0.880	0.219	-0.029	0.232	-0.483	0.216	0.154	0.573	0.504	-0.369	0.648	-0.200	0.087	0.819	-0.304	-144.531
-0.186	-0.602	-0.693	-0.280	0.099	-0.481	0.466	-0.391	0.164	0.786	0.536	0.319	0.861	0.930	-0.014	-0.327	-0.137	-0.713	-0.167	-0.083	0.470	0.387	-0.617	0.839	0.059	0.503	1.170	0.229	-140.625
-0.330	-0.863	-0.639	-0.471	0.147	-0.536	0.658	-0.360	0.261	0.943	0.750	0.707	0.996	0.955	-0.226	-0.585	-0.474	-0.919	-0.497	-0.283	0.382	0.259	-0.826	0.982	0.267	0.815	1.439	0.681	-136.719
-0.417	-1.044	-0.557	-0.604	0.237	-0.521	0.836	-0.292	0.348	1.044	0.908	0.988	1.080	0.949	-0.393	-0.766	-0.741	-1.089	-0.732	-0.420	0.319	0.127	-0.972	1.058	0.393	0.993	1.598	1.016	-132.812
-0.441	-1.119	-0.463	-0.662	0.352	-0.444	0.972	-0.207	0.414	1.076	1.003	1.146	1.099	0.907	-0.496	-0.840	-0.906	-1.210	-0.843	-0.472	0.291	0.006	-1.039	1.060	0.417	1.020	1.635	1.207	-128.906
-0.401	-1.080	-0.369	-0.638	0.471	-0.327	1.037	-0.132	0.444	1.034	1.030	1.173	1.047	0.831	-0.521	-0.791	-0.949	-1.264	-0.815	-0.425	0.302	-0.093	-1.019	0.984	0.338	0.902	1.544	1.246	-125.000
-0.297	-0.929	-0.279	-0.535	0.570	-0.198	1.007	-0.094	0.420	0.914	0.979	1.073	0.923	0.728	-0.461	-0.618	-0.861	-1.236	-0.653	-0.275	0.352	-0.156	-0.912	0.838	0.170	0.659	1.336	1.137	-121.094
-0.136	-0.683	-0.193	-0.365	0.630	-0.086	0.872	-0.117	0.327	0.716	0.840	0.854	0.739	0.609	-0.319	-0.338	-0.652	-1.112	-0.379	-0.035	0.438	-0.170	-0.724	0.636	-0.056	0.324	1.033	0.897	-117.188
0.073	-0.365	-0.106	-0.145	0.641	-0.012	0.635	-0.206	0.158	0.448	0.604	0.532	0.509	0.488	-0.106	0.018	-0.344	-0.890	-0.030	0.273	0.551	-0.127	-0.468	0.395	-0.305	-0.060	0.663	0.555	-113.281
0.314	-0.006	-0.012	0.102	0.601	0.018	0.317	-0.356	-0.084	0.123	0.270	0.132	0.254	0.374	0.152	0.407	0.021	-0.581	0.347	0.614	0.679	-0.030	-0.162	0.136	-0.538	-0.450	0.260	0.145	-109.375
0.568	0.361	0.092	0.354	0.519	0.010	-0.051	-0.538	-0.378	-0.236	-0.144	-0.314	-0.005	0.275	0.424	0.783	0.394	-0.209	0.701	0.944	0.803	0.110	0.172	-0.123	-0.723	-0.805	-0.144	-0.293	-105.469
0.809	0.704	0.207	0.585	0.406	-0.017	-0.427	-0.716	-0.689	-0.598	-0.606	-0.763	-0.250	0.190	0.675	1.097	0.721	0.190	0.981	1.216	0.899	0.267	0.503	-0.363	-0.835	-1.091	-0.518	-0.718	-101.562
1.009	0.991	0.329	0.773	0.275	-0.042	-0.766	-0.845	-0.972	-0.928	-1.063	-1.168	-0.464	0.112	0.866	1.312	0.956	0.574	1.149	1.389	0.943	0.414	0.803	-0.569	-0.862	-1.279	-0.834	-1.086	-97.656
1.140	1.191	0.452	0.896	0.135	-0.046	-1.027	-0.885	-1.178	-1.189	-1.453	-1.477	-0.634	0.031	0.968	1.399	1.067	0.898	1.183	1.430	0.915	0.516	1.040	-0.728	-0.802	-1.350	-1.072	-1.357	-93.750
1.176	1.284	0.568	0.939	-0.005	-0.016	-1.178	-0.812	-1.265	-1.348	-1.716	-1.648	-0.751	-0.061	0.962	1.350	1.042	1.125	1.081	1.326	0.801	0.547	1.186	-0.831	-0.665	-1.293	-1.215	-1.496	-89.844
1.100	1.255	0.668	0.892	-0.141	0.048	-1.202	-0.618	-1.210	-1.383	-1.804	-1.648	-0.810	-0.170	0.842	1.168	0.887	1.226	0.857	1.081	0.600	0.491	1.216	-0.876	-0.467	-1.108	-1.255	-1.479	-85.938
0.913	1.106	0.744	0.759	-0.268	0.136	-1.098	-0.319	-1.011	-1.286	-1.694	-1.463	-0.810	-0.293	0.618	0.876	0.623	1.190	0.544	0.722	0.325	0.343	1.116	-0.863	-0.232	-0.803	-1.191	-1.294	-82.031
0.625	0.852	0.791	0.552	-0.381	0.234	-0.884	0.049	-0.689	-1.066	-1.389	-1.104	-0.754	-0.422	0.312	0.506	0.284	1.017	0.178	0.290	0.002	0.116	0.882	-0.798	0.013	-0.401	-1.029	-0.945	-78.125
0.263	0.524	0.803	0.294	-0.475	0.320	-0.589	0.437	-0.289	-0.751	-0.925	-0.601	-0.651	-0.546	-0.044	0.098	-0.095	0.726	-0.201	-0.167	-0.338	-0.167	0.525	-0.690	0.246	0.070	-0.785	-0.453	-74.219
-0.136	0.163	0.779	0.015	-0.543	0.379	-0.257	0.792	0.136	-0.379	-0.357	-0.002	-0.514	-0.653	-0.415	-0.309	-0.475	0.348	-0.559	-0.602	-0.660	-0.474	0.073	-0.549	0.452	0.576	-0.476	0.146	-70.312
-0.536	-0.191	0.716	-0.255	-0.585	0.396	0.069	1.065	0.530	0.003	0.244	0.634	-0.362	-0.734	-0.764	-0.681	-0.827	-0.075	-0.870	-0.976	-0.938	-0.772	-0.431	-0.385	0.623	1.084	-0.126	0.805	-66.406
-0.900	-0.501	0.614	-0.492	-0.604	0.366	0.346	1.223	0.845	0.353	0.810	1.248	-0.210	-0.787	-1.064	-0.990	-1.128	-0.498	-1.120	-1.266	-1.156	-1.027	-0.931	-0.206	0.763	1.561	0.242	1.471	-62.500
-1.203	-0.742	0.474	-0.680	-0.607	0.289	0.544	1.253	1.054	0.634	1.281	1.789	-0.077	-0.812	-1.294	-1.225	-1.362	-0.874	-1.306	-1.466	-1.309	-1.212	-1.368	-0.016	0.881	1.982	0.605	2.090	-58.594
-1.430	-0.906	0.298	-0.815	-0.603	0.176	0.644	1.166	1.148	0.825	1.620	2.217	0.027	-0.818	-1.444	-1.382	-1.524	-1.163	-1.429	-1.581	-1.402	-1.312	-1.686	0.179	0.985	2.329	0.941	2.617	-54.688
-1.574	-1.000	0.092	-0.903	-0.604	0.042	0.646	0.990	1.140	0.919	1.809	2.509	0.095	-0.811	-1.513	-1.466	-1.613	-1.339	-1.493	-1.629	-1.447	-1.320	-1.843	0.371	1.081	2.586	1.227	3.013	-50.781
-1.640	-1.038	-0.135	-0.951	-0.616	-0.093	0.561	0.768	1.057	0.923	1.854	2.656	0.125	-0.800	-1.507	-1.489	-1.631	-1.385	-1.504	-1.627	-1.456	-1.242	-1.818	0.551	1.167	2.742	1.441	3.254	-46.875
-1.635	-1.040	-0.365	-0.969	-0.641	-0.212	0.409	0.545	0.932	0.853	1.775	2.663	0.116	-0.792	-1.436	-1.461	-1.578	-1.303	-1.463	-1.590	-1.439	-1.094	-1.614	0.702	1.233	2.787	1.563	3.326	-42.969
-1.567	-1.023	-0.577	-0.963	-0.676	-0.301	0.216	0.358	0.796	0.730	1.602	2.540	0.074	-0.791	-1.311	-1.394	-1.458	-1.105	-1.371	-1.529	-1.402	-0.898	-1.259	0.807	1.265	2.710	1.576	3.227	-39.062
-1.444	-0.994	-0.747	-0.935	-0.712	-0.352	0.009	0.230	0.672	0.575	1.365	2.307	-0.000	-0.796	-1.143	-1.292	-1.276	-0.814	-1.227	-1.448	-1.345	-0.681	-0.801	0.847	1.246	2.507	1.469	2.968	-35.156
-1.271	-0.954	-0.853	-0.884	-0.737	-0.363	-0.189	0.167	0.574	0.407	1.093	1.987	-0.100	-0.806	-0.944	-1.162	-1.039	-0.462	-1.035	-1.347	-1.268	-0.466	-0.299	0.808	1.165	2.177	1.239	2.568	-31.250
-1.058	-0.896	-0.876	-0.804	-0.740	-0.335	-0.358	0.161	0.504	0.241	0.809	1.603	-0.221	-0.816	-0.724	-1.008	-0.760	-0.084	-0.799	-1.223	-1.170	-0.275	0.186	0.681	1.017	1.732	0.897	2.057	-27.344
-0.815	-0.813	-0.803	-0.696	-0.710	-0.272	-0.482	0.197	0.456	0.087	0.532	1.183	-0.355	-0.822	-0.499	-0.834	-0.454	0.283	-0.531	-1.077	-1.054	-0.125	0.596	0.470	0.807	1.199	0.463	1.475	-23.438
-0.560	-0.701	-0.636	-0.561	-0.641	-0.174	-0.554	0.256	0.422	-0.049	0.278	0.757	-0.497	-0.824	-0.283	-0.652	-0.145	0.610	-0.246	-0.918	-0.928	-0.026	0.890	0.187	0.552	0.617	-0.030	0.869	-19.531
-0.317	-0.564	-0.387	-0.409	-0.533	-0.041	-0.567	0.327	0.397	-0.162	0.063	0.355	-0.638	-0.826	-0.095	-0.478	0.144	0.871	0.035	-0.760	-0.810	0.014	1.043	-0.147	0.276	0.038	-0.543	0.288	-15.625
-0.115	-0.416	-0.082	-0.255	-0.395	0.123	-0.522	0.408	0.381	-0.245	-0.096	0.011	-0.772	-0.833	0.045	-0.333	0.385	1.051	0.286	-0.624	-0.717	-0.011	1.047	-0.504	0.010	-0.478	-1.034	-0.216	-11.719
0.018	-0.280	0.245	-0.119	-0.240	0.315	-0.423	0.505	0.382	-0.293	-0.178	-0.244	-0.892	-0.856	0.119	-0.241	0.554	1.143	0.479	-0.538	-0.673	-0.100	0.911	-0.850	-0.215	-0.872	-1.461	-0.594	-7.812
0.057	-0.181	0.552	-0.025	-0.089	0.521	-0.277	0.630	0.413	-0.293	-0.167	-0.382	-0.989	-0.901	0.113	-0.222	0.630	1.147	0.591	-0.522	-0.692	-0.252	0.660	-1.152	-0.371	-1.095	-1.787	-0.808	-3.906
-0.010	-0.145	0.800	0.008	0.036	0.722	-0.093	0.787	0.485	-0.239	-0.050	-0.383	-1.055	-0.970	0.022	-0.290	0.605	1.063	0.605	-0.591	-0.783	-0.454	0.327	-1.377	-0.437	-1.114	-1.980	-0.834	0.000
-0.181	-0.185	0.955	-0.029	0.119	0.896	0.113	0.972	0.601	-0.126	0.169	-0.246	-1.080	-1.059	-0.148	-0.442	0.482	0.899	0.519	-0.741	-0.940	-0.686	-0.043	-1.497	-0.403	-0.916	-2.022	-0.664	3.906
-0.437	-0.303	1.000	-0.134	0.151	1.019	0.323	1.167	0.753	0.039	0.471	0.016	-1.059	-1.152	-0.376	-0.661	0.282	0.666	0.348	-0.954	-1.140	-0.916	-0.405	-1.493	-0.271	-0.515	-1.908	-0.316	7.812
-0.742	-0.481	0.931	-0.286	0.134	1.078	0.516	1.338	0.917	0.240	0.817	0.366	-0.987	-1.231	-0.632	-0.911	0.035	0.379	0.122	-1.191	-1.350	-1.108	-0.710	-1.356	-0.057	0.047	-1.649	0.173	11.719
-1.048	-0.688	0.765	-0.451	0.085	1.068	0.671	1.448	1.057	0.451	1.156	0.752	-0.869	-1.273	-0.877	-1.148	-0.219	0.064	-0.120	-1.404	-1.528	-1.227	-0.921	-1.097	0.211	0.710	-1.272	0.744	15.625
-1.302	-0.881	0.531	-0.586	0.028	0.999	0.771	1.462	1.137	0.638	1.432	1.116	-0.713	-1.262	-1.070	-1.324	-0.440	-0.252	-0.337	-1.546	-1.635	-1.245	-1.010	-0.739	0.495	1.397	-0.819	1.329	19.531
-1.462	-1.017	0.268	-0.650	-0.008	0.892	0.807	1.361	1.128	0.774	1.597	1.402	-0.535	-1.189	-1.180	-1.399	-0.596	-0.540	-0.495	-1.577	-1.643	-1.150	-0.974	-0.323	0.755	2.029	-0.341	1.858	23.438
-1.499	-1.062	0.016	-0.613	0.000	0.773	0.777	1.143	1.017	0.836	1.623	1.569	-0.356	-1.059	-1.188	-1.350	-0.666	-0.774	-0.575	-1.479	-1.543	-0.955	-0.829	0.103	0.952	2.534	0.107	2.270	27.344
-1.410	-0.994	-0.186	-0.464	0.065	0.667	0.691	0.832	0.813	0.816	1.508	1.598	-0.197	-0.890	-1.094	-1.175	-0.644	-0.934	-0.574	-1.257	-1.345	-0.690	-0.615	0.483	1.054	2.855	0.475	2.520	31.250
-1.214	-0.814	-0.309	-0.214	0.185	0.592	0.563	0.471	0.545	0.718	1.276	1.496	-0.079	-0.708	-0.912	-0.891	-0.539	-1.009	-0.504	-0.938	-1.079	-0.400	-0.382	0.769	1.040	2.959	0.724	2.585	35.156
-0.949	-0.541	-0.336	0.108	0.342	0.555	0.413	0.112	0.257	0.560	0.972	1.291	-0.019	-0.544	-0.673	-0.534	-0.366	-0.999	-0.385	-0.565	-0.786	-0.136	-0.181	0.921	0.905	2.843	0.828	2.470	39.062
-0.665	-0.212	-0.267	0.455	0.507	0.551	0.255	-0.191	-0.004	0.363	0.656	1.029	-0.029	-0.431	-0.413	-0.147	-0.148	-0.911	-0.240	-0.188	-0.512	0.057	-0.051	0.920	0.663	2.528	0.781	2.199	42.969
-0.413	0.124	-0.116	0.775	0.644	0.566	0.101	-0.400	-0.196	0.150	0.381	0.762	-0.113	-0.391	-0.170	0.225	0.093	-0.760	-0.092	0.143	-0.299	0.152	-0.011	0.768	0.345	2.069	0.596	1.821	46.875
-0.236	0.416	0.085	1.017	0.720	0.576	-0.048	-0.496	-0.291	-0.061	0.195	0.540	-0.271	-0.443	0.024	0.541	0.333	-0.566	0.046	0.392	-0.176	0.141	-0.051	0.489	0.000	1.543	0.306	1.397	50.781
-0.162	0.614	0.293	1.142	0.707	0.556	-0.195	-0.482	-0.285	-0.259	0.120	0.397	-0.493	-0.589	0.146	0.770	0.551	-0.349	0.163	0.532	-0.160	0.037	-0.139	0.128	-0.304	1.045	-0.042	0.996	54.688
-0.202	0.680	0.461	1.124	0.589	0.485	-0.354	-0.387	-0.192	-0.443	0.157	0.352	-0.767	-0.823	0.180	0.888	0.724	-0.132	0.250	0.554	-0.253	-0.132	-0.233	-0.259	-0.495	0.676	-0.390	0.686	58.594
-0.348	0.590	0.548	0.953	0.364	0.346	-0.538	-0.252	-0.047	-0.617	0.282	0.400	-1.077	-1.131	0.120	0.884	0.830	0.064	0.301	0.459	-0.447	-0.329	-0.286	-0.614	-0.499	0.535	-0.682	0.523	62.500
-0.581	0.342	0.529	0.640	0.044	0.136	-0.758	-0.121	0.109	-0.791	0.454	0.514	-1.405	-1.489	-0.030	0.757	0.849	0.221	0.305	0.259	-0.723	-0.518	-0.265	-0.882	-0.258	0.698	-0.867	0.546	66.406
-0.868	-0.044	0.396	0.214	-0.345	-0.138	-1.019	-0.038	0.232	-0.974	0.622	0.652	-1.735	-1.871	-0.259	0.519	0.768	0.323	0.254	-0.025	-1.056	-0.673	-0.157	-1.023	0.262	1.208	-0.912	0.766	70.312
-1.174	-0.528	0.162	-0.281	-0.768	-0.456	-1.315	-0.029	0.288	-1.172	0.739	0.768	-2.049	-2.254	-0.550	0.190	0.585	0.361	0.142	-0.370	-1.420	-0.779	0.030	-1.021	1.058	2.065	-0.805	1.169	74.219
-1.465	-1.056	-0.145	-0.792	-1.183	-0.787	-1.630	-0.108	0.258	-1.382	0.767	0.813	-2.336	-2.613	-0.878	-0.198	0.313	0.335	-0.029	-0.746	-1.789	-0.837	0.264	-0.882	2.090	3.223	-0.557	1.714	78.125
-1.712	-1.565	-0.487	-1.261	-1.547	-1.096	-1.942	-0.268	0.138	-1.596	0.688	0.754	-2.588	-2.932	-1.214	-0.607	-0.022	0.251	-0.251	-1.122	-2.138	-0.860	0.500	-0.636	3.281	4.595	-0.201	2.341	82.031
-1.902	-2.000	-0.823	-1.640	-1.826	-1.347	-2.223	-0.490	-0.056	-1.797	0.507	0.575	-2.799	-3.197	-1.527	-0.996	-0.377	0.126	-0.505	-1.470	-2.449	-0.867	0.691	-0.327	4.534	6.066	0.214	2.984	85.938
-2.031	-2.319	-1.118	-1.893	-1.996	-1.514	-2.448	-0.747	-0.299	-1.968	0.244	0.282	-2.966	-3.403	-1.790	-1.331	-0.706	-0.017	-0.764	-1.768	-2.708	-0.878	0.800	-0.003	5.742	7.509	0.639	3.577	89.844
-2.111	-2.503	-1.346	-2.011	-2.053	-1.586	-2.598	-1.011	-0.561	-2.091	-0.065	-0.094	-3.086	-3.547	-1.985	-1.584	-0.964	-0.154	-0.998	-2.002	-2.909	-0.906	0.808	0.292	6.808	8.809	1.029	4.072	93.750
-2.159	-2.559	-1.496	-2.007	-2.011	-1.571	-2.667	-1.261	-0.813	-2.153	-0.375	-0.510	-3.154	-3.630	-2.100	-1.743	-1.122	-0.260	-1.181	-2.166	-3.051	-0.955	0.722	0.533	7.660	9.874	1.357	4.436	97.656
-2.194	-2.513	-1.570	-1.914	-1.906	-1.495	-2.661	-1.486	-1.036	-2.151	-0.647	-0.911	-3.163	-3.653	-2.136	-1.811	-1.168	-0.316	-1.294	-2.264	-3.136	-1.012	0.569	0.715	8.258	10.649	1.613	4.663	101.562
-2.231	-2.405	-1.584	-1.777	-1.780	-1.399	-2.597	-1.683	-1.214	-2.090	-0.845	-1.245	-3.107	-3.620	-2.101	-1.802	-1.113	-0.313	-1.329	-2.307	-3.165	-1.059	0.392	0.850	8.594	11.115	1.805	4.762	105.469
-2.273	-2.276	-1.560	-1.640	-1.676	-1.325	-2.498	-1.855	-1.340	-1.978	-0.945	-1.469	-2.982	-3.534	-2.012	-1.739	-0.985	-0.253	-1.289	-2.304	-3.142	-1.069	0.239	0.963	8.683	11.284	1.954	4.758	109.375
-2.316	-2.157	-1.522	-1.537	-1.627	-1.308	-2.385	-2.004	-1.411	-1.832	-0.936	-1.561	-2.791	-3.399	-1.885	-1.642	-0.823	-0.152	-1.187	-2.265	-3.070	-1.020	0.147	1.080	8.558	11.189	2.078	4.677	113.281
-2.347	-2.065	-1.490	-1.483	-1.648	-1.365	-2.277	-2.127	-1.423	-1.665	-0.817	-1.517	-2.545	-3.223	-1.740	-1.530	-0.664	-0.033	-1.044	-2.195	-2.950	-0.903	0.138	1.216	8.256	10.871	2.189	4.540	117.188
-2.353	-2.001	-1.473	-1.477	-1.732	-1.491	-2.184	-2.213	-1.373	-1.491	-0.599	-1.354	-2.264	-3.017	-1.593	-1.413	-0.539	0.075	-0.885	-2.098	-2.791	-0.726	0.211	1.373	7.816	10.374	2.284	4.359	121.094
-2.325	-1.953	-1.473	-1.501	-1.852	-1.658	-2.107	-2.243	-1.255	-1.319	-0.299	-1.107	-1.977	-2.799	-1.458	-1.296	-0.465	0.148	-0.735	-1.976	-2.604	-0.512	0.342	1.534	7.273	9.736	2.347	4.137	125.000
-2.258	-1.902	-1.479	-1.531	-1.973	-1.823	-2.041	-2.190	-1.063	-1.155	0.063	-0.815	-1.720	-2.590	-1.345	-1.180	-0.446	0.169	-0.616	-1.837	-2.408	-0.301	0.491	1.667	6.660	8.991	2.351	3.864	128.906
-2.157	-1.830	-1.476	-1.541	-2.059	-1.937	-1.977	-2.034	-0.793	-1.002	0.465	-0.521	-1.526	-2.416	-1.262	-1.066	-0.472	0.132	-0.544	-1.689	-2.226	-0.136	0.611	1.733	6.006	8.169	2.267	3.532	132.812
-2.031	-1.727	-1.446	-1.514	-2.081	-1.957	-1.909	-1.756	-0.446	-0.860	0.889	-0.260	-1.425	-2.302	-1.213	-0.958	-0.530	0.046	-0.525	-1.550	-2.087	-0.056	0.661	1.697	5.340	7.305	2.072	3.133	136.719
-1.892	-1.593	-1.377	-1.443	-2.024	-1.855	-1.830	-1.351	-0.024	-0.730	1.323	-0.055	-1.440	-2.271	-1.201	-0.865	-0.600	-0.078	-0.558	-1.439	-2.015	-0.085	0.615	1.534	4.691	6.436	1.756	2.672	140.625
-1.754	-1.442	-1.267	-1.331	-1.893	-1.630	-1.740	-0.826	0.465	-0.609	1.760	0.085	-1.576	-2.338	-1.226	-0.804	-0.671	-0.225	-0.635	-1.378	-2.030	-0.231	0.464	1.239	4.089	5.608	1.332	2.164	144.531
-1.629	-1.296	-1.126	-1.198	-1.705	-1.302	-1.641	-0.202	1.010	-0.495	2.201	0.170	-1.826	-2.506	-1.292	-0.791	-0.740	-0.385	-0.750	-1.387	-2.144	-0.482	0.221	0.828	3.565	4.873	0.826	1.643	148.438
-1.533	-1.188	-0.978	-1.069	-1.492	-0.916	-1.534	0.491	1.601	-0.382	2.650	0.221	-2.169	-2.768	-1.402	-0.847	-0.816	-0.555	-0.900	-1.484	-2.358	-0.814	-0.091	0.338	3.150	4.288	0.284	1.149	152.344
-1.481	-1.151	-0.850	-0.977	-1.291	-0.528	-1.425	1.214	2.227	-0.266	3.118	0.269	-2.572	-3.109	-1.566	-0.991	-0.919	-0.740	-1.089	-1.681	-2.666	-1.197	-0.442	-0.182	2.873	3.903	-0.240	0.732	156.250
-1.485	-1.217	-0.773	-0.958	-1.138	-0.195	-1.315	1.931	2.880	-0.139	3.616	0.347	-3.001	-3.507	-1.789	-1.235	-1.073	-0.947	-1.325	-1.982	-3.054	-1.602	-0.807	-0.679	2.759	3.759	-0.695	0.436	160.156
-1.557	-1.407	-0.770	-1.038	-1.060	0.035	-1.206	2.605	3.551	0.005	4.150	0.483	-3.424	-3.936	-2.073	-1.580	-1.298	-1.181	-1.613	-2.381	-3.504	-2.003	-1.164	-1.108	2.823	3.874	-1.038	0.296	164.062
-1.703	-1.723	-0.855	-1.232	-1.072	0.137	-1.102	3.208	4.229	0.171	4.722	0.691	-3.816	-4.376	-2.414	-2.014	-1.596	-1.439	-1.951	-2.859	-3.994	-2.383	-1.501	-1.436	3.066	4.243	-1.245	0.325	167.969
-1.919	-2.146	-1.030	-1.533	-1.170	0.106	-1.006	3.719	4.901	0.356	5.324	0.971	-4.164	-4.809	-2.793	-2.508	-1.952	-1.710	-2.320	-3.387	-4.501	-2.734	-1.816	-1.656	3.468	4.830	-1.316	0.514	171.875
-2.192	-2.633	-1.284	-1.912	-1.337	-0.037	-0.921	4.129	5.549	0.555	5.937	1.304	-4.463	-5.224	-3.184	-3.016	-2.328	-1.976	-2.690	-3.923	-5.001	-3.049	-2.108	-1.778	3.993	5.577	-1.273	0.833	175.781
-2.499	-3.125	-1.596	-2.325	-1.543	-0.256	-0.853	4.438	6.150	0.757	6.537	1.661	-4.719	-5.615	-3.554	-3.489	-2.673	-2.218	-3.021	-4.425	-5.469	-3.330	-2.379	-1.833	4.589	6.410	-1.150	1.237	179.688
-2.815	-3.558	-1.946	-2.716	-1.752	-0.504	-0.805	4.651	6.687	0.949	7.097	2.009	-4.941	-5.979	-3.868	-3.880	-2.939	-2.422	-3.273	-4.851	-5.884	-3.577	-2.633	-1.857	5.196	7.253	-0.990	1.674	183.594
-3.112	-3.883	-2.315	-3.035	-1.936	-0.741	-0.782	4.782	7.142	1.119	7.598	2.321	-5.135	-6.312	-4.104	-4.155	-3.090	-2.582	-3.417	-5.174	-6.231	-3.794	-2.871	-1.884	5.759	8.039	-0.830	2.103	187.500
-3.373	-4.074	-2.689	-3.251	-2.078	-0.940	-0.780	4.847	7.511	1.261	8.029	2.585	-5.302	-6.610	-4.252	-4.305	-3.114	-2.702	-3.442	-5.381	-6.500	-3.982	-3.091	-1.935	6.238	8.728	-0.691	2.498	191.406
-3.594	-4.138	-3.059	-3.358	-2.176	-1.092	-0.795	4.865	7.797	1.377	8.397	2.805	-5.439	-6.869	-4.320	-4.345	-3.024	-2.792	-3.358	-5.484	-6.692	-4.144	-3.290	-2.013	6.612	9.306	-0.578	2.852	195.312
-3.783	-4.111	-3.418	-3.378	-2.246	-1.210	-0.819	4.857	8.017	1.473	8.721	3.003	-5.536	-7.082	-4.333	-4.313	-2.859	-2.869	-3.197	-5.510	-6.818	-4.280	-3.468	-2.106	6.887	9.787	-0.479	3.180	199.219
-3.963	-4.049	-3.760	-3.352	-2.313	-1.316	-0.843	4.843	8.194	1.560	9.029	3.208	-5.584	-7.246	-4.325	-4.257	-2.671	-2.948	-3.004	-5.499	-6.897	-4.393	-3.621	-2.188	7.089	10.206	-0.372	3.506	203.125
-4.156	-4.012	-4.083	-3.331	-2.406	-1.436	-0.859	4.839	8.353	1.650	9.349	3.451	-5.580	-7.361	-4.335	-4.228	-2.516	-3.044	-2.827	-5.493	-6.951	-4.487	-3.750	-2.230	7.258	10.604	-0.232	3.857	207.031
-4.383	-4.047	-4.384	-3.357	-2.544	-1.586	-0.859	4.860	8.520	1.754	9.703	3.753	-5.525	-7.432	-4.392	-4.267	-2.442	-3.162	-2.713	-5.531	-7.006	-4.567	-3.856	-2.205	7.439	11.018	-0.039	4.252	210.938
-4.653	-4.180	-4.663	-3.459	-2.736	-1.769	-0.843	4.915	8.716	1.878	10.102	4.120	-5.434	-7.469	-4.518	-4.396	-2.480	-3.306	-2.695	-5.638	-7.088	-4.641	-3.942	-2.102	7.668	11.469	0.213	4.694	214.844
-4.962	-4.409	-4.920	-3.642	-2.972	-1.976	-0.808	5.012	8.954	2.021	10.545	4.541	-5.324	-7.489	-4.716	-4.620	-2.641	-3.475	-2.790	-5.828	-7.213	-4.714	-4.008	-1.920	7.970	11.961	0.519	5.169	218.750
-5.295	-4.709	-5.155	-3.892	-3.235	-2.183	-0.756	5.154	9.242	2.183	11.021	4.992	-5.219	-7.511	-4.978	-4.923	-2.914	-3.666	-2.996	-6.097	-7.394	-4.794	-4.054	-1.678	8.345	12.475	0.858	5.653	222.656
-5.628	-5.041	-5.361	-4.180	-3.497	-2.364	-0.686	5.340	9.576	2.358	11.512	5.441	-5.138	-7.551	-5.286	-5.283	-3.275	-3.874	-3.296	-6.433	-7.633	-4.884	-4.077	-1.402	8.776	12.978	1.207	6.110	226.562
-5.937	-5.363	-5.531	-4.476	-3.733	-2.498	-0.599	5.567	9.948	2.542	11.997	5.854	-5.098	-7.623	-5.617	-5.672	-3.687	-4.089	-3.662	-6.819	-7.926	-4.983	-4.075	-1.125	9.231	13.435	1.535	6.507	230.469
-6.202	-5.647	-5.659	-4.750	-3.923	-2.572	-0.495	5.828	10.342	2.730	12.457	6.205	-5.104	-7.737	-5.945	-6.065	-4.116	-4.298	-4.062	-7.233	-8.262	-5.089	-4.043	-0.878	9.671	13.809	1.818	6.819	234.375
-6.409	-5.874	-5.737	-4.984	-4.058	-2.585	-0.375	6.112	10.737	2.915	12.874	6.473	-5.155	-7.891	-6.249	-6.446	-4.528	-4.482	-4.461	-7.656	-8.622	-5.193	-3.980	-0.686	10.057	14.077	2.035	7.030	238.281
-6.550	-6.042	-5.764	-5.167	-4.136	-2.546	-0.243	6.403	11.107	3.094	13.231	6.647	-5.241	-8.078	-6.510	-6.798	-4.898	-4.620	-4.830	-8.069	-8.988	-5.289	-3.890	-0.563	10.359	14.225	2.176	7.136	242.188
-6.625	-6.160	-5.740	-5.296	-4.162	-2.469	-0.106	6.686	11.427	3.260	13.515	6.727	-5.351	-8.283	-6.714	-7.114	-5.209	-4.692	-5.145	-8.452	-9.336	-5.371	-3.781	-0.513	10.555	14.256	2.237	7.145	246.094
-6.641	-6.237	-5.672	-5.371	-4.144	-2.369	0.029	6.942	11.676	3.404	13.714	6.719	-5.469	-8.487	-6.855	-7.385	-5.451	-4.690	-5.389	-8.789	-9.645	-5.436	-3.668	-0.530	10.637	14.184	2.222	7.072	250.000
-6.607	-6.282	-5.571	-5.392	-4.090	-2.252	0.156	7.159	11.841	3.521	13.823	6.636	-5.585	-8.669	-6.933	-7.602	-5.622	-4.616	-5.557	-9.061	-9.897	-5.488	-3.571	-0.603	10.609	14.031	2.139	6.938	253.906
-6.534	-6.295	-5.444	-5.356	-4.003	-2.118	0.269	7.329	11.917	3.603	13.841	6.493	-5.688	-8.814	-6.954	-7.761	-5.728	-4.489	-5.650	-9.256	-10.079	-5.533	-3.511	-0.720	10.481	13.822	2.001	6.764	257.812
-6.433	-6.271	-5.295	-5.263	-3.886	-1.962	0.367	7.448	11.910	3.647	13.775	6.310	-5.773	-8.909	-6.929	-7.857	-5.778	-4.336	-5.680	-9.368	-10.184	-5.579	-3.506	-0.866	10.275	13.581	1.820	6.571	261.719
-6.318	-6.203	-5.123	-5.110	-3.740	-1.774	0.448	7.519	11.834	3.653	13.639	6.107	-5.839	-8.952	-6.874	-7.889	-5.784	-4.188	-5.662	-9.396	-10.214	-5.637	-3.571	-1.033	10.013	13.327	1.610	6.375	265.625
-6.201	-6.086	-4.921	-4.903	-3.569	-1.547	0.517	7.547	11.707	3.623	13.452	5.904	-5.887	-8.946	-6.804	-7.862	-5.759	-4.068	-5.614	-9.352	-10.178	-5.713	-3.711	-1.214	9.716	13.072	1.383	6.192	269.531
-6.095	-5.921	-4.683	-4.654	-3.379	-1.284	0.576	7.537	11.549	3.569	13.240	5.724	-5.916	-8.903	-6.732	-7.788	-5.712	-3.991	-5.553	-9.253	-10.095	-5.811	-3.919	-1.405	9.405	12.820	1.150	6.032	273.438
-6.013	-5.721	-4.410	-4.380	-3.182	-0.998	0.633	7.498	11.384	3.507	13.037	5.591	-5.927	-8.838	-6.668	-7.683	-5.653	-3.956	-5.495	-9.125	-9.983	-5.930	-4.180	-1.599	9.094	12.571	0.926	5.906	277.344
-5.966	-5.511	-4.113	-4.111	-2.994	-0.711	0.698	7.439	11.230	3.459	12.877	5.531	-5.915	-8.764	-6.620	-7.572	-5.591	-3.955	-5.453	-8.995	-9.867	-6.067	-4.467	-1.786	8.794	12.329	0.727	5.826	281.250
-5.965	-5.321	-3.814	-3.877	-2.833	-0.455	0.778	7.369	11.109	3.451	12.796	5.568	-5.873	-8.696	-6.592	-7.481	-5.538	-3.974	-5.438	-8.895	-9.769	-6.213	-4.754	-1.949	8.515	12.097	0.574	5.803	285.156
-6.015	-5.184	-3.544	-3.714	-2.719	-0.261	0.883	7.302	11.036	3.505	12.821	5.723	-5.793	-8.641	-6.590	-7.439	-5.511	-4.004	-5.461	-8.851	-9.708	-6.360	-5.015	-2.071	8.267	11.887	0.485	5.852	289.062
-6.115	-5.133	-3.333	-3.648	-2.670	-0.156	1.018	7.247	11.022	3.636	12.967	6.006	-5.670	-8.607	-6.621	-7.472	-5.530	-4.038	-5.528	-8.885	-9.700	-6.500	-5.226	-2.130	8.064	11.714	0.478	5.983	292.969
-6.262	-5.187	-3.205	-3.701	-2.697	-0.160	1.180	7.215	11.073	3.848	13.233	6.415	-5.504	-8.595	-6.688	-7.595	-5.613	-4.074	-5.640	-9.007	-9.752	-6.625	-5.371	-2.113	7.920	11.593	0.564	6.200	296.875
-6.442	-5.355	-3.171	-3.875	-2.805	-0.273	1.362	7.212	11.184	4.130	13.598	6.926	-5.304	-8.605	-6.794	-7.813	-5.770	-4.112	-5.791	-9.216	-9.866	-6.724	-5.441	-2.012	7.847	11.535	0.741	6.496	300.781
-6.641	-5.625	-3.226	-4.157	-2.988	-0.483	1.550	7.238	11.342	4.456	14.023	7.499	-5.082	-8.636	-6.936	-8.116	-6.001	-4.154	-5.969	-9.497	-10.033	-6.789	-5.429	-1.832	7.852	11.544	0.997	6.850	304.688
-6.842	-5.971	-3.352	-4.519	-3.230	-0.761	1.726	7.289	11.529	4.792	14.459	8.080	-4.859	-8.682	-7.102	-8.477	-6.285	-4.194	-6.151	-9.825	-10.239	-6.812	-5.333	-1.589	7.934	11.614	1.306	7.231	308.594
-7.028	-6.357	-3.517	-4.919	-3.508	-1.070	1.874	7.354	11.719	5.101	14.852	8.609	-4.653	-8.737	-7.278	-8.862	-6.589	-4.226	-6.312	-10.167	-10.460	-6.786	-5.156	-1.305	8.083	11.727	1.636	7.600	312.500
-7.187	-6.740	-3.693	-5.311	-3.792	-1.374	1.977	7.418	11.885	5.347	15.153	9.027	-4.481	-8.792	-7.443	-9.229	-6.871	-4.239	-6.427	-10.487	-10.675	-6.711	-4.903	-1.009	8.277	11.858	1.954	7.914	316.406
-7.308	-7.078	-3.851	-5.653	-4.051	-1.636	2.028	7.465	12.000	5.506	15.324	9.290	-4.352	-8.838	-7.573	-9.540	-7.088	-4.221	-6.477	-10.751	-10.857	-6.587	-4.583	-0.724	8.491	11.979	2.233	8.141	320.312
-7.383	-7.342	-3.975	-5.910	-4.257	-1.833	2.025	7.478	12.042	5.565	15.343	9.374	-4.266	-8.865	-7.647	-9.760	-7.202	-4.163	-6.447	-10.934	-10.988	-6.420	-4.209	-0.473	8.698	12.065	2.454	8.259	324.219
-7.406	-7.510	-4.061	-6.056	-4.388	-1.950	1.974	7.442	11.995	5.524	15.205	9.276	-4.217	-8.862	-7.650	-9.869	-7.189	-4.060	-6.333	-11.017	-11.048	-6.218	-3.801	-0.266	8.871	12.096	2.613	8.264	328.125
-7.375	-7.573	-4.109	-6.085	-4.431	-1.987	1.886	7.347	11.853	5.396	14.920	9.018	-4.191	-8.820	-7.571	-9.858	-7.041	-3.915	-6.138	-10.994	-11.030	-5.990	-3.382	-0.109	8.988	12.058	2.715	8.165	332.031
-7.289	-7.533	-4.126	-5.999	-4.384	-1.954	1.781	7.193	11.623	5.205	14.516	8.644	-4.173	-8.735	-7.409	-9.732	-6.768	-3.738	-5.873	-10.869	-10.928	-5.747	-2.981	-0.001	9.033	11.944	2.773	7.987	335.938
-7.149	-7.405	-4.120	-5.818	-4.253	-1.871	1.676	6.990	11.327	4.983	14.034	8.208	-4.148	-8.606	-7.177	-9.513	-6.401	-3.543	-5.559	-10.655	-10.750	-5.504	-2.629	0.065	8.995	11.755	2.801	7.762	339.844
-6.964	-7.207	-4.099	-5.569	-4.057	-1.759	1.595	6.765	11.001	4.763	13.524	7.772	-4.102	-8.436	-6.895	-9.230	-5.987	-3.350	-5.227	-10.377	-10.509	-5.276	-2.355	0.092	8.870	11.499	2.813	7.525	343.750
-6.749	-6.967	-4.067	-5.288	-3.817	-1.636	1.558	6.553	10.692	4.579	13.045	7.393	-4.027	-8.237	-6.595	-8.925	-5.582	-3.179	-4.911	-10.069	-10.226	-5.080	-2.184	0.089	8.660	11.188	2.818	7.309	347.656
-6.521	-6.716	-4.034	-5.009	-3.557	-1.518	1.584	6.395	10.446	4.459	12.648	7.118	-3.916	-8.021	-6.310	-8.638	-5.240	-3.051	-4.644	-9.763	-9.929	-4.932	-2.127	0.061	8.378	10.841	2.820	7.140	351.562
-6.301	-6.483	-4.004	-4.765	-3.302	-1.413	1.682	6.323	10.301	4.423	12.377	6.977	-3.768	-7.802	-6.069	-8.406	-5.000	-2.979	-4.456	-9.495	-9.643	-4.841	-2.183	0.019	8.046	10.481	2.819	7.032	355.469
-6.109	-6.292	-3.987	-4.581	-3.070	-1.328	1.853	6.357	10.271	4.477	12.252	6.972	-3.587	-7.591	-5.894	-8.254	-4.884	-2.968	-4.360	-9.289	-9.391	-4.806	-2.330	-0.028	7.696	10.133	2.816	6.987	359.375
-5.954	-6.157	-3.985	-4.467	-2.875	-1.261	2.085	6.487	10.347	4.613	12.265	7.081	-3.378	-7.397	-5.793	-8.189	-4.887	-3.018	-4.353	-9.156	-9.186	-4.815	-2.532	-0.064	7.366	9.822	2.811	6.993	363.281
-5.837	-6.084	-4.000	-4.424	-2.721	-1.214	2.355	6.684	10.494	4.806	12.383	7.257	-3.150	-7.221	-5.758	-8.205	-4.981	-3.116	-4.417	-9.093	-9.030	-4.843	-2.739	-0.075	7.101	9.569	2.808	7.026	367.188
-5.748	-6.069	-4.028	-4.437	-2.608	-1.185	2.630	6.894	10.657	5.022	12.548	7.443	-2.915	-7.058	-5.769	-8.278	-5.125	-3.242	-4.518	-9.082	-8.912	-4.860	-2.895	-0.043	6.935	9.387	2.810	7.057	371.094
-5.666	-6.100	-4.061	-4.487	-2.530	-1.174	2.878	7.059	10.774	5.225	12.693	7.574	-2.682	-6.901	-5.797	-8.375	-5.269	-3.374	-4.618	-9.096	-8.817	-4.830	-2.953	0.043	6.894	9.279	2.824	7.054	375.000
-5.570	-6.156	-4.091	-4.547	-2.477	-1.181	3.068	7.123	10.797	5.379	12.756	7.601	-2.461	-6.738	-5.812	-8.463	-5.371	-3.488	-4.677	-9.104	-8.722	-4.727	-2.878	0.192	6.981	9.235	2.852	6.992	378.906
-5.438	-6.216	-4.116	-4.591	-2.439	-1.208	3.179	7.053	10.693	5.459	12.692	7.496	-2.260	-6.562	-5.786	-8.509	-5.398	-3.563	-4.666	-9.079	-8.608	-4.534	-2.663	0.399	7.177	9.235	2.894	6.858	382.812
-5.257	-6.255	-4.134	-4.599	-2.408	-1.254	3.201	6.840	10.461	5.452	12.483	7.254	-2.084	-6.367	-5.701	-8.489	-5.332	-3.589	-4.568	-9.000	-8.458	-4.253	-2.328	0.654	7.440	9.248	2.945	6.649	386.719
-5.026	-6.247	-4.149	-4.553	-2.377	-1.316	3.141	6.505	10.122	5.359	12.134	6.898	-1.938	-6.154	-5.548	-8.389	-5.172	-3.562	-4.382	-8.857	-8.265	-3.900	-1.920	0.933	7.712	9.239	2.994	6.375	390.625
-4.754	-6.168	-4.163	-4.443	-2.339	-1.384	3.011	6.090	9.713	5.188	11.672	6.463	-1.824	-5.928	-5.332	-8.203	-4.926	-3.489	-4.119	-8.649	-8.027	-3.505	-1.495	1.207	7.932	9.170	3.023	6.053	394.531
-4.458	-5.998	-4.174	-4.266	-2.290	-1.443	2.831	5.645	9.275	4.954	11.133	5.991	-1.746	-5.698	-5.064	-7.936	-4.614	-3.378	-3.800	-8.380	-7.750	-3.105	-1.114	1.444	8.042	9.009	3.014	5.700	398.438
-4.158	-5.724	-4.168	-4.022	-2.223	-1.476	2.621	5.219	8.843	4.672	10.555	5.518	-1.703	-5.474	-4.762	-7.597	-4.258	-3.240	-3.452	-8.064	-7.443	-2.738	-0.819	1.611	7.999	8.733	2.948	5.333	402.344
-3.873	-5.343	-4.125	-3.719	-2.135	-1.467	2.398	4.852	8.440	4.356	9.968	5.067	-1.695	-5.268	-4.445	-7.203	-3.884	-3.079	-3.107	-7.716	-7.120	-2.438	-0.635	1.685	7.783	8.331	2.810	4.959	406.250
-3.613	-4.867	-4.018	-3.370	-2.023	-1.405	2.177	4.565	8.074	4.018	9.392	4.650	-1.718	-5.083	-4.133	-6.774	-3.518	-2.896	-2.793	-7.350	-6.791	-2.228	-0.560	1.652	7.399	7.808	2.594	4.582	410.156
-3.381	-4.324	-3.824	-2.995	-1.889	-1.291	1.967	4.363	7.741	3.671	8.835	4.262	-1.764	-4.919	-3.839	-6.334	-3.182	-2.689	-2.533	-6.980	-6.466	-2.117	-0.572	1.515	6.873	7.185	2.303	4.200	414.062
-3.171	-3.756	-3.533	-2.616	-1.735	-1.132	1.779	4.235	7.429	3.328	8.298	3.894	-1.818	-4.769	-3.573	-5.906	-2.892	-2.455	-2.338	-6.618	-6.150	-2.096	-0.637	1.289	6.251	6.493	1.952	3.810	417.969
-2.971	-3.213	-3.149	-2.259	-1.568	-0.944	1.619	4.158	7.122	3.000	7.772	3.530	-1.864	-4.618	-3.337	-5.511	-2.656	-2.196	-2.205	-6.268	-5.841	-2.142	-0.714	1.006	5.584	5.771	1.566	3.407	421.875
-2.769	-2.743	-2.696	-1.947	-1.394	-0.744	1.495	4.099	6.802	2.696	7.249	3.159	-1.884	-4.449	-3.124	-5.161	-2.471	-1.917	-2.115	-5.930	-5.535	-2.216	-0.764	0.706	4.924	5.059	1.176	2.993	425.781
-2.550	-2.383	-2.212	-1.695	-1.217	-0.548	1.407	4.026	6.455	2.421	6.718	2.776	-1.862	-4.245	-2.925	-4.862	-2.322	-1.628	-2.036	-5.601	-5.223	-2.274	-0.754	0.433	4.313	4.397	0.818	2.576	429.688
-2.306	-2.149	-1.749	-1.509	-1.042	-0.369	1.355	3.908	6.069	2.176	6.173	2.383	-1.787	-3.995	-2.726	-4.608	-2.186	-1.342	-1.932	-5.273	-4.897	-2.270	-0.660	0.226	3.782	3.815	0.521	2.169	433.594
-2.036	-2.035	-1.355	-1.384	-0.870	-0.216	1.329	3.722	5.640	1.955	5.610	1.991	-1.657	-3.697	-2.512	-4.385	-2.036	-1.070	-1.767	-4.939	-4.551	-2.170	-0.469	0.112	3.346	3.333	0.310	1.789	437.500
-1.741	-2.014	-1.070	-1.302	-0.703	-0.097	1.318	3.460	5.170	1.751	5.031	1.613	-1.479	-3.356	-2.271	-4.175	-1.851	-0.818	-1.520	-4.593	-4.185	-1.953	-0.182	0.103	3.008	2.957	0.193	1.453	441.406
-1.431	-2.039	-0.916	-1.238	-0.540	-0.013	1.307	3.126	4.665	1.553	4.442	1.259	-1.265	-2.989	-1.996	-3.957	-1.614	-0.587	-1.187	-4.235	-3.801	-1.621	0.187	0.193	2.760	2.678	0.166	1.171	445.312
-1.115	-2.055	-0.893	-1.163	-0.376	0.037	1.284	2.733	4.137	1.350	3.850	0.936	-1.037	-2.615	-1.687	-3.711	-1.324	-0.373	-0.781	-3.864	-3.409	-1.196	0.613	0.357	2.584	2.474	0.207	0.944	449.219
-0.801	-2.009	-0.977	-1.047	-0.205	0.061	1.239	2.304	3.599	1.135	3.260	0.642	-0.813	-2.256	-1.350	-3.423	-0.985	-0.173	-0.328	-3.482	-3.016	-0.712	1.060	0.562	2.459	2.314	0.282	0.760	453.125
-0.493	-1.856	-1.133	-0.866	-0.016	0.073	1.174	1.864	3.064	0.909	2.679	0.367	-0.611	-1.924	-0.991	-3.080	-0.611	0.013	0.139	-3.091	-2.629	-0.210	1.494	0.767	2.356	2.160	0.353	0.597	457.031
-0.187	-1.572	-1.315	-0.604	0.201	0.089	1.094	1.433	2.542	0.675	2.107	0.096	-0.443	-1.627	-0.620	-2.677	-0.219	0.180	0.593	-2.686	-2.245	0.272	1.882	0.936	2.250	1.979	0.385	0.429	460.938
0.123	-1.154	-1.481	-0.261	0.454	0.127	1.012	1.027	2.038	0.445	1.548	-0.186	-0.310	-1.358	-0.245	-2.210	0.177	0.318	1.013	-2.261	-1.860	0.708	2.199	1.045	2.120	1.745	0.353	0.230	464.844
0.444	-0.625	-1.598	0.145	0.741	0.195	0.943	0.653	1.558	0.233	1.005	-0.488	-0.207	-1.105	0.128	-1.686	0.566	0.416	1.393	-1.809	-1.462	1.085	2.429	1.085	1.951	1.449	0.252	-0.014	468.750
0.780	-0.028	-1.645	0.587	1.054	0.292	0.897	0.313	1.107	0.054	0.488	-0.809	-0.121	-0.855	0.494	-1.119	0.947	0.465	1.738	-1.325	-1.041	1.404	2.567	1.063	1.740	1.099	0.090	-0.303	472.656
1.122	0.583	-1.621	1.025	1.375	0.409	0.882	0.007	0.693	-0.075	0.016	-1.134	-0.041	-0.594	0.846	-0.528	1.319	0.460	2.057	-0.814	-0.596	1.674	2.615	0.998	1.492	0.717	-0.106	-0.620	476.562
1.455	1.152	-1.539	1.420	1.678	0.525	0.901	-0.262	0.330	-0.143	-0.387	-1.439	0.046	-0.322	1.179	0.057	1.687	0.407	2.363	-0.289	-0.137	1.904	2.584	0.916	1.222	0.338	-0.302	-0.937	480.469
1.755	1.629	-1.425	1.738	1.939	0.621	0.949	-0.486	0.035	-0.147	-0.690	-1.690	0.144	-0.045	1.483	0.604	2.049	0.318	2.660	0.223	0.316	2.102	2.488	0.841	0.946	-0.000	-0.460	-1.218	484.375
2.000	1.981	-1.311	1.960	2.136	0.676	1.018	-0.656	-0.172	-0.088	-0.866	-1.857	0.251	0.215	1.749	1.081	2.396	0.212	2.946	0.689	0.729	2.268	2.347	0.793	0.686	-0.267	-0.556	-1.430	488.281
2.173	2.193	-1.228	2.079	2.258	0.683	1.097	-0.758	-0.277	0.024	-0.898	-1.919	0.358	0.434	1.967	1.457	2.709	0.113	3.207	1.074	1.066	2.396	2.188	0.782	0.461	-0.444	-0.575	-1.554	492.188
2.272	2.271	-1.200	2.107	2.302	0.645	1.177	-0.786	-0.270	0.174	-0.787	-1.876	0.452	0.589	2.129	1.712	2.966	0.043	3.427	1.348	1.298	2.480	2.037	0.807	0.286	-0.529	-0.523	-1.591	496.094
2.304	2.238	-1.234	2.067	2.281	0.580	1.248	-0.739	-0.159	0.339	-0.557	-1.748	0.522	0.665	2.233	1.840	3.143	0.019	3.589	1.495	1.410	2.515	1.920	0.862	0.168	-0.540	-0.419	-1.562	500.000
2.293	2.126	-1.322	1.987	2.216	0.514	1.307	-0.631	0.036	0.497	-0.257	-1.577	0.560	0.665	2.282	1.848	3.224	0.054	3.681	1.516	1.408	2.505	1.861	0.935	0.106	-0.510	-0.294	-1.509	503.906
2.268	1.975	-1.439	1.899	2.134	0.476	1.349	-0.486	0.274	0.624	0.051	-1.419	0.568	0.607	2.291	1.759	3.211	0.153	3.706	1.431	1.319	2.464	1.874	1.013	0.091	-0.478	-0.182	-1.479	507.812
2.261	1.821	-1.553	1.829	2.063	0.488	1.374	-0.339	0.507	0.697	0.297	-1.332	0.553	0.522	2.279	1.608	3.120	0.314	3.675	1.278	1.186	2.412	1.963	1.088	0.104	-0.485	-0.111	-1.519	511.719
2.299	1.695	-1.633	1.795	2.025	0.559	1.383	-0.225	0.682	0.701	0.418	-1.365	0.528	0.451	2.270	1.436	2.984	0.531	3.615	1.103	1.059	2.375	2.121	1.157	0.123	-0.560	-0.098	-1.663	515.625
2.394	1.618	-1.656	1.803	2.036	0.683	1.378	-0.177	0.753	0.628	0.372	-1.541	0.509	0.429	2.288	1.285	2.845	0.792	3.558	0.955	0.986	2.378	2.331	1.220	0.126	-0.715	-0.148	-1.921	519.531
2.547	1.600	-1.616	1.855	2.101	0.840	1.363	-0.218	0.689	0.482	0.144	-1.858	0.514	0.486	2.350	1.192	2.743	1.078	3.532	0.878	1.005	2.439	2.567	1.285	0.095	-0.942	-0.249	-2.277	523.438
2.741	1.640	-1.520	1.944	2.215	1.000	1.341	-0.356	0.479	0.277	-0.250	-2.284	0.557	0.636	2.463	1.180	2.711	1.365	3.561	0.899	1.132	2.566	2.801	1.359	0.022	-1.217	-0.379	-2.690	527.344
2.952	1.727	-1.387	2.058	2.370	1.132	1.322	-0.587	0.134	0.039	-0.762	-2.764	0.649	0.878	2.624	1.260	2.765	1.626	3.655	1.026	1.364	2.757	3.004	1.451	-0.093	-1.500	-0.507	-3.105	531.250
3.150	1.849	-1.245	2.186	2.550	1.211	1.313	-0.888	-0.309	-0.200	-1.327	-3.230	0.796	1.196	2.819	1.421	2.902	1.832	3.808	1.248	1.680	2.995	3.156	1.567	-0.240	-1.752	-0.605	-3.461	535.156
3.307	1.986	-1.121	2.316	2.743	1.228	1.329	-1.226	-0.799	-0.399	-1.870	-3.618	0.997	1.565	3.025	1.642	3.101	1.960	4.004	1.536	2.044	3.258	3.241	1.706	-0.405	-1.940	-0.649	-3.707	539.062
3.406	2.124	-1.039	2.440	2.934	1.185	1.381	-1.556	-1.269	-0.526	-2.319	-3.877	1.241	1.948	3.219	1.888	3.332	1.993	4.216	1.850	2.412	3.519	3.258	1.860	-0.573	-2.048	-0.630	-3.814	542.969
3.437	2.249	-1.015	2.552	3.113	1.103	1.480	-1.833	-1.659	-0.553	-2.620	-3.981	1.513	2.310	3.377	2.122	3.559	1.926	4.417	2.144	2.740	3.751	3.211	2.017	-0.729	-2.080	-0.551	-3.779	546.875
3.406	2.350	-1.059	2.646	3.270	1.007	1.630	-2.015	-1.915	-0.473	-2.744	-3.932	1.787	2.617	3.483	2.311	3.751	1.769	4.584	2.377	2.990	3.936	3.119	2.158	-0.862	-2.058	-0.430	-3.624	550.781
3.329	2.420	-1.172	2.719	3.401	0.930	1.826	-2.074	-2.008	-0.294	-2.692	-3.759	2.036	2.842	3.532	2.429	3.887	1.545	4.704	2.520	3.137	4.064	3.004	2.267	-0.966	-2.014	-0.294	-3.396	554.688
3.227	2.454	-1.343	2.768	3.500	0.895	2.051	-2.002	-1.938	-0.045	-2.492	-3.510	2.232	2.967	3.524	2.466	3.957	1.287	4.776	2.559	3.173	4.135	2.895	2.329	-1.035	-1.983	-0.171	-3.147	558.594
3.125	2.454	-1.556	2.793	3.566	0.919	2.282	-1.813	-1.729	0.230	-2.195	-3.241	2.352	2.991	3.473	2.424	3.967	1.032	4.805	2.495	3.103	4.158	2.817	2.337	-1.067	-1.992	-0.088	-2.929	562.500
3.043	2.424	-1.786	2.793	3.600	1.003	2.487	-1.539	-1.429	0.483	-1.865	-3.006	2.380	2.920	3.394	2.319	3.932	0.818	4.801	2.348	2.948	4.149	2.791	2.291	-1.062	-2.053	-0.061	-2.781	566.406
2.996	2.373	-2.005	2.773	3.607	1.138	2.639	-1.224	-1.098	0.669	-1.564	-2.844	2.312	2.775	3.305	2.176	3.871	0.676	4.778	2.147	2.739	4.123	2.824	2.197	-1.015	-2.159	-0.094	-2.717	570.312
2.985	2.308	-2.189	2.734	3.589	1.304	2.714	-0.918	-0.798	0.754	-1.346	-2.773	2.159	2.581	3.222	2.020	3.805	0.625	4.742	1.925	2.509	4.094	2.910	2.071	-0.924	-2.287	-0.178	-2.730	574.219
3.003	2.229	-2.325	2.675	3.550	1.475	2.702	-0.664	-0.579	0.722	-1.244	-2.787	1.941	2.369	3.155	1.876	3.752	0.666	4.698	1.715	2.289	4.071	3.036	1.936	-0.782	-2.396	-0.291	-2.791	578.125
3.036	2.134	-2.407	2.592	3.489	1.622	2.605	-0.494	-0.476	0.580	-1.270	-2.863	1.688	2.165	3.108	1.758	3.720	0.787	4.646	1.541	2.105	4.064	3.182	1.820	-0.586	-2.444	-0.401	-2.856	582.031
3.065	2.014	-2.440	2.481	3.407	1.724	2.439	-0.425	-0.499	0.351	-1.411	-2.968	1.437	1.994	3.077	1.673	3.710	0.959	4.588	1.418	1.970	4.076	3.330	1.753	-0.332	-2.391	-0.473	-2.880	585.938
3.072	1.864	-2.437	2.337	3.302	1.762	2.231	-0.461	-0.644	0.072	-1.639	-3.064	1.223	1.869	3.054	1.618	3.716	1.146	4.525	1.345	1.889	4.114	3.468	1.761	-0.026	-2.214	-0.477	-2.826	589.844
3.046	1.687	-2.411	2.164	3.177	1.729	2.010	-0.594	-0.885	-0.211	-1.914	-3.122	1.076	1.801	3.032	1.582	3.729	1.312	4.461	1.316	1.857	4.178	3.592	1.860	0.321	-1.910	-0.392	-2.674	593.750
2.982	1.494	-2.379	1.973	3.038	1.629	1.806	-0.809	-1.189	-0.457	-2.192	-3.123	1.019	1.790	3.002	1.555	3.734	1.426	4.399	1.315	1.866	4.269	3.705	2.054	0.684	-1.502	-0.212	-2.423	597.656
2.887	1.308	-2.354	1.786	2.900	1.474	1.643	-1.082	-1.515	-0.630	-2.433	-3.063	1.060	1.834	2.964	1.529	3.720	1.468	4.340	1.328	1.903	4.381	3.815	2.331	1.033	-1.031	0.051	-2.096	601.562
2.776	1.154	-2.345	1.627	2.778	1.286	1.537	-1.389	-1.824	-0.708	-2.602	-2.947	1.195	1.926	2.918	1.500	3.674	1.432	4.279	1.341	1.959	4.502	3.929	2.662	1.332	-0.553	0.371	-1.729	605.469
2.668	1.054	-2.356	1.522	2.691	1.091	1.495	-1.700	-2.076	-0.683	-2.677	-2.790	1.408	2.055	2.866	1.468	3.583	1.322	4.207	1.346	2.025	4.613	4.052	3.011	1.547	-0.128	0.711	-1.365	609.375
2.583	1.022	-2.388	1.485	2.649	0.915	1.516	-1.983	-2.243	-0.561	-2.649	-2.610	1.672	2.208	2.812	1.437	3.440	1.153	4.113	1.342	2.094	4.695	4.181	3.335	1.656	0.195	1.030	-1.049	613.281
2.536	1.058	-2.437	1.521	2.657	0.781	1.592	-2.206	-2.303	-0.361	-2.522	-2.423	1.954	2.367	2.757	1.414	3.244	0.941	3.988	1.330	2.160	4.731	4.310	3.597	1.651	0.382	1.295	-0.812	617.188
2.532	1.148	-2.498	1.617	2.706	0.705	1.711	-2.338	-2.248	-0.109	-2.311	-2.243	2.222	2.514	2.701	1.402	3.002	0.707	3.830	1.313	2.215	4.708	4.428	3.768	1.542	0.422	1.478	-0.672	621.094
2.567	1.272	-2.569	1.751	2.781	0.691	1.856	-2.358	-2.084	0.163	-2.040	-2.078	2.447	2.632	2.642	1.404	2.733	0.469	3.643	1.292	2.250	4.625	4.525	3.836	1.359	0.325	1.569	-0.632	625.000
2.628	1.405	-2.646	1.893	2.859	0.736	2.012	-2.257	-1.830	0.424	-1.738	-1.935	2.607	2.706	2.579	1.418	2.461	0.242	3.441	1.268	2.256	4.491	4.593	3.806	1.145	0.121	1.570	-0.678	628.906
2.696	1.527	-2.727	2.015	2.917	0.825	2.162	-2.042	-1.516	0.645	-1.437	-1.813	2.696	2.726	2.511	1.438	2.218	0.041	3.241	1.239	2.228	4.326	4.627	3.697	0.945	-0.149	1.496	-0.782	632.812
2.753	1.622	-2.810	2.095	2.939	0.938	2.291	-1.739	-1.180	0.807	-1.167	-1.713	2.718	2.694	2.440	1.457	2.030	-0.126	3.063	1.204	2.166	4.155	4.630	3.541	0.799	-0.442	1.369	-0.914	636.719
2.785	1.684	-2.889	2.122	2.915	1.056	2.387	-1.386	-0.862	0.899	-0.950	-1.632	2.685	2.620	2.371	1.467	1.918	-0.249	2.924	1.162	2.076	4.002	4.605	3.370	0.730	-0.721	1.215	-1.044	640.625
2.785	1.714	-2.956	2.098	2.844	1.159	2.442	-1.029	-0.599	0.923	-0.800	-1.568	2.619	2.521	2.308	1.463	1.890	-0.326	2.835	1.115	1.973	3.889	4.561	3.215	0.747	-0.960	1.055	-1.148	644.531
2.758	1.719	-3.002	2.032	2.736	1.236	2.453	-0.713	-0.415	0.888	-0.721	-1.521	2.541	2.419	2.258	1.441	1.940	-0.359	2.799	1.067	1.874	3.827	4.505	3.099	0.837	-1.143	0.910	-1.210	648.438
2.709	1.705	-3.013	1.940	2.606	1.282	2.422	-0.476	-0.322	0.810	-0.708	-1.490	2.471	2.335	2.223	1.405	2.048	-0.348	2.813	1.023	1.796	3.821	4.444	3.031	0.975	-1.269	0.788	-1.225	652.344
2.651	1.680	-2.979	1.834	2.471	1.298	2.355	-0.341	-0.318	0.709	-0.750	-1.473	2.422	2.288	2.205	1.357	2.187	-0.300	2.865	0.986	1.751	3.862	4.385	3.012	1.133	-1.342	0.696	-1.199	656.250
2.589	1.646	-2.891	1.726	2.343	1.287	2.263	-0.318	-0.391	0.602	-0.828	-1.468	2.401	2.286	2.200	1.303	2.328	-0.219	2.941	0.954	1.745	3.939	4.335	3.032	1.281	-1.373	0.635	-1.140	660.156
2.527	1.601	-2.752	1.619	2.231	1.250	2.157	-0.399	-0.522	0.505	-0.926	-1.471	2.411	2.331	2.205	1.247	2.448	-0.108	3.028	0.926	1.777	4.035	4.300	3.082	1.402	-1.370	0.604	-1.058	664.062
2.463	1.537	-2.580	1.510	2.138	1.188	2.050	-0.563	-0.687	0.432	-1.029	-1.478	2.450	2.419	2.215	1.192	2.532	0.027	3.114	0.897	1.840	4.139	4.289	3.150	1.486	-1.339	0.606	-0.961	667.969
2.395	1.442	-2.403	1.395	2.062	1.099	1.954	-0.783	-0.868	0.389	-1.127	-1.480	2.517	2.537	2.227	1.142	2.576	0.181	3.189	0.866	1.922	4.240	4.309	3.232	1.540	-1.281	0.641	-0.852	671.875
2.319	1.310	-2.257	1.270	1.998	0.981	1.881	-1.029	-1.051	0.379	-1.219	-1.474	2.607	2.676	2.242	1.100	2.585	0.349	3.251	0.834	2.014	4.334	4.365	3.327	1.578	-1.194	0.714	-0.729	675.781
2.240	1.143	-2.180	1.135	1.940	0.831	1.834	-1.278	-1.231	0.396	-1.309	-1.455	2.720	2.822	2.263	1.070	2.573	0.524	3.299	0.809	2.109	4.420	4.458	3.439	1.620	-1.074	0.826	-0.589	679.688
2.161	0.953	-2.198	0.998	1.881	0.651	1.813	-1.515	-1.410	0.431	-1.410	-1.425	2.851	2.963	2.296	1.058	2.556	0.699	3.339	0.801	2.200	4.501	4.584	3.569	1.687	-0.917	0.978	-0.428	683.594
2.094	0.763	-2.321	0.869	1.817	0.446	1.811	-1.736	-1.591	0.469	-1.532	-1.388	2.996	3.091	2.346	1.070	2.551	0.867	3.379	0.822	2.286	4.580	4.736	3.720	1.796	-0.726	1.163	-0.247	687.500
2.046	0.597	-2.543	0.759	1.744	0.229	1.819	-1.942	-1.780	0.498	-1.681	-1.351	3.150	3.197	2.417	1.110	2.571	1.018	3.424	0.878	2.366	4.656	4.899	3.886	1.954	-0.510	1.373	-0.056	691.406
2.028	0.479	-2.839	0.677	1.660	0.015	1.825	-2.132	-1.971	0.508	-1.856	-1.323	3.305	3.279	2.509	1.180	2.624	1.141	3.480	0.972	2.442	4.729	5.055	4.057	2.155	-0.286	1.593	0.132	695.312
2.046	0.421	-3.174	0.626	1.566	-0.180	1.826	-2.298	-2.152	0.497	-2.044	-1.309	3.454	3.336	2.615	1.276	2.708	1.225	3.547	1.098	2.515	4.793	5.188	4.220	2.383	-0.075	1.806	0.295	699.219
2.099	0.424	-3.507	0.601	1.465	-0.337	1.819	-2.429	-2.303	0.471	-2.225	-1.314	3.591	3.373	2.725	1.389	2.814	1.256	3.621	1.245	2.586	4.843	5.281	4.360	2.613	0.098	1.996	0.414	703.125
2.183	0.481	-3.800	0.597	1.366	-0.443	1.812	-2.507	-2.404	0.440	-2.376	-1.340	3.710	3.398	2.823	1.506	2.922	1.221	3.691	1.397	2.656	4.872	5.322	4.463	2.814	0.210	2.145	0.470	707.031
2.292	0.578	-4.019	0.608	1.281	-0.485	1.812	-2.519	-2.438	0.412	-2.475	-1.386	3.807	3.417	2.896	1.617	3.015	1.112	3.743	1.540	2.725	4.874	5.308	4.517	2.957	0.245	2.241	0.451	710.938
2.412	0.705	-4.142	0.635	1.227	-0.454	1.828	-2.461	-2.403	0.394	-2.515	-1.454	3.877	3.438	2.934	1.712	3.076	0.930	3.767	1.662	2.793	4.846	5.241	4.518	3.017	0.192	2.275	0.353	714.844
2.533	0.853	-4.156	0.685	1.218	-0.349	1.862	-2.342	-2.311	0.383	-2.498	-1.545	3.917	3.465	2.934	1.792	3.096	0.689	3.753	1.762	2.862	4.788	5.131	4.466	2.980	0.050	2.242	0.179	718.750
2.647	1.021	-4.060	0.769	1.269	-0.171	1.912	-2.186	-2.190	0.370	-2.446	-1.662	3.920	3.498	2.903	1.862	3.080	0.415	3.702	1.845	2.933	4.707	4.991	4.364	2.842	-0.172	2.145	-0.058	722.656
2.748	1.207	-3.864	0.899	1.383	0.066	1.966	-2.024	-2.076	0.339	-2.389	-1.808	3.884	3.533	2.856	1.936	3.045	0.145	3.624	1.923	3.009	4.612	4.839	4.222	2.614	-0.460	1.991	-0.342	726.562
2.838	1.415	-3.584	1.082	1.556	0.339	2.008	-1.890	-2.005	0.277	-2.360	-1.984	3.807	3.563	2.815	2.028	3.016	-0.079	3.541	2.011	3.091	4.516	4.693	4.051	2.313	-0.795	1.792	-0.653	730.469
2.920	1.645	-3.243	1.316	1.767	0.617	2.020	-1.813	-2.004	0.173	-2.390	-2.189	3.689	3.585	2.801	2.150	3.018	-0.221	3.476	2.122	3.182	4.434	4.571	3.866	1.965	-1.153	1.564	-0.969	734.375
3.000	1.892	-2.864	1.586	1.988	0.862	1.988	-1.808	-2.086	0.028	-2.494	-2.414	3.541	3.595	2.829	2.308	3.072	-0.258	3.453	2.262	3.283	4.380	4.487	3.682	1.600	-1.510	1.326	-1.269	738.281
3.084	2.148	-2.471	1.870	2.187	1.043	1.908	-1.876	-2.245	-0.148	-2.676	-2.646	3.376	3.593	2.903	2.495	3.184	-0.186	3.486	2.430	3.390	4.361	4.449	3.513	1.250	-1.841	1.098	-1.532	742.188
3.176	2.401	-2.085	2.138	2.333	1.135	1.785	-2.001	-2.458	-0.334	-2.919	-2.866	3.213	3.583	3.016	2.696	3.344	-0.025	3.575	2.613	3.502	4.380	4.457	3.372	0.942	-2.126	0.898	-1.741	746.094
3.271	2.635	-1.725	2.363	2.407	1.131	1.635	-2.156	-2.689	-0.505	-3.194	-3.055	3.074	3.571	3.150	2.885	3.526	0.192	3.705	2.789	3.609	4.429	4.506	3.269	0.699	-2.349	0.742	-1.886	750.000
3.365	2.834	-1.408	2.520	2.399	1.039	1.482	-2.310	-2.900	-0.632	-3.462	-3.192	2.979	3.565	3.282	3.034	3.698	0.424	3.849	2.934	3.701	4.497	4.583	3.208	0.537	-2.501	0.641	-1.961	753.906
3.448	2.983	-1.147	2.596	2.319	0.885	1.351	-2.433	-3.056	-0.696	-3.690	-3.268	2.939	3.567	3.387	3.120	3.825	0.632	3.976	3.022	3.768	4.568	4.671	3.190	0.460	-2.584	0.595	-1.973	757.812
3.510	3.073	-0.953	2.591	2.187	0.705	1.265	-2.505	-3.139	-0.690	-3.854	-3.284	2.958	3.581	3.449	3.129	3.886	0.790	4.058	3.038	3.801	4.628	4.759	3.208	0.464	-2.612	0.600	-1.938	761.719
3.548	3.101	-0.829	2.517	2.033	0.535	1.235	-2.517	-3.149	-0.624	-3.950	-3.254	3.029	3.606	3.463	3.062	3.871	0.890	4.082	2.980	3.796	4.670	4.837	3.252	0.532	-2.604	0.637	-1.884	765.625
3.561	3.070	-0.781	2.397	1.892	0.414	1.261	-2.473	-3.101	-0.522	-3.992	-3.207	3.133	3.640	3.435	2.937	3.795	0.940	4.049	2.864	3.757	4.693	4.904	3.309	0.640	-2.589	0.686	-1.843	769.531
3.559	2.992	-0.809	2.261	1.799	0.370	1.333	-2.388	-3.028	-0.419	-4.013	-3.181	3.248	3.682	3.385	2.783	3.682	0.961	3.980	2.717	3.695	4.701	4.965	3.366	0.762	-2.595	0.720	-1.851	773.438
3.553	2.882	-0.915	2.137	1.780	0.422	1.430	-2.278	-2.964	-0.349	-4.051	-3.213	3.352	3.732	3.335	2.635	3.566	0.981	3.903	2.575	3.628	4.707	5.032	3.412	0.872	-2.646	0.717	-1.939	777.344
3.558	2.757	-1.101	2.052	1.852	0.578	1.532	-2.159	-2.941	-0.345	-4.145	-3.335	3.425	3.789	3.309	2.523	3.479	1.023	3.847	2.475	3.572	4.723	5.116	3.441	0.952	-2.759	0.659	-2.125	781.250
3.586	2.631	-1.363	2.018	2.018	0.836	1.621	-2.043	-2.981	-0.424	-4.323	-3.562	3.457	3.854	3.322	2.469	3.441	1.106	3.836	2.439	3.543	4.758	5.229	3.450	0.993	-2.936	0.539	-2.416	785.156
3.642	2.514	-1.694	2.039	2.266	1.179	1.686	-1.936	-3.087	-0.587	-4.593	-3.894	3.447	3.928	3.380	2.477	3.459	1.235	3.879	2.475	3.546	4.819	5.376	3.441	0.994	-3.171	0.360	-2.800	789.062
3.725	2.409	-2.075	2.105	2.573	1.580	1.724	-1.840	-3.251	-0.819	-4.943	-4.308	3.402	4.007	3.478	2.540	3.526	1.405	3.973	2.576	3.579	4.904	5.554	3.419	0.965	-3.450	0.137	-3.255	792.969
3.825	2.315	-2.478	2.198	2.910	2.008	1.741	-1.756	-3.453	-1.092	-5.346	-4.769	3.336	4.090	3.601	2.637	3.627	1.605	4.102	2.717	3.632	5.005	5.753	3.390	0.917	-3.753	-0.112	-3.746	796.875
