FP1	F3	F7	FC3	C3	C5	P3	P7	PO7	PO3	O1	Oz	Pz	CPz	FP2	Fz	F4	F8	FC4	FCz	Cz	C4	C6	P4	P8	PO8	PO4	O2	time
-1.057	-1.404	-0.425	-0.525	0.163	0.287	0.524	0.559	0.208	0.466	0.499	0.237	0.204	0.124	-0.877	-0.940	-0.300	-0.279	-0.815	-0.018	0.488	-0.789	-0.445	-0.001	0.500	1.061	0.485	0.869	-199.219
-1.099	-1.037	-0.404	-0.325	0.178	0.278	0.448	0.470	0.389	0.464	0.664	0.384	0.183	0.104	-0.806	-0.723	-0.220	-0.344	-0.682	0.136	0.519	-0.771	-0.568	-0.110	0.313	0.690	0.348	0.698	-195.312
-1.138	-0.702	-0.366	-0.142	0.195	0.282	0.377	0.376	0.530	0.463	0.805	0.513	0.181	0.102	-0.747	-0.549	-0.177	-0.406	-0.578	0.254	0.547	-0.754	-0.676	-0.192	0.149	0.360	0.236	0.546	-191.406
-1.172	-0.424	-0.301	0.006	0.214	0.303	0.317	0.275	0.607	0.465	0.906	0.611	0.210	0.131	-0.711	-0.452	-0.194	-0.458	-0.523	0.309	0.566	-0.736	-0.755	-0.225	0.026	0.106	0.166	0.432	-187.500
-1.197	-0.222	-0.207	0.109	0.234	0.344	0.272	0.168	0.608	0.473	0.957	0.671	0.278	0.195	-0.704	-0.449	-0.285	-0.503	-0.527	0.283	0.573	-0.716	-0.796	-0.198	-0.050	-0.052	0.152	0.368	-183.594
-1.205	-0.102	-0.091	0.163	0.254	0.399	0.244	0.059	0.537	0.487	0.954	0.694	0.387	0.296	-0.726	-0.536	-0.448	-0.542	-0.588	0.176	0.567	-0.695	-0.794	-0.107	-0.083	-0.108	0.201	0.364	-179.688
-1.189	-0.058	0.033	0.170	0.272	0.458	0.232	-0.044	0.412	0.508	0.901	0.685	0.529	0.422	-0.772	-0.693	-0.663	-0.581	-0.692	-0.001	0.548	-0.669	-0.750	0.038	-0.086	-0.074	0.306	0.416	-175.781
-1.143	-0.076	0.146	0.140	0.285	0.508	0.233	-0.133	0.264	0.535	0.810	0.653	0.684	0.559	-0.830	-0.885	-0.897	-0.621	-0.815	-0.219	0.517	-0.636	-0.667	0.218	-0.075	0.029	0.452	0.515	-171.875
-1.070	-0.136	0.227	0.085	0.292	0.536	0.244	-0.200	0.125	0.563	0.697	0.604	0.830	0.686	-0.886	-1.069	-1.109	-0.660	-0.924	-0.444	0.478	-0.592	-0.551	0.410	-0.065	0.168	0.613	0.638	-167.969
-0.974	-0.216	0.260	0.022	0.293	0.534	0.260	-0.239	0.026	0.585	0.578	0.541	0.939	0.783	-0.923	-1.202	-1.255	-0.689	-0.986	-0.636	0.433	-0.531	-0.409	0.583	-0.067	0.312	0.756	0.757	-164.062
-0.867	-0.294	0.239	-0.034	0.289	0.497	0.279	-0.252	-0.015	0.591	0.469	0.463	0.986	0.834	-0.928	-1.248	-1.301	-0.695	-0.975	-0.760	0.388	-0.449	-0.249	0.712	-0.087	0.432	0.850	0.839	-160.156
-0.759	-0.353	0.168	-0.067	0.285	0.428	0.294	-0.242	0.004	0.574	0.379	0.366	0.957	0.828	-0.888	-1.186	-1.225	-0.666	-0.873	-0.789	0.349	-0.346	-0.082	0.774	-0.125	0.504	0.871	0.856	-156.250
-0.657	-0.376	0.063	-0.065	0.286	0.335	0.303	-0.221	0.071	0.526	0.310	0.244	0.848	0.766	-0.795	-1.011	-1.024	-0.591	-0.682	-0.710	0.321	-0.223	0.081	0.761	-0.174	0.515	0.805	0.790	-152.344
-0.566	-0.353	-0.054	-0.018	0.295	0.229	0.299	-0.200	0.160	0.447	0.257	0.092	0.667	0.656	-0.650	-0.734	-0.718	-0.469	-0.418	-0.526	0.308	-0.086	0.230	0.671	-0.228	0.460	0.655	0.637	-148.438
-0.482	-0.283	-0.156	0.073	0.313	0.125	0.281	-0.189	0.242	0.340	0.213	-0.086	0.439	0.517	-0.460	-0.384	-0.343	-0.308	-0.111	-0.259	0.315	0.056	0.356	0.519	-0.279	0.344	0.438	0.408	-144.531
-0.401	-0.171	-0.226	0.199	0.336	0.033	0.249	-0.193	0.290	0.218	0.169	-0.281	0.194	0.370	-0.243	-0.002	0.055	-0.125	0.202	0.059	0.340	0.195	0.451	0.327	-0.321	0.180	0.185	0.128	-140.625
-0.321	-0.031	-0.254	0.342	0.358	-0.039	0.205	-0.214	0.290	0.100	0.124	-0.472	-0.033	0.238	-0.023	0.365	0.426	0.057	0.483	0.384	0.380	0.321	0.513	0.127	-0.348	-0.013	-0.068	-0.167	-136.719
-0.240	0.115	-0.248	0.478	0.369	-0.089	0.156	-0.243	0.238	0.004	0.080	-0.632	-0.211	0.139	0.177	0.673	0.725	0.213	0.700	0.672	0.424	0.431	0.546	-0.051	-0.356	-0.210	-0.280	-0.434	-132.812
-0.159	0.242	-0.222	0.578	0.358	-0.119	0.109	-0.272	0.146	-0.051	0.045	-0.731	-0.316	0.082	0.332	0.883	0.922	0.324	0.837	0.883	0.462	0.522	0.553	-0.177	-0.342	-0.384	-0.421	-0.636	-128.906
-0.082	0.326	-0.200	0.618	0.316	-0.136	0.071	-0.292	0.032	-0.056	0.026	-0.745	-0.339	0.068	0.429	0.973	1.004	0.378	0.889	0.991	0.481	0.594	0.544	-0.234	-0.305	-0.509	-0.468	-0.743	-125.000
-0.014	0.349	-0.204	0.581	0.239	-0.148	0.046	-0.298	-0.087	-0.009	0.026	-0.662	-0.280	0.090	0.465	0.942	0.975	0.372	0.867	0.983	0.471	0.649	0.524	-0.214	-0.245	-0.565	-0.417	-0.741	-121.094
0.042	0.306	-0.244	0.465	0.130	-0.161	0.034	-0.291	-0.197	0.078	0.045	-0.488	-0.157	0.132	0.447	0.802	0.855	0.316	0.790	0.870	0.428	0.688	0.499	-0.123	-0.162	-0.541	-0.278	-0.633	-117.188
0.083	0.204	-0.320	0.280	-0.005	-0.180	0.031	-0.276	-0.292	0.186	0.074	-0.241	0.010	0.181	0.391	0.584	0.672	0.224	0.677	0.675	0.355	0.707	0.470	0.023	-0.060	-0.439	-0.074	-0.438	-113.281
0.107	0.060	-0.417	0.052	-0.151	-0.204	0.032	-0.260	-0.375	0.292	0.101	0.048	0.191	0.221	0.313	0.327	0.456	0.119	0.548	0.432	0.258	0.705	0.436	0.201	0.053	-0.272	0.166	-0.183	-109.375
0.113	-0.101	-0.513	-0.188	-0.293	-0.229	0.028	-0.250	-0.451	0.372	0.114	0.343	0.363	0.241	0.231	0.070	0.235	0.019	0.414	0.177	0.146	0.676	0.393	0.385	0.169	-0.065	0.408	0.094	-105.469
0.104	-0.249	-0.581	-0.407	-0.416	-0.250	0.013	-0.248	-0.525	0.409	0.103	0.609	0.501	0.236	0.155	-0.153	0.034	-0.056	0.283	-0.057	0.028	0.615	0.341	0.549	0.279	0.153	0.624	0.360	-101.562
0.081	-0.362	-0.600	-0.576	-0.509	-0.259	-0.017	-0.252	-0.597	0.393	0.065	0.821	0.590	0.200	0.093	-0.318	-0.133	-0.095	0.154	-0.249	-0.091	0.520	0.278	0.672	0.374	0.354	0.790	0.585	-97.656
0.052	-0.424	-0.557	-0.677	-0.569	-0.251	-0.063	-0.255	-0.666	0.324	0.002	0.960	0.621	0.135	0.043	-0.415	-0.256	-0.092	0.029	-0.392	-0.208	0.393	0.207	0.742	0.447	0.512	0.893	0.750	-93.750
0.025	-0.429	-0.453	-0.706	-0.597	-0.223	-0.124	-0.249	-0.723	0.209	-0.077	1.023	0.594	0.043	0.004	-0.447	-0.333	-0.049	-0.091	-0.486	-0.321	0.242	0.132	0.753	0.492	0.615	0.928	0.847	-89.844
0.008	-0.382	-0.298	-0.671	-0.599	-0.178	-0.195	-0.226	-0.763	0.060	-0.164	1.014	0.512	-0.071	-0.026	-0.426	-0.363	0.027	-0.203	-0.544	-0.431	0.078	0.058	0.706	0.510	0.659	0.900	0.880	-85.938
0.008	-0.297	-0.113	-0.590	-0.583	-0.118	-0.271	-0.182	-0.779	-0.107	-0.247	0.943	0.388	-0.201	-0.048	-0.367	-0.353	0.124	-0.300	-0.576	-0.538	-0.086	-0.008	0.612	0.505	0.656	0.822	0.859	-82.031
0.029	-0.193	0.079	-0.485	-0.553	-0.050	-0.343	-0.117	-0.771	-0.277	-0.322	0.823	0.234	-0.336	-0.063	-0.288	-0.311	0.227	-0.375	-0.595	-0.638	-0.234	-0.062	0.482	0.482	0.622	0.706	0.801	-78.125
0.073	-0.085	0.256	-0.375	-0.511	0.019	-0.404	-0.037	-0.741	-0.438	-0.388	0.663	0.064	-0.465	-0.067	-0.203	-0.244	0.324	-0.422	-0.604	-0.724	-0.355	-0.098	0.332	0.446	0.576	0.566	0.719	-74.219
0.138	0.015	0.400	-0.273	-0.450	0.082	-0.447	0.049	-0.692	-0.579	-0.448	0.471	-0.107	-0.576	-0.061	-0.119	-0.163	0.406	-0.437	-0.601	-0.785	-0.437	-0.119	0.174	0.402	0.533	0.413	0.619	-70.312
0.220	0.104	0.502	-0.181	-0.365	0.136	-0.466	0.129	-0.630	-0.694	-0.511	0.250	-0.270	-0.657	-0.040	-0.036	-0.073	0.467	-0.418	-0.578	-0.812	-0.476	-0.125	0.017	0.347	0.498	0.251	0.503	-66.406
0.316	0.185	0.562	-0.095	-0.247	0.178	-0.455	0.192	-0.560	-0.779	-0.580	0.005	-0.417	-0.701	-0.002	0.048	0.021	0.506	-0.365	-0.522	-0.796	-0.474	-0.122	-0.136	0.276	0.466	0.079	0.363	-62.500
0.423	0.269	0.587	-0.005	-0.097	0.207	-0.415	0.232	-0.480	-0.831	-0.658	-0.257	-0.545	-0.706	0.053	0.143	0.116	0.526	-0.282	-0.425	-0.734	-0.436	-0.118	-0.286	0.183	0.422	-0.106	0.190	-58.594
0.539	0.364	0.588	0.095	0.079	0.223	-0.349	0.250	-0.387	-0.848	-0.736	-0.523	-0.655	-0.676	0.129	0.253	0.211	0.531	-0.175	-0.285	-0.632	-0.372	-0.120	-0.435	0.061	0.347	-0.311	-0.023	-54.688
0.660	0.473	0.577	0.209	0.262	0.224	-0.262	0.254	-0.274	-0.828	-0.801	-0.776	-0.748	-0.620	0.223	0.383	0.304	0.524	-0.051	-0.109	-0.503	-0.292	-0.131	-0.587	-0.091	0.223	-0.535	-0.275	-50.781
0.782	0.592	0.560	0.329	0.429	0.208	-0.165	0.253	-0.135	-0.772	-0.838	-0.993	-0.825	-0.553	0.334	0.526	0.391	0.507	0.079	0.086	-0.366	-0.207	-0.151	-0.736	-0.264	0.042	-0.770	-0.556	-46.875
0.900	0.705	0.540	0.437	0.551	0.174	-0.070	0.258	0.033	-0.683	-0.830	-1.151	-0.885	-0.486	0.453	0.669	0.465	0.480	0.207	0.274	-0.244	-0.123	-0.176	-0.874	-0.438	-0.191	-1.002	-0.843	-42.969
1.005	0.791	0.511	0.513	0.603	0.117	0.011	0.278	0.226	-0.566	-0.771	-1.232	-0.925	-0.430	0.571	0.794	0.519	0.441	0.323	0.427	-0.155	-0.042	-0.195	-0.985	-0.585	-0.455	-1.208	-1.106	-39.062
1.088	0.826	0.467	0.532	0.570	0.034	0.067	0.312	0.431	-0.434	-0.660	-1.228	-0.938	-0.392	0.676	0.879	0.545	0.391	0.420	0.522	-0.113	0.037	-0.196	-1.048	-0.675	-0.714	-1.362	-1.315	-35.156
1.141	0.794	0.401	0.482	0.449	-0.076	0.090	0.355	0.625	-0.302	-0.512	-1.140	-0.919	-0.371	0.756	0.907	0.540	0.330	0.495	0.543	-0.122	0.118	-0.169	-1.048	-0.680	-0.930	-1.441	-1.442	-31.250
1.156	0.689	0.311	0.362	0.252	-0.209	0.077	0.392	0.781	-0.187	-0.349	-0.984	-0.867	-0.360	0.805	0.870	0.503	0.266	0.547	0.487	-0.174	0.209	-0.106	-0.974	-0.588	-1.066	-1.431	-1.472	-27.344
1.135	0.524	0.204	0.185	0.007	-0.356	0.028	0.407	0.868	-0.109	-0.202	-0.784	-0.784	-0.352	0.821	0.772	0.441	0.204	0.579	0.367	-0.255	0.313	-0.004	-0.829	-0.400	-1.098	-1.334	-1.407	-23.438
1.086	0.326	0.095	-0.018	-0.252	-0.502	-0.054	0.385	0.860	-0.086	-0.102	-0.573	-0.679	-0.337	0.813	0.629	0.362	0.153	0.596	0.204	-0.344	0.435	0.130	-0.626	-0.139	-1.021	-1.163	-1.263	-19.531
1.025	0.132	0.003	-0.209	-0.485	-0.628	-0.163	0.317	0.742	-0.132	-0.077	-0.386	-0.565	-0.309	0.794	0.466	0.278	0.120	0.606	0.027	-0.418	0.572	0.284	-0.391	0.160	-0.849	-0.947	-1.072	-15.625
0.974	-0.017	-0.049	-0.350	-0.656	-0.715	-0.294	0.200	0.509	-0.255	-0.148	-0.253	-0.461	-0.265	0.783	0.313	0.204	0.112	0.617	-0.134	-0.461	0.720	0.444	-0.155	0.453	-0.616	-0.723	-0.872	-11.719
0.955	-0.086	-0.043	-0.408	-0.741	-0.747	-0.440	0.038	0.169	-0.456	-0.319	-0.197	-0.382	-0.210	0.797	0.201	0.153	0.130	0.638	-0.255	-0.462	0.870	0.593	0.047	0.695	-0.365	-0.526	-0.701	-7.812
0.987	-0.054	0.030	-0.368	-0.729	-0.717	-0.594	-0.156	-0.257	-0.723	-0.585	-0.230	-0.341	-0.145	0.852	0.153	0.137	0.174	0.679	-0.313	-0.415	1.013	0.718	0.189	0.851	-0.145	-0.388	-0.592	-3.906
1.077	0.082	0.167	-0.230	-0.625	-0.628	-0.745	-0.368	-0.741	-1.036	-0.921	-0.345	-0.340	-0.078	0.953	0.183	0.168	0.240	0.750	-0.301	-0.323	1.141	0.808	0.253	0.898	0.002	-0.329	-0.561	0.000
1.220	0.301	0.352	-0.018	-0.451	-0.494	-0.882	-0.582	-1.243	-1.364	-1.293	-0.524	-0.375	-0.010	1.095	0.288	0.248	0.323	0.859	-0.219	-0.196	1.247	0.860	0.236	0.832	0.048	-0.350	-0.611	3.906
1.395	0.566	0.558	0.234	-0.236	-0.337	-0.993	-0.785	-1.720	-1.672	-1.655	-0.734	-0.431	0.058	1.263	0.456	0.376	0.414	1.006	-0.076	-0.043	1.329	0.874	0.149	0.663	-0.016	-0.439	-0.726	7.812
1.573	0.831	0.752	0.481	-0.015	-0.182	-1.066	-0.961	-2.127	-1.922	-1.958	-0.936	-0.491	0.125	1.434	0.660	0.543	0.505	1.187	0.105	0.120	1.389	0.854	0.012	0.419	-0.178	-0.572	-0.878	11.719
1.723	1.051	0.902	0.683	0.179	-0.053	-1.092	-1.102	-2.423	-2.085	-2.160	-1.091	-0.537	0.190	1.582	0.868	0.733	0.586	1.389	0.299	0.279	1.428	0.805	-0.149	0.137	-0.407	-0.718	-1.031	15.625
1.815	1.192	0.987	0.812	0.319	0.033	-1.068	-1.196	-2.579	-2.141	-2.232	-1.172	-0.558	0.249	1.684	1.048	0.925	0.647	1.588	0.478	0.416	1.447	0.733	-0.310	-0.144	-0.662	-0.847	-1.155	19.531
1.833	1.241	0.998	0.857	0.394	0.073	-0.996	-1.236	-2.580	-2.089	-2.163	-1.164	-0.555	0.292	1.725	1.175	1.098	0.680	1.760	0.619	0.517	1.442	0.643	-0.453	-0.389	-0.901	-0.941	-1.226	23.438
1.778	1.207	0.944	0.828	0.402	0.072	-0.886	-1.218	-2.428	-1.945	-1.965	-1.076	-0.535	0.308	1.700	1.235	1.232	0.679	1.876	0.704	0.571	1.407	0.537	-0.570	-0.573	-1.088	-0.991	-1.240	27.344
1.667	1.117	0.850	0.750	0.356	0.046	-0.754	-1.141	-2.142	-1.737	-1.668	-0.932	-0.516	0.286	1.620	1.231	1.312	0.641	1.915	0.729	0.570	1.336	0.412	-0.665	-0.686	-1.204	-1.006	-1.207	31.250
1.529	1.008	0.747	0.659	0.278	0.016	-0.617	-1.008	-1.757	-1.500	-1.318	-0.772	-0.516	0.214	1.504	1.177	1.330	0.566	1.867	0.701	0.512	1.223	0.267	-0.749	-0.732	-1.244	-1.003	-1.152	35.156
1.399	0.916	0.669	0.588	0.191	-0.001	-0.491	-0.831	-1.312	-1.269	-0.966	-0.639	-0.554	0.090	1.380	1.094	1.286	0.461	1.734	0.633	0.401	1.069	0.101	-0.835	-0.726	-1.217	-1.006	-1.104	39.062
1.305	0.868	0.641	0.559	0.115	0.005	-0.393	-0.625	-0.851	-1.074	-0.658	-0.571	-0.639	-0.086	1.274	1.007	1.190	0.333	1.528	0.545	0.246	0.882	-0.083	-0.934	-0.688	-1.141	-1.034	-1.088	42.969
1.265	0.875	0.676	0.581	0.061	0.034	-0.332	-0.409	-0.411	-0.933	-0.429	-0.590	-0.770	-0.302	1.208	0.937	1.055	0.196	1.276	0.457	0.059	0.678	-0.274	-1.047	-0.632	-1.030	-1.099	-1.118	46.875
1.283	0.927	0.767	0.644	0.032	0.077	-0.313	-0.203	-0.017	-0.852	-0.294	-0.698	-0.935	-0.542	1.190	0.893	0.896	0.064	1.006	0.381	-0.146	0.479	-0.457	-1.170	-0.566	-0.895	-1.195	-1.189	50.781
1.344	1.002	0.893	0.726	0.019	0.116	-0.335	-0.023	0.315	-0.825	-0.251	-0.879	-1.117	-0.785	1.214	0.873	0.727	-0.052	0.746	0.323	-0.356	0.309	-0.614	-1.286	-0.490	-0.740	-1.309	-1.284	54.688
1.423	1.070	1.025	0.799	0.010	0.132	-0.391	0.120	0.586	-0.836	-0.278	-1.099	-1.290	-1.010	1.262	0.865	0.558	-0.141	0.522	0.278	-0.561	0.187	-0.727	-1.375	-0.395	-0.560	-1.417	-1.374	58.594
1.489	1.102	1.127	0.835	-0.011	0.110	-0.470	0.221	0.802	-0.866	-0.346	-1.315	-1.430	-1.198	1.308	0.850	0.394	-0.200	0.348	0.236	-0.751	0.128	-0.781	-1.417	-0.270	-0.352	-1.491	-1.428	62.500
1.511	1.075	1.171	0.813	-0.060	0.039	-0.561	0.282	0.973	-0.897	-0.422	-1.484	-1.519	-1.334	1.326	0.803	0.238	-0.226	0.233	0.179	-0.922	0.136	-0.768	-1.396	-0.108	-0.112	-1.509	-1.418	66.406
1.466	0.979	1.135	0.725	-0.147	-0.085	-0.655	0.305	1.110	-0.913	-0.478	-1.570	-1.544	-1.410	1.299	0.709	0.091	-0.224	0.177	0.093	-1.068	0.210	-0.688	-1.304	0.095	0.156	-1.456	-1.327	70.312
1.345	0.817	1.013	0.575	-0.278	-0.257	-0.744	0.295	1.215	-0.908	-0.496	-1.553	-1.504	-1.427	1.218	0.555	-0.045	-0.199	0.174	-0.034	-1.189	0.340	-0.546	-1.141	0.336	0.449	-1.328	-1.149	74.219
1.150	0.600	0.809	0.374	-0.452	-0.468	-0.826	0.256	1.292	-0.882	-0.469	-1.425	-1.408	-1.394	1.087	0.342	-0.167	-0.160	0.212	-0.206	-1.285	0.511	-0.358	-0.918	0.604	0.758	-1.132	-0.888	78.125
0.897	0.345	0.539	0.143	-0.662	-0.707	-0.898	0.194	1.341	-0.838	-0.399	-1.194	-1.271	-1.325	0.917	0.078	-0.277	-0.120	0.275	-0.421	-1.358	0.705	-0.143	-0.655	0.886	1.080	-0.880	-0.551	82.031
0.607	0.070	0.226	-0.100	-0.893	-0.957	-0.959	0.117	1.375	-0.776	-0.286	-0.874	-1.112	-1.235	0.722	-0.225	-0.378	-0.094	0.342	-0.671	-1.412	0.899	0.071	-0.370	1.170	1.419	-0.583	-0.145	85.938
0.297	-0.213	-0.109	-0.338	-1.128	-1.203	-1.000	0.038	1.412	-0.695	-0.127	-0.479	-0.946	-1.142	0.507	-0.553	-0.480	-0.104	0.386	-0.944	-1.453	1.068	0.256	-0.085	1.444	1.787	-0.249	0.329	89.844
-0.022	-0.498	-0.450	-0.560	-1.346	-1.432	-1.007	-0.026	1.486	-0.580	0.088	-0.016	-0.782	-1.058	0.274	-0.893	-0.603	-0.176	0.383	-1.226	-1.485	1.193	0.383	0.187	1.699	2.203	0.122	0.878	93.750
-0.347	-0.786	-0.786	-0.760	-1.528	-1.632	-0.963	-0.057	1.638	-0.412	0.381	0.510	-0.618	-0.989	0.014	-1.236	-0.769	-0.331	0.307	-1.508	-1.515	1.254	0.427	0.439	1.931	2.685	0.535	1.512	97.656
-0.684	-1.080	-1.113	-0.936	-1.658	-1.796	-0.847	-0.037	1.905	-0.166	0.775	1.098	-0.447	-0.933	-0.286	-1.574	-0.996	-0.588	0.146	-1.778	-1.544	1.244	0.370	0.669	2.130	3.239	0.999	2.233	101.562
-1.042	-1.378	-1.430	-1.084	-1.726	-1.919	-0.641	0.048	2.315	0.179	1.284	1.745	-0.256	-0.881	-0.634	-1.897	-1.292	-0.948	-0.098	-2.025	-1.569	1.163	0.208	0.882	2.285	3.849	1.512	3.027	105.469
-1.423	-1.675	-1.736	-1.201	-1.725	-1.999	-0.336	0.199	2.873	0.634	1.909	2.431	-0.029	-0.817	-1.029	-2.189	-1.645	-1.396	-0.405	-2.233	-1.581	1.026	-0.048	1.079	2.376	4.464	2.062	3.856	109.375
-1.819	-1.951	-2.025	-1.277	-1.653	-2.036	0.063	0.406	3.554	1.192	2.623	3.120	0.242	-0.721	-1.454	-2.426	-2.023	-1.897	-0.734	-2.382	-1.561	0.860	-0.372	1.260	2.375	5.008	2.616	4.651	113.281
-2.207	-2.178	-2.283	-1.297	-1.509	-2.028	0.539	0.645	4.302	1.825	3.377	3.757	0.561	-0.575	-1.874	-2.582	-2.375	-2.401	-1.030	-2.445	-1.489	0.699	-0.724	1.417	2.252	5.383	3.126	5.323	117.188
-2.553	-2.321	-2.494	-1.243	-1.293	-1.976	1.061	0.882	5.041	2.488	4.098	4.276	0.919	-0.363	-2.246	-2.625	-2.639	-2.847	-1.230	-2.398	-1.336	0.583	-1.058	1.538	1.975	5.490	3.537	5.776	121.094
-2.815	-2.348	-2.637	-1.102	-1.010	-1.881	1.589	1.075	5.677	3.119	4.708	4.612	1.303	-0.077	-2.521	-2.528	-2.756	-3.178	-1.278	-2.213	-1.081	0.549	-1.325	1.610	1.523	5.251	3.794	5.925	125.000
-2.954	-2.234	-2.694	-0.863	-0.668	-1.749	2.078	1.180	6.124	3.658	5.131	4.713	1.689	0.284	-2.659	-2.274	-2.680	-3.349	-1.133	-1.876	-0.706	0.626	-1.488	1.619	0.889	4.627	3.856	5.714	128.906
-2.946	-1.970	-2.655	-0.530	-0.280	-1.591	2.483	1.161	6.311	4.048	5.314	4.551	2.057	0.711	-2.638	-1.860	-2.391	-3.335	-0.778	-1.383	-0.205	0.832	-1.522	1.561	0.091	3.634	3.707	5.131	132.812
-2.783	-1.566	-2.524	-0.114	0.135	-1.422	2.768	0.990	6.195	4.250	5.232	4.134	2.384	1.188	-2.457	-1.300	-1.897	-3.133	-0.222	-0.745	0.415	1.165	-1.421	1.443	-0.831	2.343	3.361	4.218	136.719
-2.479	-1.052	-2.315	0.360	0.550	-1.267	2.907	0.654	5.769	4.243	4.892	3.500	2.656	1.694	-2.138	-0.623	-1.234	-2.766	0.498	0.011	1.135	1.612	-1.196	1.280	-1.814	0.874	2.860	3.060	140.625
-2.068	-0.474	-2.057	0.857	0.934	-1.151	2.884	0.159	5.060	4.029	4.331	2.713	2.861	2.201	-1.719	0.129	-0.460	-2.273	1.330	0.845	1.919	2.146	-0.876	1.098	-2.782	-0.623	2.269	1.776	144.531
-1.594	0.115	-1.784	1.342	1.256	-1.101	2.701	-0.476	4.127	3.627	3.611	1.851	2.995	2.682	-1.249	0.904	0.357	-1.704	2.207	1.708	2.725	2.731	-0.501	0.924	-3.653	-1.990	1.663	0.501	148.438
-1.107	0.661	-1.529	1.777	1.484	-1.136	2.371	-1.211	3.054	3.074	2.803	0.995	3.054	3.106	-0.777	1.649	1.146	-1.115	3.060	2.544	3.500	3.325	-0.113	0.787	-4.356	-3.084	1.112	-0.636	152.344
-0.651	1.119	-1.321	2.132	1.597	-1.267	1.921	-1.994	1.939	2.416	1.985	0.216	3.036	3.441	-0.347	2.316	1.845	-0.557	3.824	3.298	4.189	3.884	0.244	0.703	-4.836	-3.799	0.677	-1.533	156.250
-0.262	1.459	-1.174	2.384	1.583	-1.489	1.391	-2.764	0.886	1.708	1.225	-0.436	2.942	3.658	0.011	2.860	2.406	-0.075	4.445	3.919	4.739	4.362	0.533	0.680	-5.063	-4.074	0.394	-2.122	160.156
0.034	1.666	-1.096	2.525	1.444	-1.782	0.826	-3.454	-0.010	1.005	0.583	-0.929	2.771	3.734	0.277	3.249	2.793	0.302	4.879	4.363	5.103	4.721	0.726	0.716	-5.034	-3.901	0.278	-2.380	164.062
0.225	1.743	-1.079	2.554	1.195	-2.115	0.272	-4.004	-0.672	0.360	0.099	-1.253	2.525	3.654	0.439	3.460	2.989	0.556	5.100	4.598	5.245	4.928	0.809	0.796	-4.769	-3.316	0.320	-2.319	167.969
0.306	1.704	-1.112	2.483	0.861	-2.451	-0.228	-4.365	-1.049	-0.185	-0.206	-1.415	2.213	3.414	0.496	3.485	2.991	0.684	5.097	4.606	5.146	4.965	0.784	0.906	-4.307	-2.391	0.493	-1.986	171.875
0.283	1.573	-1.176	2.330	0.473	-2.753	-0.639	-4.505	-1.124	-0.599	-0.328	-1.433	1.843	3.024	0.450	3.325	2.808	0.694	4.878	4.385	4.807	4.828	0.664	1.028	-3.697	-1.219	0.763	-1.445	175.781
0.168	1.379	-1.253	2.118	0.060	-2.995	-0.942	-4.415	-0.914	-0.865	-0.283	-1.332	1.433	2.507	0.308	2.997	2.460	0.603	4.464	3.949	4.249	4.531	0.477	1.150	-2.993	0.102	1.089	-0.769	179.688
-0.021	1.149	-1.327	1.871	-0.348	-3.157	-1.129	-4.110	-0.464	-0.984	-0.099	-1.142	1.004	1.895	0.083	2.526	1.976	0.437	3.892	3.328	3.511	4.104	0.254	1.265	-2.246	1.477	1.435	-0.027	183.594
-0.262	0.907	-1.385	1.609	-0.730	-3.237	-1.210	-3.626	0.157	-0.970	0.185	-0.892	0.580	1.231	-0.208	1.949	1.391	0.221	3.208	2.564	2.645	3.586	0.027	1.370	-1.502	2.826	1.771	0.719	187.500
-0.528	0.671	-1.420	1.350	-1.074	-3.244	-1.201	-3.015	0.873	-0.846	0.529	-0.608	0.183	0.555	-0.541	1.308	0.748	-0.016	2.463	1.710	1.713	3.022	-0.180	1.467	-0.795	4.087	2.078	1.427	191.406
-0.794	0.451	-1.432	1.104	-1.374	-3.196	-1.128	-2.340	1.609	-0.644	0.897	-0.309	-0.164	-0.091	-0.890	0.646	0.086	-0.252	1.711	0.824	0.772	2.454	-0.350	1.558	-0.151	5.219	2.348	2.071	195.312
-1.035	0.252	-1.429	0.872	-1.631	-3.116	-1.015	-1.662	2.302	-0.394	1.262	-0.007	-0.444	-0.676	-1.223	0.005	-0.553	-0.470	1.000	-0.042	-0.124	1.920	-0.477	1.648	0.417	6.202	2.582	2.644	199.219
-1.231	0.070	-1.424	0.648	-1.851	-3.028	-0.886	-1.039	2.909	-0.124	1.603	0.294	-0.647	-1.174	-1.509	-0.582	-1.135	-0.658	0.368	-0.842	-0.934	1.448	-0.565	1.739	0.903	7.029	2.788	3.151	203.125
-1.369	-0.103	-1.433	0.423	-2.042	-2.951	-0.758	-0.515	3.400	0.143	1.906	0.592	-0.767	-1.570	-1.721	-1.095	-1.634	-0.812	-0.158	-1.546	-1.630	1.056	-0.619	1.834	1.312	7.706	2.976	3.602	207.031
-1.445	-0.276	-1.467	0.186	-2.211	-2.897	-0.644	-0.122	3.762	0.388	2.162	0.887	-0.809	-1.859	-1.840	-1.524	-2.035	-0.930	-0.567	-2.140	-2.201	0.753	-0.643	1.935	1.658	8.245	3.160	4.011	210.938
-1.458	-0.458	-1.531	-0.072	-2.365	-2.871	-0.551	0.130	3.995	0.600	2.361	1.176	-0.782	-2.045	-1.856	-1.875	-2.335	-1.014	-0.863	-2.627	-2.647	0.540	-0.638	2.048	1.957	8.666	3.350	4.390	214.844
-1.418	-0.658	-1.623	-0.354	-2.509	-2.874	-0.484	0.244	4.104	0.770	2.499	1.455	-0.700	-2.137	-1.774	-2.164	-2.541	-1.068	-1.062	-3.020	-2.980	0.413	-0.601	2.174	2.233	8.990	3.553	4.743	218.750
-1.336	-0.875	-1.733	-0.659	-2.646	-2.899	-0.444	0.238	4.102	0.895	2.572	1.718	-0.583	-2.152	-1.609	-2.411	-2.672	-1.097	-1.186	-3.343	-3.216	0.364	-0.525	2.316	2.503	9.240	3.769	5.072	222.656
-1.229	-1.107	-1.848	-0.975	-2.778	-2.941	-0.431	0.141	4.008	0.973	2.583	1.958	-0.450	-2.108	-1.392	-2.636	-2.749	-1.106	-1.264	-3.616	-3.371	0.381	-0.403	2.474	2.783	9.437	3.995	5.376	226.562
-1.114	-1.342	-1.956	-1.284	-2.903	-2.995	-0.446	-0.015	3.844	1.010	2.543	2.170	-0.318	-2.021	-1.160	-2.854	-2.796	-1.104	-1.316	-3.852	-3.455	0.451	-0.233	2.645	3.074	9.599	4.223	5.650	230.469
-1.005	-1.564	-2.045	-1.561	-3.017	-3.056	-0.482	-0.198	3.639	1.012	2.468	2.352	-0.195	-1.902	-0.952	-3.068	-2.831	-1.099	-1.356	-4.051	-3.468	0.560	-0.021	2.822	3.368	9.732	4.439	5.886	234.375
-0.919	-1.755	-2.113	-1.783	-3.112	-3.119	-0.533	-0.382	3.419	0.992	2.376	2.504	-0.085	-1.756	-0.805	-3.269	-2.865	-1.100	-1.386	-4.200	-3.400	0.693	0.220	2.995	3.639	9.833	4.631	6.074	238.281
-0.865	-1.899	-2.160	-1.925	-3.176	-3.182	-0.587	-0.550	3.208	0.966	2.286	2.627	0.021	-1.578	-0.744	-3.437	-2.897	-1.114	-1.398	-4.272	-3.234	0.840	0.469	3.151	3.853	9.889	4.785	6.206	242.188
-0.853	-1.983	-2.195	-1.971	-3.194	-3.242	-0.631	-0.696	3.023	0.949	2.212	2.725	0.136	-1.359	-0.781	-3.547	-2.919	-1.148	-1.374	-4.239	-2.950	0.993	0.701	3.281	3.974	9.880	4.893	6.273	246.094
-0.888	-2.004	-2.229	-1.917	-3.153	-3.295	-0.649	-0.824	2.874	0.961	2.165	2.801	0.280	-1.084	-0.910	-3.574	-2.916	-1.208	-1.298	-4.075	-2.532	1.148	0.893	3.380	3.972	9.789	4.954	6.272	250.000
-0.970	-1.968	-2.275	-1.769	-3.043	-3.340	-0.626	-0.945	2.762	1.015	2.147	2.861	0.476	-0.737	-1.112	-3.503	-2.877	-1.297	-1.155	-3.764	-1.974	1.304	1.024	3.450	3.829	9.607	4.975	6.208	253.906
-1.100	-1.888	-2.347	-1.546	-2.859	-3.376	-0.547	-1.069	2.685	1.127	2.157	2.909	0.741	-0.308	-1.359	-3.328	-2.793	-1.419	-0.941	-3.309	-1.285	1.461	1.080	3.502	3.548	9.340	4.974	6.092	257.812
-1.274	-1.783	-2.455	-1.276	-2.605	-3.405	-0.404	-1.209	2.637	1.302	2.190	2.948	1.089	0.209	-1.622	-3.059	-2.662	-1.578	-0.661	-2.730	-0.487	1.620	1.058	3.553	3.152	9.008	4.973	5.942	261.719
-1.486	-1.673	-2.603	-0.989	-2.293	-3.430	-0.197	-1.373	2.612	1.540	2.239	2.979	1.520	0.808	-1.876	-2.720	-2.493	-1.776	-0.330	-2.060	0.388	1.785	0.961	3.624	2.681	8.649	4.996	5.781	265.625
-1.731	-1.576	-2.792	-0.715	-1.941	-3.459	0.065	-1.563	2.604	1.832	2.293	2.999	2.025	1.471	-2.103	-2.338	-2.298	-2.012	0.035	-1.342	1.300	1.960	0.804	3.736	2.189	8.308	5.064	5.629	269.531
-2.000	-1.501	-3.019	-0.476	-1.575	-3.500	0.365	-1.779	2.607	2.156	2.343	3.003	2.582	2.173	-2.296	-1.943	-2.089	-2.278	0.416	-0.617	2.206	2.152	0.612	3.905	1.732	8.031	5.189	5.502	273.438
-2.289	-1.456	-3.279	-0.286	-1.222	-3.563	0.681	-2.015	2.618	2.488	2.379	2.980	3.159	2.882	-2.457	-1.559	-1.878	-2.564	0.802	0.081	3.071	2.367	0.413	4.140	1.363	7.857	5.373	5.409	277.344
-2.590	-1.441	-3.568	-0.148	-0.907	-3.654	0.986	-2.261	2.635	2.797	2.391	2.920	3.721	3.565	-2.592	-1.203	-1.668	-2.852	1.189	0.728	3.863	2.616	0.242	4.444	1.122	7.811	5.605	5.349	281.250
-2.900	-1.452	-3.883	-0.057	-0.649	-3.779	1.258	-2.504	2.658	3.056	2.374	2.814	4.233	4.188	-2.712	-0.879	-1.458	-3.122	1.579	1.312	4.561	2.906	0.130	4.804	1.034	7.893	5.865	5.310	285.156
-3.216	-1.486	-4.219	-0.002	-0.456	-3.935	1.479	-2.729	2.686	3.243	2.323	2.659	4.666	4.726	-2.824	-0.590	-1.240	-3.353	1.978	1.830	5.156	3.241	0.101	5.202	1.097	8.085	6.128	5.275	289.062
-3.536	-1.539	-4.575	0.031	-0.329	-4.116	1.642	-2.920	2.719	3.348	2.240	2.454	5.002	5.161	-2.935	-0.328	-1.006	-3.528	2.387	2.283	5.642	3.619	0.169	5.611	1.294	8.351	6.367	5.226	292.969
-3.857	-1.607	-4.943	0.052	-0.258	-4.310	1.749	-3.063	2.753	3.372	2.129	2.208	5.236	5.483	-3.042	-0.091	-0.749	-3.635	2.806	2.674	6.024	4.029	0.331	6.003	1.587	8.644	6.559	5.144	296.875
-4.176	-1.690	-5.313	0.067	-0.230	-4.502	1.808	-3.149	2.788	3.332	1.999	1.937	5.374	5.694	-3.142	0.126	-0.472	-3.668	3.225	3.002	6.306	4.451	0.573	6.349	1.931	8.921	6.690	5.021	300.781
-4.486	-1.788	-5.672	0.078	-0.229	-4.678	1.834	-3.173	2.821	3.248	1.862	1.661	5.434	5.804	-3.225	0.319	-0.182	-3.631	3.628	3.264	6.497	4.859	0.868	6.629	2.277	9.144	6.754	4.858	304.688
-4.779	-1.898	-6.006	0.079	-0.241	-4.825	1.841	-3.134	2.851	3.150	1.730	1.400	5.440	5.826	-3.285	0.484	0.103	-3.533	3.995	3.451	6.602	5.227	1.183	6.830	2.584	9.292	6.756	4.664	308.594
-5.046	-2.020	-6.302	0.066	-0.255	-4.934	1.841	-3.041	2.880	3.062	1.616	1.174	5.416	5.780	-3.312	0.611	0.364	-3.389	4.306	3.555	6.628	5.527	1.488	6.953	2.823	9.360	6.705	4.459	312.500
-5.278	-2.146	-6.549	0.035	-0.267	-5.003	1.842	-2.902	2.909	3.002	1.526	0.995	5.383	5.686	-3.306	0.693	0.582	-3.217	4.545	3.572	6.580	5.743	1.760	7.007	2.984	9.360	6.620	4.264	316.406
-5.470	-2.269	-6.743	-0.016	-0.276	-5.030	1.845	-2.733	2.937	2.979	1.463	0.864	5.355	5.562	-3.266	0.723	0.745	-3.032	4.706	3.503	6.464	5.870	1.987	7.010	3.073	9.310	6.517	4.100	320.312
-5.621	-2.381	-6.883	-0.082	-0.287	-5.022	1.847	-2.548	2.963	2.986	1.422	0.778	5.336	5.420	-3.199	0.700	0.847	-2.848	4.789	3.355	6.288	5.914	2.168	6.985	3.112	9.240	6.412	3.981	324.219
-5.734	-2.471	-6.973	-0.155	-0.307	-4.984	1.839	-2.363	2.982	3.012	1.392	0.724	5.323	5.271	-3.116	0.626	0.890	-2.674	4.805	3.143	6.059	5.896	2.316	6.955	3.132	9.175	6.321	3.913	328.125
-5.815	-2.538	-7.020	-0.228	-0.345	-4.926	1.815	-2.190	2.990	3.038	1.363	0.690	5.305	5.117	-3.030	0.507	0.884	-2.514	4.767	2.880	5.786	5.840	2.446	6.940	3.168	9.138	6.253	3.894	332.031
-5.873	-2.581	-7.032	-0.297	-0.409	-4.856	1.769	-2.039	2.980	3.047	1.327	0.664	5.271	4.958	-2.952	0.347	0.839	-2.369	4.692	2.581	5.475	5.772	2.578	6.957	3.247	9.146	6.218	3.917	335.938
-5.917	-2.612	-7.018	-0.362	-0.504	-4.785	1.698	-1.917	2.953	3.029	1.283	0.645	5.214	4.790	-2.895	0.150	0.763	-2.238	4.590	2.254	5.132	5.715	2.724	7.010	3.390	9.207	6.220	3.970	339.844
-5.958	-2.646	-6.989	-0.431	-0.635	-4.720	1.608	-1.823	2.915	2.986	1.237	0.637	5.131	4.606	-2.868	-0.083	0.662	-2.122	4.470	1.901	4.759	5.681	2.890	7.101	3.605	9.322	6.263	4.048	343.750
-6.003	-2.702	-6.952	-0.517	-0.798	-4.668	1.507	-1.751	2.875	2.927	1.205	0.654	5.027	4.404	-2.878	-0.355	0.533	-2.022	4.330	1.518	4.359	5.671	3.071	7.221	3.886	9.484	6.348	4.147	347.656
-6.062	-2.798	-6.915	-0.633	-0.986	-4.631	1.408	-1.691	2.851	2.871	1.204	0.711	4.913	4.181	-2.929	-0.672	0.371	-1.942	4.165	1.099	3.931	5.678	3.258	7.362	4.219	9.687	6.472	4.268	351.562
-6.141	-2.946	-6.881	-0.792	-1.186	-4.606	1.325	-1.628	2.858	2.840	1.252	0.821	4.800	3.943	-3.024	-1.040	0.166	-1.887	3.967	0.635	3.480	5.689	3.437	7.511	4.587	9.919	6.632	4.419	355.469
-6.245	-3.152	-6.854	-0.999	-1.383	-4.586	1.270	-1.545	2.912	2.851	1.361	0.993	4.703	3.698	-3.166	-1.464	-0.092	-1.866	3.726	0.120	3.011	5.690	3.595	7.658	4.972	10.173	6.820	4.606	359.375
-6.378	-3.412	-6.832	-1.253	-1.560	-4.560	1.250	-1.428	3.020	2.914	1.535	1.223	4.628	3.456	-3.358	-1.944	-0.411	-1.882	3.435	-0.444	2.535	5.671	3.722	7.795	5.357	10.443	7.028	4.836	363.281
-6.542	-3.716	-6.814	-1.542	-1.704	-4.516	1.267	-1.267	3.183	3.027	1.764	1.500	4.581	3.228	-3.605	-2.476	-0.792	-1.937	3.097	-1.051	2.064	5.629	3.816	7.918	5.736	10.724	7.245	5.110	367.188
-6.735	-4.049	-6.798	-1.854	-1.807	-4.447	1.315	-1.060	3.391	3.180	2.031	1.804	4.559	3.026	-3.907	-3.049	-1.230	-2.028	2.717	-1.686	1.615	5.568	3.880	8.027	6.105	11.018	7.461	5.422	371.094
-6.955	-4.398	-6.786	-2.171	-1.867	-4.348	1.383	-0.812	3.623	3.351	2.310	2.113	4.560	2.859	-4.260	-3.650	-1.712	-2.144	2.312	-2.331	1.207	5.498	3.923	8.122	6.466	11.324	7.667	5.761	375.000
-7.198	-4.754	-6.784	-2.482	-1.890	-4.226	1.458	-0.540	3.855	3.518	2.573	2.405	4.578	2.736	-4.655	-4.259	-2.217	-2.269	1.901	-2.963	0.858	5.435	3.958	8.209	6.823	11.643	7.854	6.109	378.906
-7.461	-5.111	-6.798	-2.780	-1.889	-4.091	1.525	-0.265	4.061	3.663	2.796	2.665	4.611	2.663	-5.075	-4.859	-2.722	-2.387	1.505	-3.559	0.586	5.391	3.995	8.294	7.178	11.975	8.018	6.446	382.812
-7.744	-5.469	-6.837	-3.060	-1.877	-3.963	1.576	-0.011	4.220	3.772	2.965	2.886	4.660	2.643	-5.500	-5.435	-3.204	-2.482	1.141	-4.102	0.400	5.377	4.045	8.382	7.531	12.312	8.160	6.757	386.719
-8.046	-5.828	-6.907	-3.325	-1.868	-3.858	1.610	0.202	4.324	3.849	3.078	3.076	4.731	2.680	-5.909	-5.975	-3.647	-2.548	0.821	-4.578	0.306	5.396	4.113	8.478	7.875	12.642	8.283	7.029	390.625
-8.366	-6.188	-7.011	-3.574	-1.870	-3.793	1.634	0.361	4.379	3.905	3.148	3.249	4.831	2.771	-6.288	-6.472	-4.041	-2.588	0.548	-4.981	0.298	5.447	4.198	8.585	8.197	12.947	8.393	7.257	394.531
-8.704	-6.544	-7.145	-3.806	-1.881	-3.775	1.664	0.468	4.403	3.961	3.201	3.422	4.965	2.913	-6.628	-6.924	-4.387	-2.613	0.316	-5.311	0.367	5.516	4.292	8.700	8.477	13.203	8.497	7.440	398.438
-9.053	-6.884	-7.300	-4.014	-1.895	-3.798	1.720	0.535	4.425	4.043	3.266	3.615	5.137	3.099	-6.931	-7.333	-4.693	-2.642	0.112	-5.571	0.495	5.586	4.382	8.816	8.689	13.386	8.596	7.579	402.344
-9.401	-7.194	-7.462	-4.188	-1.896	-3.850	1.819	0.581	4.477	4.168	3.371	3.835	5.343	3.318	-7.204	-7.702	-4.972	-2.694	-0.076	-5.769	0.664	5.640	4.448	8.923	8.811	13.474	8.689	7.677	406.250
-9.732	-7.457	-7.612	-4.315	-1.864	-3.909	1.973	0.630	4.582	4.347	3.530	4.078	5.573	3.559	-7.456	-8.031	-5.234	-2.785	-0.259	-5.910	0.859	5.660	4.476	9.007	8.825	13.453	8.769	7.735	410.156
-10.026	-7.655	-7.734	-4.382	-1.781	-3.952	2.181	0.697	4.747	4.573	3.740	4.325	5.811	3.808	-7.695	-8.317	-5.482	-2.921	-0.440	-5.995	1.070	5.638	4.454	9.057	8.724	13.316	8.826	7.749	414.062
-10.262	-7.777	-7.813	-4.380	-1.635	-3.957	2.429	0.789	4.964	4.824	3.977	4.546	6.038	4.057	-7.922	-8.552	-5.712	-3.096	-0.613	-6.020	1.291	5.575	4.381	9.065	8.513	13.065	8.849	7.714	417.969
-10.425	-7.813	-7.840	-4.302	-1.419	-3.911	2.694	0.900	5.202	5.066	4.203	4.703	6.237	4.299	-8.131	-8.724	-5.910	-3.297	-0.762	-5.975	1.529	5.484	4.266	9.027	8.206	12.709	8.825	7.619	421.875
-10.502	-7.763	-7.810	-4.150	-1.135	-3.806	2.947	1.011	5.422	5.262	4.370	4.760	6.397	4.537	-8.307	-8.818	-6.059	-3.501	-0.865	-5.849	1.792	5.386	4.127	8.945	7.827	12.257	8.748	7.454	425.781
-10.490	-7.630	-7.728	-3.928	-0.791	-3.645	3.163	1.101	5.580	5.376	4.434	4.691	6.516	4.774	-8.434	-8.822	-6.142	-3.686	-0.901	-5.633	2.093	5.307	3.985	8.826	7.398	11.720	8.611	7.210	429.688
-10.394	-7.426	-7.602	-3.647	-0.400	-3.436	3.325	1.150	5.642	5.388	4.367	4.486	6.600	5.022	-8.497	-8.730	-6.147	-3.834	-0.852	-5.323	2.444	5.273	3.863	8.679	6.942	11.109	8.416	6.882	433.594
-10.226	-7.166	-7.448	-3.322	0.024	-3.190	3.432	1.147	5.589	5.295	4.162	4.159	6.665	5.290	-8.490	-8.548	-6.074	-3.934	-0.717	-4.929	2.850	5.301	3.775	8.515	6.472	10.434	8.167	6.475	437.500
-10.006	-6.873	-7.286	-2.972	0.466	-2.922	3.497	1.093	5.426	5.117	3.844	3.742	6.733	5.590	-8.418	-8.292	-5.934	-3.987	-0.504	-4.469	3.307	5.393	3.725	8.343	5.995	9.705	7.876	6.001	441.406
-9.756	-6.570	-7.136	-2.617	0.913	-2.648	3.545	1.001	5.179	4.890	3.457	3.286	6.825	5.926	-8.296	-7.990	-5.750	-4.004	-0.239	-3.974	3.804	5.542	3.706	8.169	5.511	8.939	7.556	5.484	445.312
-9.501	-6.281	-7.018	-2.278	1.349	-2.381	3.604	0.891	4.886	4.664	3.061	2.848	6.959	6.298	-8.145	-7.673	-5.549	-4.002	0.044	-3.480	4.319	5.727	3.704	7.997	5.018	8.156	7.225	4.956	449.219
-9.261	-6.029	-6.943	-1.973	1.762	-2.136	3.698	0.785	4.593	4.485	2.715	2.480	7.143	6.696	-7.988	-7.371	-5.360	-4.002	0.310	-3.022	4.828	5.921	3.702	7.830	4.519	7.383	6.899	4.451	453.125
-9.048	-5.827	-6.917	-1.716	2.134	-1.925	3.838	0.697	4.333	4.386	2.463	2.222	7.372	7.104	-7.838	-7.106	-5.201	-4.021	0.527	-2.624	5.307	6.103	3.683	7.669	4.021	6.647	6.593	3.999	457.031
-8.866	-5.682	-6.938	-1.514	2.451	-1.757	4.016	0.634	4.125	4.380	2.325	2.087	7.628	7.498	-7.701	-6.886	-5.083	-4.070	0.680	-2.298	5.733	6.253	3.640	7.517	3.539	5.975	6.318	3.622	460.938
-8.711	-5.586	-6.994	-1.364	2.697	-1.640	4.208	0.589	3.967	4.455	2.291	2.065	7.882	7.853	-7.572	-6.704	-5.001	-4.151	0.764	-2.041	6.093	6.366	3.576	7.375	3.096	5.391	6.081	3.332	464.844
-8.574	-5.522	-7.071	-1.259	2.863	-1.575	4.376	0.548	3.839	4.576	2.326	2.127	8.099	8.141	-7.438	-6.541	-4.940	-4.255	0.792	-1.835	6.379	6.447	3.499	7.244	2.718	4.908	5.881	3.125	468.750
-8.437	-5.466	-7.152	-1.183	2.945	-1.561	4.483	0.492	3.709	4.699	2.380	2.226	8.247	8.344	-7.287	-6.371	-4.881	-4.367	0.787	-1.656	6.593	6.508	3.426	7.126	2.425	4.533	5.716	2.989	472.656
-8.286	-5.394	-7.219	-1.118	2.949	-1.589	4.495	0.404	3.545	4.776	2.401	2.316	8.305	8.451	-7.111	-6.171	-4.805	-4.472	0.772	-1.479	6.742	6.565	3.372	7.023	2.233	4.261	5.581	2.903	476.562
-8.108	-5.286	-7.259	-1.050	2.889	-1.648	4.397	0.274	3.320	4.769	2.345	2.357	8.265	8.465	-6.909	-5.926	-4.699	-4.554	0.770	-1.285	6.838	6.633	3.350	6.938	2.145	4.079	5.469	2.844	480.469
-7.894	-5.130	-7.263	-0.965	2.790	-1.721	4.193	0.103	3.023	4.660	2.190	2.326	8.139	8.398	-6.692	-5.633	-4.561	-4.603	0.796	-1.065	6.897	6.723	3.365	6.871	2.151	3.967	5.376	2.792	484.375
-7.646	-4.927	-7.227	-0.857	2.678	-1.788	3.910	-0.100	2.658	4.451	1.936	2.217	7.951	8.273	-6.479	-5.302	-4.397	-4.615	0.854	-0.821	6.933	6.835	3.412	6.822	2.230	3.901	5.298	2.732	488.281
-7.371	-4.684	-7.154	-0.724	2.585	-1.833	3.587	-0.320	2.243	4.164	1.607	2.043	7.737	8.118	-6.291	-4.951	-4.218	-4.594	0.941	-0.562	6.963	6.965	3.480	6.789	2.350	3.855	5.231	2.653	492.188
-7.084	-4.416	-7.051	-0.565	2.536	-1.840	3.269	-0.542	1.805	3.833	1.239	1.825	7.535	7.962	-6.143	-4.602	-4.038	-4.548	1.048	-0.300	7.000	7.099	3.555	6.767	2.476	3.804	5.173	2.551	496.094
-6.802	-4.138	-6.925	-0.384	2.553	-1.800	2.999	-0.751	1.370	3.498	0.874	1.590	7.378	7.834	-6.043	-4.273	-3.867	-4.486	1.164	-0.047	7.056	7.223	3.620	6.749	2.572	3.722	5.119	2.425	500.000
-6.541	-3.864	-6.785	-0.184	2.645	-1.710	2.809	-0.938	0.966	3.193	0.547	1.360	7.288	7.750	-5.988	-3.975	-3.712	-4.415	1.281	0.189	7.140	7.323	3.664	6.726	2.605	3.586	5.062	2.271	503.906
-6.312	-3.601	-6.637	0.034	2.812	-1.575	2.711	-1.096	0.610	2.943	0.284	1.148	7.270	7.720	-5.961	-3.714	-3.572	-4.339	1.395	0.407	7.258	7.389	3.681	6.687	2.555	3.378	4.990	2.086	507.812
-6.120	-3.355	-6.484	0.262	3.043	-1.404	2.702	-1.226	0.311	2.755	0.093	0.957	7.315	7.740	-5.940	-3.485	-3.441	-4.256	1.503	0.607	7.407	7.416	3.672	6.619	2.412	3.084	4.890	1.863	511.719
-5.965	-3.129	-6.324	0.495	3.314	-1.212	2.759	-1.330	0.070	2.626	-0.034	0.782	7.397	7.793	-5.900	-3.279	-3.311	-4.161	1.608	0.793	7.579	7.408	3.646	6.514	2.185	2.702	4.747	1.597	515.625
-5.837	-2.925	-6.156	0.719	3.591	-1.020	2.848	-1.413	-0.122	2.535	-0.113	0.616	7.482	7.853	-5.820	-3.086	-3.171	-4.044	1.713	0.965	7.761	7.372	3.615	6.366	1.896	2.242	4.552	1.288	519.531
-5.723	-2.745	-5.979	0.922	3.842	-0.847	2.931	-1.484	-0.282	2.460	-0.169	0.448	7.531	7.889	-5.686	-2.899	-3.013	-3.895	1.820	1.123	7.931	7.320	3.592	6.176	1.577	1.728	4.301	0.944	523.438
-5.608	-2.592	-5.793	1.089	4.031	-0.711	2.972	-1.550	-0.430	2.372	-0.226	0.274	7.514	7.872	-5.493	-2.712	-2.832	-3.705	1.933	1.263	8.068	7.266	3.588	5.951	1.267	1.194	3.999	0.578	527.344
-5.475	-2.469	-5.599	1.212	4.136	-0.623	2.944	-1.618	-0.588	2.249	-0.307	0.090	7.409	7.779	-5.246	-2.523	-2.628	-3.471	2.050	1.380	8.151	7.220	3.611	5.702	0.997	0.676	3.659	0.211	531.250
-5.310	-2.373	-5.401	1.286	4.145	-0.586	2.834	-1.695	-0.777	2.077	-0.425	-0.100	7.209	7.602	-4.957	-2.332	-2.406	-3.197	2.169	1.470	8.165	7.190	3.663	5.443	0.790	0.207	3.299	-0.139	535.156
-5.105	-2.297	-5.201	1.317	4.063	-0.596	2.644	-1.782	-1.012	1.850	-0.589	-0.293	6.923	7.345	-4.642	-2.140	-2.173	-2.891	2.285	1.531	8.104	7.175	3.738	5.186	0.652	-0.190	2.941	-0.455	539.062
-4.855	-2.231	-4.998	1.319	3.909	-0.639	2.390	-1.878	-1.300	1.574	-0.799	-0.483	6.573	7.027	-4.320	-1.949	-1.939	-2.570	2.389	1.567	7.972	7.170	3.827	4.942	0.576	-0.508	2.601	-0.727	542.969
-4.564	-2.160	-4.792	1.308	3.711	-0.697	2.098	-1.975	-1.636	1.264	-1.047	-0.663	6.190	6.676	-4.009	-1.760	-1.715	-2.252	2.476	1.583	7.780	7.166	3.915	4.717	0.541	-0.753	2.297	-0.955	546.875
-4.237	-2.071	-4.584	1.304	3.503	-0.748	1.800	-2.065	-2.006	0.943	-1.317	-0.826	5.809	6.324	-3.720	-1.574	-1.512	-1.961	2.536	1.587	7.548	7.151	3.988	4.511	0.523	-0.942	2.037	-1.142	550.781
-3.889	-1.955	-4.373	1.322	3.316	-0.775	1.528	-2.133	-2.379	0.638	-1.589	-0.963	5.466	6.001	-3.462	-1.394	-1.338	-1.720	2.564	1.585	7.297	7.114	4.029	4.325	0.496	-1.093	1.828	-1.293	554.688
-3.534	-1.810	-4.168	1.368	3.174	-0.762	1.313	-2.168	-2.722	0.374	-1.839	-1.067	5.185	5.732	-3.238	-1.224	-1.198	-1.549	2.552	1.582	7.049	7.047	4.026	4.155	0.445	-1.223	1.672	-1.415	558.594
-3.195	-1.646	-3.978	1.442	3.090	-0.704	1.175	-2.156	-2.994	0.177	-2.044	-1.130	4.984	5.531	-3.049	-1.070	-1.096	-1.463	2.500	1.580	6.824	6.947	3.975	4.003	0.360	-1.342	1.568	-1.510	562.500
-2.892	-1.479	-3.818	1.531	3.067	-0.601	1.127	-2.087	-3.163	0.061	-2.186	-1.149	4.867	5.404	-2.890	-0.941	-1.032	-1.467	2.410	1.576	6.633	6.817	3.876	3.867	0.248	-1.451	1.512	-1.579	566.406
-2.646	-1.331	-3.701	1.621	3.098	-0.457	1.172	-1.955	-3.206	0.031	-2.254	-1.125	4.829	5.346	-2.761	-0.843	-1.002	-1.558	2.287	1.567	6.487	6.665	3.738	3.752	0.119	-1.548	1.496	-1.621	570.312
-2.471	-1.222	-3.639	1.695	3.169	-0.286	1.301	-1.761	-3.117	0.084	-2.245	-1.065	4.855	5.344	-2.659	-0.782	-1.003	-1.718	2.142	1.550	6.388	6.502	3.576	3.658	-0.011	-1.629	1.508	-1.640	574.219
-2.374	-1.171	-3.636	1.741	3.262	-0.101	1.493	-1.515	-2.910	0.204	-2.167	-0.983	4.922	5.380	-2.584	-0.757	-1.024	-1.921	1.993	1.523	6.335	6.341	3.411	3.588	-0.126	-1.692	1.535	-1.640	578.125
-2.351	-1.182	-3.686	1.754	3.358	0.083	1.723	-1.233	-2.616	0.368	-2.036	-0.897	5.008	5.432	-2.534	-0.765	-1.056	-2.132	1.854	1.488	6.319	6.198	3.262	3.540	-0.218	-1.736	1.561	-1.631	582.031
-2.388	-1.252	-3.780	1.735	3.445	0.256	1.956	-0.942	-2.281	0.549	-1.874	-0.827	5.090	5.481	-2.505	-0.798	-1.088	-2.318	1.743	1.448	6.332	6.084	3.150	3.513	-0.282	-1.765	1.572	-1.623	585.938
-2.466	-1.365	-3.898	1.695	3.511	0.407	2.161	-0.672	-1.955	0.716	-1.708	-0.791	5.149	5.508	-2.489	-0.846	-1.108	-2.447	1.674	1.408	6.359	6.009	3.089	3.502	-0.319	-1.783	1.556	-1.625	589.844
-2.561	-1.499	-4.021	1.647	3.554	0.531	2.306	-0.454	-1.690	0.842	-1.565	-0.803	5.173	5.503	-2.474	-0.896	-1.105	-2.498	1.654	1.377	6.388	5.980	3.088	3.504	-0.332	-1.793	1.508	-1.646	593.750
-2.648	-1.628	-4.131	1.602	3.573	0.626	2.369	-0.317	-1.526	0.901	-1.472	-0.871	5.153	5.457	-2.446	-0.936	-1.072	-2.461	1.687	1.360	6.411	5.999	3.149	3.516	-0.326	-1.794	1.427	-1.689	597.656
-2.709	-1.729	-4.212	1.569	3.573	0.691	2.336	-0.279	-1.492	0.876	-1.448	-0.996	5.087	5.371	-2.393	-0.956	-1.002	-2.338	1.769	1.365	6.421	6.063	3.268	3.535	-0.304	-1.785	1.318	-1.757	601.562
-2.728	-1.784	-4.257	1.552	3.556	0.727	2.205	-0.346	-1.598	0.757	-1.510	-1.174	4.974	5.249	-2.302	-0.945	-0.891	-2.139	1.897	1.395	6.417	6.166	3.436	3.556	-0.269	-1.766	1.190	-1.851	605.469
-2.699	-1.782	-4.260	1.551	3.528	0.736	1.983	-0.514	-1.837	0.540	-1.666	-1.397	4.817	5.097	-2.166	-0.898	-0.737	-1.881	2.062	1.453	6.403	6.297	3.641	3.575	-0.220	-1.742	1.048	-1.972	609.375
-2.619	-1.722	-4.223	1.564	3.489	0.721	1.685	-0.766	-2.190	0.232	-1.919	-1.659	4.620	4.922	-1.982	-0.810	-0.538	-1.576	2.258	1.540	6.385	6.448	3.867	3.585	-0.157	-1.721	0.895	-2.125	613.281
-2.490	-1.605	-4.146	1.590	3.442	0.689	1.332	-1.075	-2.629	-0.155	-2.267	-1.952	4.386	4.732	-1.750	-0.678	-0.296	-1.239	2.482	1.655	6.370	6.607	4.099	3.576	-0.082	-1.721	0.726	-2.317	617.188
-2.316	-1.439	-4.030	1.630	3.390	0.648	0.950	-1.413	-3.119	-0.602	-2.698	-2.273	4.121	4.534	-1.476	-0.502	-0.013	-0.879	2.730	1.798	6.365	6.764	4.323	3.535	-0.004	-1.765	0.531	-2.559	621.094
-2.104	-1.234	-3.877	1.688	3.336	0.609	0.564	-1.751	-3.623	-1.085	-3.197	-2.616	3.832	4.335	-1.167	-0.282	0.308	-0.505	2.999	1.967	6.373	6.911	4.524	3.450	0.065	-1.877	0.299	-2.856	625.000
-1.863	-1.000	-3.685	1.770	3.290	0.585	0.203	-2.063	-4.108	-1.576	-3.736	-2.973	3.528	4.143	-0.834	-0.023	0.658	-0.127	3.284	2.158	6.397	7.037	4.687	3.309	0.105	-2.077	0.020	-3.207	628.906
-1.603	-0.750	-3.455	1.882	3.263	0.588	-0.111	-2.331	-4.545	-2.042	-4.282	-3.332	3.223	3.967	-0.490	0.266	1.023	0.243	3.574	2.369	6.437	7.135	4.799	3.109	0.096	-2.372	-0.307	-3.600	632.812
-1.337	-0.493	-3.192	2.027	3.266	0.628	-0.357	-2.546	-4.911	-2.451	-4.796	-3.675	2.933	3.814	-0.153	0.572	1.386	0.587	3.855	2.591	6.491	7.195	4.850	2.852	0.021	-2.757	-0.669	-4.012	636.719
-1.082	-0.241	-2.906	2.203	3.309	0.710	-0.520	-2.707	-5.195	-2.772	-5.238	-3.978	2.679	3.696	0.157	0.875	1.725	0.885	4.110	2.812	6.556	7.213	4.835	2.553	-0.129	-3.206	-1.042	-4.408	640.625
-0.856	-0.002	-2.617	2.403	3.397	0.832	-0.595	-2.817	-5.388	-2.982	-5.571	-4.215	2.481	3.619	0.418	1.158	2.016	1.117	4.320	3.021	6.625	7.186	4.755	2.237	-0.352	-3.683	-1.392	-4.749	644.531
-0.676	0.217	-2.351	2.617	3.530	0.986	-0.581	-2.883	-5.493	-3.066	-5.771	-4.366	2.357	3.589	0.612	1.403	2.240	1.261	4.473	3.203	6.693	7.115	4.620	1.934	-0.631	-4.142	-1.680	-5.000	648.438
-0.557	0.411	-2.135	2.833	3.699	1.159	-0.484	-2.914	-5.515	-3.019	-5.824	-4.415	2.321	3.603	0.727	1.595	2.387	1.304	4.563	3.347	6.755	7.010	4.445	1.675	-0.942	-4.542	-1.871	-5.133	652.344
-0.507	0.577	-1.996	3.039	3.894	1.335	-0.316	-2.915	-5.460	-2.852	-5.733	-4.358	2.373	3.657	0.758	1.732	2.457	1.241	4.595	3.444	6.809	6.879	4.251	1.489	-1.258	-4.851	-1.943	-5.140	656.250
-0.524	0.713	-1.949	3.226	4.097	1.498	-0.097	-2.891	-5.339	-2.586	-5.516	-4.204	2.506	3.741	0.715	1.815	2.460	1.080	4.584	3.492	6.850	6.739	4.062	1.390	-1.551	-5.053	-1.892	-5.028	660.156
-0.596	0.819	-1.997	3.383	4.290	1.633	0.154	-2.849	-5.163	-2.252	-5.206	-3.975	2.700	3.838	0.617	1.857	2.420	0.842	4.550	3.495	6.880	6.604	3.897	1.382	-1.803	-5.146	-1.729	-4.820	664.062
-0.701	0.894	-2.132	3.506	4.452	1.728	0.411	-2.794	-4.948	-1.889	-4.842	-3.699	2.927	3.932	0.490	1.874	2.363	0.559	4.517	3.464	6.898	6.488	3.773	1.452	-2.000	-5.148	-1.482	-4.554	667.969
-0.816	0.936	-2.330	3.587	4.568	1.776	0.649	-2.734	-4.712	-1.534	-4.468	-3.410	3.156	4.008	0.365	1.883	2.316	0.271	4.504	3.411	6.904	6.400	3.695	1.579	-2.142	-5.081	-1.189	-4.267	671.875
-0.915	0.943	-2.562	3.620	4.623	1.776	0.849	-2.676	-4.476	-1.222	-4.121	-3.137	3.356	4.052	0.269	1.898	2.301	0.016	4.523	3.350	6.895	6.344	3.663	1.733	-2.231	-4.975	-0.889	-3.998	675.781
-0.981	0.909	-2.799	3.599	4.607	1.729	0.994	-2.623	-4.257	-0.977	-3.828	-2.905	3.503	4.058	0.223	1.927	2.326	-0.171	4.575	3.289	6.869	6.315	3.667	1.884	-2.281	-4.857	-0.617	-3.772	679.688
-1.005	0.832	-3.015	3.524	4.521	1.644	1.078	-2.576	-4.071	-0.810	-3.603	-2.723	3.583	4.024	0.235	1.970	2.391	-0.267	4.652	3.233	6.821	6.303	3.694	2.006	-2.303	-4.748	-0.400	-3.604	683.594
-0.988	0.712	-3.190	3.396	4.368	1.533	1.103	-2.530	-3.925	-0.721	-3.443	-2.592	3.592	3.955	0.303	2.020	2.486	-0.261	4.737	3.182	6.747	6.291	3.726	2.080	-2.313	-4.665	-0.253	-3.498	687.500
-0.939	0.554	-3.312	3.223	4.164	1.409	1.076	-2.478	-3.819	-0.701	-3.336	-2.507	3.534	3.860	0.418	2.066	2.593	-0.159	4.814	3.129	6.642	6.265	3.747	2.096	-2.323	-4.615	-0.177	-3.447	691.406
-0.867	0.369	-3.373	3.021	3.928	1.288	1.010	-2.415	-3.749	-0.736	-3.266	-2.457	3.423	3.746	0.565	2.095	2.694	0.023	4.864	3.067	6.506	6.208	3.746	2.053	-2.341	-4.597	-0.169	-3.437	695.312
-0.783	0.175	-3.374	2.808	3.680	1.181	0.918	-2.340	-3.710	-0.812	-3.216	-2.433	3.275	3.626	0.731	2.099	2.775	0.258	4.878	2.989	6.339	6.114	3.714	1.958	-2.372	-4.604	-0.214	-3.453	699.219
-0.692	-0.004	-3.317	2.607	3.444	1.100	0.811	-2.260	-3.696	-0.917	-3.177	-2.429	3.107	3.505	0.904	2.075	2.827	0.518	4.851	2.890	6.149	5.980	3.652	1.826	-2.412	-4.623	-0.296	-3.481	703.125
-0.599	-0.149	-3.210	2.437	3.237	1.049	0.699	-2.187	-3.704	-1.040	-3.144	-2.444	2.935	3.389	1.073	2.024	2.848	0.773	4.786	2.769	5.946	5.813	3.564	1.674	-2.453	-4.640	-0.398	-3.509	707.031
-0.503	-0.241	-3.068	2.313	3.072	1.030	0.590	-2.134	-3.728	-1.174	-3.119	-2.477	2.771	3.282	1.230	1.953	2.840	0.998	4.692	2.632	5.740	5.624	3.457	1.523	-2.486	-4.637	-0.504	-3.528	710.938
-0.406	-0.274	-2.906	2.242	2.955	1.041	0.489	-2.108	-3.760	-1.309	-3.103	-2.528	2.628	3.186	1.364	1.869	2.809	1.171	4.578	2.484	5.546	5.426	3.340	1.391	-2.500	-4.602	-0.600	-3.532	714.844
-0.312	-0.250	-2.744	2.223	2.886	1.081	0.407	-2.111	-3.787	-1.430	-3.095	-2.594	2.516	3.102	1.465	1.780	2.759	1.278	4.456	2.334	5.375	5.233	3.219	1.294	-2.489	-4.532	-0.677	-3.520	718.750
-0.228	-0.180	-2.603	2.248	2.865	1.146	0.352	-2.135	-3.795	-1.523	-3.090	-2.670	2.443	3.036	1.524	1.692	2.695	1.312	4.335	2.193	5.238	5.057	3.101	1.241	-2.455	-4.428	-0.729	-3.497	722.656
-0.161	-0.082	-2.502	2.303	2.886	1.229	0.337	-2.167	-3.772	-1.571	-3.080	-2.749	2.420	2.993	1.533	1.608	2.621	1.275	4.222	2.070	5.144	4.908	2.987	1.236	-2.404	-4.306	-0.755	-3.469	726.562
-0.121	0.027	-2.457	2.374	2.942	1.323	0.369	-2.195	-3.708	-1.564	-3.056	-2.820	2.454	2.983	1.490	1.531	2.544	1.178	4.124	1.974	5.098	4.794	2.881	1.277	-2.349	-4.186	-0.754	-3.447	730.469
-0.113	0.127	-2.473	2.447	3.025	1.419	0.451	-2.211	-3.605	-1.494	-3.009	-2.875	2.546	3.011	1.397	1.465	2.470	1.038	4.050	1.913	5.100	4.717	2.784	1.354	-2.302	-4.088	-0.729	-3.439	734.375
-0.137	0.206	-2.551	2.509	3.126	1.504	0.579	-2.214	-3.472	-1.366	-2.938	-2.907	2.696	3.082	1.267	1.414	2.409	0.879	4.006	1.895	5.148	4.678	2.701	1.456	-2.279	-4.034	-0.684	-3.448	738.281
-0.186	0.259	-2.679	2.554	3.232	1.566	0.738	-2.213	-3.332	-1.192	-2.847	-2.913	2.891	3.193	1.120	1.388	2.374	0.724	3.999	1.925	5.233	4.675	2.636	1.567	-2.287	-4.036	-0.624	-3.478	742.188
-0.246	0.286	-2.837	2.579	3.329	1.596	0.906	-2.225	-3.214	-0.993	-2.749	-2.895	3.114	3.335	0.986	1.393	2.376	0.599	4.033	2.002	5.344	4.703	2.594	1.671	-2.329	-4.096	-0.557	-3.525	746.094
-0.301	0.295	-2.998	2.585	3.405	1.586	1.057	-2.267	-3.146	-0.796	-2.665	-2.863	3.339	3.491	0.895	1.438	2.423	0.523	4.111	2.124	5.467	4.755	2.580	1.752	-2.404	-4.208	-0.493	-3.586	750.000
-0.333	0.294	-3.133	2.579	3.448	1.538	1.164	-2.353	-3.155	-0.627	-2.617	-2.830	3.542	3.641	0.873	1.526	2.518	0.509	4.228	2.283	5.586	4.825	2.596	1.799	-2.504	-4.360	-0.444	-3.656	753.906
-0.326	0.297	-3.219	2.569	3.454	1.462	1.207	-2.487	-3.252	-0.508	-2.622	-2.811	3.694	3.764	0.937	1.657	2.658	0.563	4.379	2.465	5.690	4.904	2.645	1.803	-2.619	-4.537	-0.422	-3.733	757.812
-0.274	0.314	-3.236	2.565	3.425	1.371	1.178	-2.660	-3.432	-0.453	-2.692	-2.816	3.779	3.838	1.090	1.824	2.832	0.680	4.550	2.655	5.768	4.983	2.720	1.761	-2.740	-4.724	-0.438	-3.817	761.719
-0.180	0.354	-3.176	2.575	3.367	1.288	1.081	-2.851	-3.670	-0.464	-2.822	-2.850	3.786	3.850	1.317	2.014	3.021	0.847	4.724	2.835	5.812	5.052	2.813	1.675	-2.861	-4.912	-0.497	-3.906	765.625
-0.053	0.423	-3.044	2.605	3.291	1.231	0.931	-3.029	-3.924	-0.533	-2.993	-2.909	3.716	3.793	1.586	2.210	3.205	1.044	4.884	2.986	5.819	5.097	2.909	1.550	-2.976	-5.093	-0.601	-4.002	769.531
0.089	0.520	-2.851	2.658	3.209	1.219	0.754	-3.156	-4.145	-0.639	-3.174	-2.981	3.580	3.667	1.861	2.394	3.360	1.247	5.011	3.095	5.789	5.108	2.990	1.394	-3.087	-5.266	-0.742	-4.103	773.438
0.227	0.644	-2.616	2.733	3.134	1.264	0.580	-3.198	-4.284	-0.759	-3.333	-3.047	3.395	3.479	2.101	2.550	3.467	1.431	5.090	3.153	5.728	5.073	3.039	1.216	-3.200	-5.433	-0.913	-4.209	777.344
0.344	0.789	-2.358	2.826	3.072	1.370	0.436	-3.131	-4.303	-0.869	-3.436	-3.090	3.182	3.242	2.274	2.671	3.513	1.575	5.113	3.159	5.642	4.985	3.041	1.025	-3.323	-5.598	-1.101	-4.318	781.250
0.429	0.949	-2.095	2.932	3.030	1.535	0.340	-2.943	-4.184	-0.949	-3.464	-3.098	2.959	2.970	2.364	2.753	3.495	1.667	5.078	3.117	5.539	4.844	2.988	0.826	-3.465	-5.767	-1.297	-4.432	785.156
0.480	1.120	-1.838	3.046	3.007	1.748	0.298	-2.642	-3.933	-0.991	-3.413	-3.066	2.739	2.677	2.370	2.801	3.420	1.707	4.993	3.040	5.427	4.653	2.881	0.624	-3.631	-5.945	-1.492	-4.548	789.062
0.501	1.295	-1.593	3.165	3.000	1.994	0.304	-2.255	-3.578	-0.997	-3.296	-3.000	2.529	2.374	2.310	2.825	3.304	1.705	4.871	2.940	5.313	4.426	2.732	0.422	-3.821	-6.133	-1.683	-4.668	792.969
0.505	1.471	-1.359	3.283	3.001	2.254	0.340	-1.823	-3.167	-0.978	-3.138	-2.912	2.330	2.072	2.212	2.838	3.168	1.680	4.734	2.833	5.201	4.181	2.560	0.220	-4.027	-6.332	-1.868	-4.790	796.875
