FP1	F3	F7	FC3	C3	C5	P3	P7	PO7	PO3	O1	Oz	Pz	CPz	FP2	Fz	F4	F8	FC4	FCz	Cz	C4	C6	P4	P8	PO8	PO4	O2	time
-1.598	-1.967	-1.661	-1.398	0.486	-0.230	1.946	1.152	1.750	2.249	2.463	2.161	2.025	1.347	-2.042	-0.751	-1.232	-2.341	-0.590	0.115	1.199	-0.037	-0.721	1.237	0.223	1.321	1.788	1.818	-199.219
-1.682	-1.771	-1.556	-1.253	0.510	-0.107	1.980	1.238	1.807	2.216	2.386	2.003	1.928	1.342	-1.886	-0.740	-1.199	-2.011	-0.601	0.069	1.118	-0.061	-0.660	1.153	0.051	1.112	1.611	1.672	-195.312
-1.745	-1.569	-1.452	-1.101	0.531	0.007	1.982	1.293	1.835	2.153	2.287	1.842	1.824	1.326	-1.721	-0.717	-1.145	-1.689	-0.596	0.039	1.045	-0.084	-0.593	1.071	-0.105	0.915	1.437	1.529	-191.406
-1.767	-1.359	-1.345	-0.940	0.543	0.102	1.923	1.291	1.803	2.032	2.141	1.669	1.702	1.285	-1.534	-0.672	-1.051	-1.380	-0.562	0.034	0.982	-0.105	-0.512	0.986	-0.228	0.741	1.264	1.388	-187.500
-1.732	-1.139	-1.232	-0.768	0.541	0.173	1.783	1.216	1.693	1.831	1.933	1.478	1.551	1.208	-1.320	-0.598	-0.909	-1.089	-0.494	0.061	0.928	-0.122	-0.412	0.897	-0.304	0.599	1.092	1.245	-183.594
-1.636	-0.911	-1.109	-0.588	0.523	0.218	1.552	1.066	1.494	1.543	1.654	1.262	1.359	1.089	-1.080	-0.494	-0.719	-0.816	-0.394	0.118	0.878	-0.133	-0.292	0.801	-0.322	0.498	0.919	1.097	-179.688
-1.480	-0.680	-0.974	-0.406	0.488	0.235	1.236	0.850	1.208	1.169	1.305	1.019	1.122	0.927	-0.821	-0.365	-0.492	-0.561	-0.268	0.197	0.825	-0.138	-0.154	0.697	-0.273	0.444	0.745	0.940	-175.781
-1.273	-0.453	-0.824	-0.231	0.436	0.230	0.851	0.585	0.847	0.724	0.892	0.746	0.838	0.724	-0.552	-0.217	-0.242	-0.323	-0.126	0.289	0.763	-0.131	-0.001	0.582	-0.159	0.437	0.567	0.768	-171.875
-1.026	-0.239	-0.658	-0.071	0.372	0.207	0.421	0.297	0.426	0.231	0.431	0.443	0.514	0.489	-0.280	-0.062	0.013	-0.098	0.022	0.382	0.686	-0.111	0.162	0.455	0.008	0.467	0.385	0.577	-167.969
-0.751	-0.046	-0.475	0.066	0.299	0.174	-0.020	0.007	-0.032	-0.277	-0.059	0.114	0.164	0.234	-0.014	0.093	0.255	0.120	0.169	0.463	0.591	-0.076	0.327	0.317	0.207	0.514	0.198	0.366	-164.062
-0.463	0.118	-0.277	0.177	0.226	0.136	-0.439	-0.263	-0.498	-0.765	-0.550	-0.229	-0.190	-0.024	0.242	0.238	0.473	0.331	0.309	0.527	0.482	-0.027	0.486	0.170	0.408	0.555	0.008	0.137	-160.156
-0.176	0.250	-0.074	0.260	0.160	0.099	-0.802	-0.498	-0.943	-1.194	-1.010	-0.567	-0.520	-0.263	0.481	0.367	0.658	0.536	0.440	0.567	0.367	0.031	0.627	0.020	0.577	0.563	-0.179	-0.099	-156.250
0.092	0.349	0.118	0.319	0.109	0.067	-1.078	-0.688	-1.333	-1.529	-1.403	-0.876	-0.796	-0.462	0.696	0.476	0.805	0.727	0.558	0.582	0.257	0.092	0.738	-0.125	0.683	0.519	-0.351	-0.326	-152.344
0.327	0.416	0.281	0.357	0.079	0.039	-1.248	-0.829	-1.636	-1.740	-1.697	-1.127	-0.991	-0.604	0.875	0.562	0.911	0.894	0.659	0.574	0.163	0.146	0.807	-0.253	0.705	0.416	-0.493	-0.523	-148.438
0.511	0.456	0.393	0.378	0.072	0.015	-1.300	-0.922	-1.826	-1.810	-1.866	-1.294	-1.086	-0.674	1.006	0.622	0.977	1.025	0.737	0.546	0.094	0.187	0.826	-0.351	0.638	0.261	-0.590	-0.670	-144.531
0.633	0.474	0.439	0.386	0.087	-0.007	-1.236	-0.969	-1.888	-1.736	-1.897	-1.359	-1.074	-0.669	1.078	0.656	1.001	1.104	0.785	0.501	0.052	0.208	0.791	-0.408	0.491	0.070	-0.629	-0.748	-140.625
0.687	0.475	0.411	0.381	0.118	-0.029	-1.072	-0.971	-1.817	-1.531	-1.793	-1.313	-0.961	-0.595	1.085	0.659	0.982	1.120	0.795	0.441	0.032	0.208	0.709	-0.415	0.289	-0.127	-0.602	-0.749	-136.719
0.673	0.464	0.313	0.362	0.152	-0.054	-0.831	-0.933	-1.625	-1.222	-1.570	-1.165	-0.769	-0.469	1.026	0.632	0.922	1.066	0.763	0.366	0.026	0.188	0.590	-0.368	0.065	-0.302	-0.508	-0.676	-132.812
0.599	0.442	0.158	0.326	0.178	-0.081	-0.545	-0.858	-1.335	-0.845	-1.259	-0.933	-0.526	-0.313	0.909	0.573	0.819	0.943	0.686	0.279	0.018	0.156	0.452	-0.271	-0.142	-0.430	-0.353	-0.540	-128.906
0.479	0.410	-0.033	0.268	0.179	-0.115	-0.247	-0.750	-0.979	-0.439	-0.895	-0.645	-0.269	-0.155	0.745	0.482	0.681	0.763	0.567	0.178	-0.005	0.118	0.314	-0.134	-0.299	-0.491	-0.152	-0.359	-125.000
0.330	0.364	-0.232	0.186	0.145	-0.157	0.030	-0.615	-0.592	-0.044	-0.516	-0.331	-0.031	-0.021	0.552	0.361	0.514	0.545	0.419	0.063	-0.057	0.084	0.193	0.029	-0.382	-0.475	0.078	-0.154	-121.094
0.172	0.300	-0.416	0.078	0.068	-0.211	0.260	-0.464	-0.208	0.307	-0.158	-0.023	0.161	0.067	0.347	0.216	0.332	0.314	0.255	-0.063	-0.143	0.062	0.102	0.201	-0.383	-0.382	0.315	0.056	-117.188
0.022	0.215	-0.560	-0.052	-0.056	-0.281	0.423	-0.309	0.139	0.588	0.153	0.252	0.288	0.097	0.148	0.053	0.153	0.098	0.097	-0.198	-0.262	0.059	0.050	0.365	-0.304	-0.222	0.539	0.252	-113.281
-0.103	0.110	-0.649	-0.198	-0.220	-0.365	0.507	-0.163	0.426	0.784	0.396	0.471	0.343	0.067	-0.029	-0.117	-0.007	-0.078	-0.036	-0.335	-0.404	0.075	0.037	0.504	-0.163	-0.010	0.731	0.422	-109.375
-0.191	-0.012	-0.674	-0.348	-0.411	-0.459	0.509	-0.042	0.633	0.887	0.559	0.619	0.328	-0.017	-0.172	-0.280	-0.130	-0.197	-0.126	-0.466	-0.557	0.111	0.059	0.606	0.017	0.230	0.872	0.554	-105.469
-0.234	-0.141	-0.632	-0.487	-0.609	-0.553	0.436	0.046	0.749	0.899	0.638	0.688	0.254	-0.138	-0.271	-0.420	-0.206	-0.253	-0.163	-0.581	-0.703	0.161	0.105	0.665	0.206	0.471	0.951	0.641	-101.562
-0.230	-0.265	-0.531	-0.598	-0.791	-0.632	0.302	0.095	0.773	0.830	0.636	0.676	0.137	-0.274	-0.320	-0.522	-0.232	-0.250	-0.147	-0.670	-0.824	0.217	0.163	0.678	0.380	0.685	0.960	0.674	-97.656
-0.180	-0.368	-0.382	-0.664	-0.930	-0.679	0.127	0.108	0.711	0.693	0.564	0.589	-0.004	-0.399	-0.320	-0.575	-0.213	-0.203	-0.089	-0.723	-0.906	0.270	0.220	0.646	0.516	0.844	0.898	0.650	-93.750
-0.092	-0.435	-0.203	-0.673	-1.006	-0.681	-0.065	0.091	0.579	0.505	0.434	0.438	-0.150	-0.491	-0.277	-0.571	-0.162	-0.132	-0.006	-0.732	-0.935	0.311	0.265	0.576	0.601	0.928	0.767	0.568	-89.844
0.022	-0.451	-0.011	-0.616	-1.003	-0.627	-0.251	0.057	0.398	0.283	0.263	0.237	-0.284	-0.532	-0.201	-0.509	-0.097	-0.058	0.080	-0.693	-0.903	0.333	0.290	0.475	0.631	0.921	0.576	0.427	-85.938
0.146	-0.409	0.175	-0.495	-0.917	-0.517	-0.411	0.019	0.194	0.046	0.065	0.002	-0.394	-0.513	-0.106	-0.396	-0.034	0.003	0.149	-0.608	-0.810	0.335	0.296	0.351	0.606	0.819	0.336	0.235	-82.031
0.269	-0.308	0.343	-0.315	-0.754	-0.359	-0.533	-0.012	-0.007	-0.193	-0.144	-0.251	-0.474	-0.439	-0.004	-0.243	0.016	0.042	0.190	-0.482	-0.661	0.318	0.284	0.212	0.532	0.624	0.060	-0.002	-78.125
0.382	-0.154	0.485	-0.094	-0.534	-0.172	-0.609	-0.028	-0.185	-0.422	-0.354	-0.505	-0.522	-0.323	0.096	-0.065	0.049	0.061	0.197	-0.325	-0.469	0.287	0.264	0.063	0.420	0.349	-0.238	-0.272	-74.219
0.481	0.038	0.601	0.146	-0.284	0.020	-0.645	-0.029	-0.325	-0.630	-0.555	-0.744	-0.544	-0.186	0.186	0.123	0.068	0.066	0.177	-0.151	-0.254	0.251	0.241	-0.090	0.280	0.013	-0.541	-0.559	-70.312
0.570	0.250	0.694	0.382	-0.034	0.195	-0.649	-0.020	-0.424	-0.808	-0.735	-0.950	-0.545	-0.055	0.267	0.305	0.084	0.067	0.140	0.023	-0.041	0.216	0.222	-0.246	0.124	-0.355	-0.831	-0.843	-66.406
0.655	0.460	0.772	0.587	0.186	0.329	-0.633	-0.011	-0.486	-0.948	-0.887	-1.106	-0.536	0.048	0.341	0.469	0.104	0.074	0.099	0.181	0.146	0.186	0.207	-0.398	-0.037	-0.723	-1.089	-1.098	-62.500
0.744	0.645	0.838	0.743	0.350	0.410	-0.610	-0.014	-0.519	-1.042	-1.001	-1.198	-0.521	0.106	0.409	0.601	0.133	0.090	0.063	0.308	0.287	0.163	0.190	-0.540	-0.190	-1.055	-1.295	-1.300	-58.594
0.840	0.786	0.897	0.836	0.444	0.433	-0.588	-0.037	-0.535	-1.084	-1.067	-1.216	-0.506	0.113	0.472	0.690	0.171	0.115	0.034	0.391	0.364	0.144	0.163	-0.665	-0.325	-1.315	-1.430	-1.425	-54.688
0.938	0.870	0.947	0.862	0.465	0.405	-0.570	-0.083	-0.539	-1.069	-1.078	-1.156	-0.491	0.073	0.526	0.726	0.208	0.144	0.011	0.420	0.372	0.123	0.116	-0.765	-0.430	-1.477	-1.481	-1.457	-50.781
1.025	0.890	0.980	0.824	0.420	0.340	-0.553	-0.146	-0.534	-0.996	-1.029	-1.022	-0.473	-0.002	0.563	0.701	0.231	0.170	-0.014	0.392	0.312	0.094	0.045	-0.832	-0.497	-1.526	-1.445	-1.390	-46.875
1.082	0.847	0.989	0.736	0.324	0.257	-0.532	-0.213	-0.516	-0.868	-0.919	-0.826	-0.448	-0.097	0.575	0.614	0.226	0.189	-0.049	0.311	0.193	0.050	-0.053	-0.863	-0.522	-1.462	-1.328	-1.234	-42.969
1.090	0.751	0.970	0.613	0.199	0.176	-0.498	-0.266	-0.476	-0.694	-0.752	-0.585	-0.413	-0.193	0.556	0.471	0.186	0.197	-0.101	0.188	0.033	-0.013	-0.171	-0.861	-0.510	-1.306	-1.148	-1.009	-39.062
1.038	0.617	0.921	0.479	0.069	0.116	-0.444	-0.287	-0.405	-0.487	-0.535	-0.325	-0.364	-0.276	0.502	0.284	0.108	0.194	-0.169	0.041	-0.148	-0.094	-0.303	-0.832	-0.472	-1.090	-0.931	-0.748	-35.156
0.926	0.468	0.850	0.352	-0.047	0.089	-0.364	-0.265	-0.296	-0.264	-0.283	-0.072	-0.303	-0.336	0.415	0.077	-0.001	0.181	-0.250	-0.107	-0.325	-0.191	-0.436	-0.789	-0.424	-0.858	-0.706	-0.488	-31.250
0.769	0.327	0.770	0.252	-0.133	0.102	-0.260	-0.194	-0.151	-0.043	-0.014	0.148	-0.232	-0.367	0.301	-0.124	-0.129	0.160	-0.334	-0.236	-0.475	-0.295	-0.564	-0.744	-0.384	-0.648	-0.499	-0.262	-27.344
0.592	0.215	0.698	0.187	-0.181	0.151	-0.137	-0.080	0.020	0.156	0.250	0.314	-0.158	-0.371	0.173	-0.295	-0.259	0.131	-0.411	-0.327	-0.578	-0.399	-0.678	-0.708	-0.365	-0.491	-0.331	-0.096	-23.438
0.427	0.147	0.650	0.163	-0.192	0.225	-0.006	0.062	0.197	0.319	0.487	0.415	-0.088	-0.352	0.043	-0.417	-0.377	0.095	-0.472	-0.371	-0.626	-0.490	-0.773	-0.688	-0.374	-0.397	-0.210	0.003	-19.531
0.303	0.129	0.637	0.172	-0.175	0.306	0.116	0.210	0.358	0.434	0.680	0.450	-0.031	-0.320	-0.077	-0.478	-0.471	0.050	-0.509	-0.370	-0.618	-0.558	-0.846	-0.682	-0.405	-0.361	-0.130	0.040	-15.625
0.236	0.158	0.660	0.202	-0.144	0.374	0.211	0.340	0.482	0.493	0.816	0.428	0.006	-0.285	-0.177	-0.480	-0.534	-0.002	-0.519	-0.332	-0.562	-0.593	-0.894	-0.683	-0.445	-0.360	-0.081	0.035	-11.719
0.229	0.221	0.713	0.239	-0.115	0.407	0.260	0.429	0.551	0.495	0.890	0.364	0.018	-0.255	-0.247	-0.432	-0.563	-0.056	-0.500	-0.274	-0.474	-0.590	-0.914	-0.680	-0.475	-0.365	-0.046	0.017	-7.812
0.273	0.301	0.782	0.267	-0.098	0.392	0.249	0.459	0.556	0.442	0.901	0.275	0.003	-0.239	-0.284	-0.349	-0.553	-0.105	-0.452	-0.211	-0.372	-0.547	-0.903	-0.663	-0.478	-0.345	-0.008	0.010	-3.906
0.349	0.384	0.848	0.279	-0.101	0.325	0.168	0.424	0.497	0.337	0.855	0.175	-0.041	-0.243	-0.286	-0.248	-0.505	-0.141	-0.376	-0.157	-0.275	-0.472	-0.861	-0.627	-0.441	-0.285	0.041	0.029	0.000
0.440	0.460	0.895	0.277	-0.121	0.217	0.021	0.326	0.387	0.187	0.759	0.072	-0.112	-0.269	-0.252	-0.143	-0.418	-0.154	-0.276	-0.121	-0.196	-0.373	-0.792	-0.575	-0.362	-0.182	0.098	0.078	3.906
0.533	0.526	0.919	0.271	-0.149	0.089	-0.181	0.183	0.240	0.002	0.618	-0.033	-0.209	-0.318	-0.184	-0.046	-0.297	-0.137	-0.156	-0.102	-0.145	-0.266	-0.704	-0.519	-0.252	-0.054	0.154	0.142	7.812
0.626	0.591	0.926	0.276	-0.169	-0.031	-0.421	0.016	0.079	-0.211	0.438	-0.149	-0.330	-0.386	-0.089	0.038	-0.150	-0.088	-0.024	-0.097	-0.124	-0.165	-0.608	-0.478	-0.131	0.073	0.188	0.196	11.719
0.726	0.665	0.931	0.311	-0.170	-0.114	-0.676	-0.148	-0.083	-0.442	0.219	-0.284	-0.472	-0.468	0.027	0.107	0.011	-0.008	0.110	-0.096	-0.127	-0.085	-0.519	-0.470	-0.023	0.164	0.182	0.210	15.625
0.845	0.761	0.958	0.387	-0.140	-0.142	-0.924	-0.288	-0.236	-0.682	-0.037	-0.448	-0.631	-0.557	0.151	0.162	0.168	0.096	0.235	-0.088	-0.147	-0.033	-0.449	-0.510	0.051	0.193	0.119	0.160	19.531
0.993	0.885	1.025	0.507	-0.080	-0.109	-1.147	-0.392	-0.377	-0.922	-0.328	-0.642	-0.800	-0.643	0.275	0.206	0.306	0.212	0.341	-0.065	-0.171	-0.009	-0.405	-0.604	0.075	0.146	-0.004	0.037	23.438
1.171	1.034	1.140	0.663	0.000	-0.029	-1.333	-0.456	-0.509	-1.151	-0.644	-0.859	-0.966	-0.717	0.386	0.240	0.410	0.329	0.420	-0.023	-0.189	-0.008	-0.392	-0.746	0.049	0.026	-0.178	-0.154	27.344
1.367	1.194	1.295	0.833	0.085	0.074	-1.478	-0.487	-0.634	-1.356	-0.967	-1.078	-1.116	-0.772	0.479	0.266	0.471	0.433	0.470	0.037	-0.190	-0.019	-0.406	-0.918	-0.019	-0.144	-0.381	-0.387	31.250
1.560	1.341	1.468	0.990	0.152	0.164	-1.580	-0.497	-0.752	-1.523	-1.272	-1.274	-1.233	-0.805	0.550	0.286	0.490	0.513	0.491	0.110	-0.173	-0.031	-0.441	-1.097	-0.110	-0.329	-0.580	-0.623	35.156
1.721	1.453	1.626	1.109	0.183	0.209	-1.642	-0.499	-0.854	-1.636	-1.527	-1.416	-1.306	-0.818	0.601	0.298	0.473	0.560	0.491	0.186	-0.143	-0.035	-0.487	-1.258	-0.202	-0.487	-0.742	-0.820	39.062
1.822	1.508	1.733	1.168	0.163	0.186	-1.666	-0.500	-0.926	-1.683	-1.700	-1.482	-1.326	-0.816	0.632	0.303	0.430	0.569	0.475	0.252	-0.111	-0.028	-0.538	-1.378	-0.271	-0.576	-0.838	-0.940	42.969
1.846	1.496	1.762	1.158	0.088	0.087	-1.653	-0.506	-0.952	-1.655	-1.765	-1.458	-1.295	-0.812	0.649	0.300	0.374	0.538	0.450	0.298	-0.093	-0.014	-0.588	-1.446	-0.302	-0.565	-0.851	-0.956	46.875
1.790	1.418	1.700	1.081	-0.035	-0.077	-1.606	-0.515	-0.914	-1.550	-1.710	-1.345	-1.222	-0.815	0.650	0.290	0.317	0.470	0.422	0.316	-0.105	-0.004	-0.637	-1.460	-0.283	-0.438	-0.779	-0.863	50.781
1.662	1.285	1.553	0.952	-0.192	-0.287	-1.524	-0.521	-0.801	-1.373	-1.534	-1.162	-1.122	-0.833	0.634	0.273	0.264	0.370	0.392	0.302	-0.158	-0.009	-0.686	-1.427	-0.215	-0.195	-0.635	-0.671	54.688
1.483	1.116	1.342	0.792	-0.361	-0.511	-1.411	-0.518	-0.612	-1.137	-1.256	-0.936	-1.010	-0.869	0.596	0.250	0.219	0.247	0.361	0.257	-0.255	-0.042	-0.737	-1.360	-0.107	0.144	-0.441	-0.403	58.594
1.279	0.936	1.098	0.624	-0.520	-0.724	-1.269	-0.500	-0.356	-0.862	-0.904	-0.701	-0.904	-0.921	0.532	0.223	0.181	0.111	0.327	0.185	-0.391	-0.107	-0.792	-1.276	0.028	0.545	-0.224	-0.094	62.500
1.076	0.764	0.851	0.469	-0.652	-0.905	-1.107	-0.469	-0.056	-0.569	-0.521	-0.488	-0.816	-0.979	0.440	0.191	0.146	-0.027	0.289	0.096	-0.552	-0.202	-0.849	-1.189	0.171	0.967	-0.012	0.225	66.406
0.896	0.619	0.628	0.339	-0.748	-1.047	-0.935	-0.431	0.253	-0.284	-0.150	-0.318	-0.752	-1.036	0.325	0.154	0.111	-0.156	0.244	-0.003	-0.721	-0.315	-0.903	-1.105	0.309	1.370	0.175	0.528	70.312
0.754	0.507	0.444	0.240	-0.808	-1.153	-0.770	-0.398	0.531	-0.030	0.172	-0.198	-0.715	-1.084	0.196	0.112	0.072	-0.268	0.193	-0.105	-0.882	-0.432	-0.948	-1.029	0.431	1.727	0.330	0.804	74.219
0.658	0.429	0.303	0.164	-0.844	-1.241	-0.627	-0.384	0.743	0.176	0.416	-0.118	-0.701	-1.119	0.067	0.060	0.027	-0.358	0.140	-0.205	-1.025	-0.534	-0.976	-0.954	0.539	2.024	0.452	1.054	78.125
0.600	0.375	0.197	0.098	-0.874	-1.329	-0.521	-0.401	0.868	0.326	0.577	-0.054	-0.701	-1.144	-0.050	-0.008	-0.027	-0.425	0.085	-0.307	-1.148	-0.608	-0.981	-0.872	0.642	2.272	0.558	1.297	82.031
0.566	0.324	0.105	0.023	-0.918	-1.440	-0.456	-0.449	0.908	0.425	0.670	0.033	-0.705	-1.162	-0.150	-0.100	-0.098	-0.479	0.028	-0.418	-1.255	-0.649	-0.965	-0.770	0.758	2.502	0.671	1.562	85.938
0.529	0.252	0.000	-0.081	-0.992	-1.588	-0.425	-0.515	0.897	0.495	0.736	0.181	-0.697	-1.176	-0.239	-0.229	-0.195	-0.535	-0.037	-0.546	-1.355	-0.661	-0.937	-0.634	0.908	2.759	0.823	1.883	89.844
0.459	0.132	-0.147	-0.230	-1.103	-1.777	-0.410	-0.580	0.887	0.573	0.829	0.429	-0.656	-1.185	-0.336	-0.405	-0.330	-0.619	-0.117	-0.702	-1.455	-0.657	-0.911	-0.451	1.107	3.090	1.046	2.290	93.750
0.327	-0.059	-0.364	-0.430	-1.247	-2.003	-0.379	-0.615	0.948	0.701	1.005	0.800	-0.561	-1.180	-0.469	-0.636	-0.516	-0.753	-0.223	-0.890	-1.556	-0.650	-0.905	-0.213	1.363	3.532	1.369	2.804	97.656
0.108	-0.330	-0.668	-0.677	-1.408	-2.252	-0.298	-0.597	1.138	0.925	1.312	1.300	-0.390	-1.144	-0.665	-0.920	-0.761	-0.958	-0.363	-1.106	-1.650	-0.653	-0.938	0.087	1.663	4.101	1.806	3.424	101.562
-0.205	-0.673	-1.061	-0.952	-1.561	-2.500	-0.133	-0.514	1.499	1.277	1.776	1.914	-0.124	-1.056	-0.943	-1.242	-1.062	-1.244	-0.535	-1.335	-1.721	-0.670	-1.020	0.445	1.976	4.775	2.357	4.126	105.469
-0.603	-1.057	-1.531	-1.221	-1.672	-2.722	0.136	-0.371	2.035	1.774	2.392	2.606	0.246	-0.892	-1.305	-1.574	-1.402	-1.605	-0.729	-1.548	-1.741	-0.694	-1.152	0.852	2.251	5.500	3.001	4.865	109.375
-1.059	-1.437	-2.045	-1.443	-1.711	-2.894	0.515	-0.191	2.709	2.403	3.121	3.324	0.717	-0.631	-1.731	-1.877	-1.750	-2.021	-0.918	-1.706	-1.681	-0.707	-1.321	1.287	2.420	6.187	3.695	5.574	113.281
-1.526	-1.753	-2.557	-1.575	-1.652	-2.996	0.987	-0.018	3.448	3.128	3.900	4.004	1.270	-0.264	-2.176	-2.102	-2.058	-2.454	-1.063	-1.769	-1.513	-0.685	-1.505	1.723	2.415	6.732	4.382	6.181	117.188
-1.947	-1.947	-3.014	-1.583	-1.485	-3.019	1.512	0.096	4.154	3.885	4.647	4.582	1.870	0.204	-2.583	-2.206	-2.277	-2.859	-1.121	-1.696	-1.220	-0.601	-1.677	2.126	2.177	7.031	4.996	6.616	121.094
-2.262	-1.974	-3.359	-1.446	-1.217	-2.966	2.031	0.097	4.718	4.596	5.278	5.002	2.468	0.749	-2.889	-2.155	-2.358	-3.182	-1.055	-1.463	-0.799	-0.437	-1.809	2.458	1.672	7.005	5.472	6.824	125.000
-2.421	-1.811	-3.545	-1.169	-0.874	-2.849	2.478	-0.056	5.046	5.177	5.719	5.224	3.007	1.330	-3.039	-1.935	-2.269	-3.376	-0.839	-1.068	-0.272	-0.184	-1.877	2.686	0.901	6.616	5.753	6.780	128.906
-2.392	-1.462	-3.538	-0.774	-0.499	-2.689	2.784	-0.383	5.069	5.551	5.920	5.229	3.425	1.890	-2.996	-1.557	-1.999	-3.402	-0.470	-0.532	0.322	0.148	-1.871	2.781	-0.093	5.881	5.805	6.491	132.812
-2.166	-0.962	-3.325	-0.305	-0.141	-2.513	2.893	-0.875	4.760	5.661	5.859	5.023	3.668	2.365	-2.752	-1.054	-1.565	-3.242	0.032	0.101	0.927	0.536	-1.792	2.726	-1.232	4.868	5.616	5.993	136.719
-1.759	-0.364	-2.917	0.184	0.151	-2.345	2.770	-1.497	4.135	5.476	5.546	4.634	3.698	2.697	-2.324	-0.481	-1.006	-2.895	0.624	0.769	1.480	0.943	-1.654	2.519	-2.410	3.685	5.202	5.352	140.625
-1.209	0.266	-2.346	0.644	0.337	-2.206	2.406	-2.194	3.249	4.996	5.016	4.105	3.495	2.841	-1.756	0.104	-0.378	-2.387	1.247	1.406	1.926	1.327	-1.482	2.173	-3.514	2.464	4.601	4.645	144.531
-0.569	0.864	-1.661	1.031	0.396	-2.108	1.820	-2.898	2.185	4.255	4.322	3.493	3.067	2.777	-1.109	0.638	0.252	-1.761	1.838	1.947	2.220	1.650	-1.304	1.713	-4.436	1.339	3.873	3.953	148.438
0.102	1.380	-0.920	1.320	0.326	-2.057	1.056	-3.544	1.039	3.308	3.528	2.856	2.443	2.512	-0.450	1.072	0.820	-1.076	2.339	2.346	2.341	1.880	-1.149	1.176	-5.096	0.420	3.082	3.347	152.344
0.749	1.785	-0.181	1.503	0.142	-2.051	0.178	-4.077	-0.092	2.229	2.696	2.245	1.675	2.078	0.157	1.372	1.274	-0.393	2.703	2.574	2.290	1.999	-1.038	0.606	-5.451	-0.215	2.294	2.881	156.250
1.328	2.068	0.504	1.588	-0.125	-2.084	-0.745	-4.460	-1.127	1.100	1.883	1.703	0.827	1.525	0.662	1.524	1.578	0.227	2.904	2.625	2.089	2.003	-0.983	0.045	-5.496	-0.533	1.567	2.583	160.156
1.810	2.239	1.095	1.591	-0.441	-2.149	-1.642	-4.678	-2.003	-0.001	1.132	1.255	-0.031	0.911	1.034	1.530	1.715	0.740	2.938	2.512	1.770	1.904	-0.985	-0.468	-5.266	-0.543	0.944	2.457	164.062
2.177	2.317	1.569	1.533	-0.770	-2.238	-2.454	-4.733	-2.686	-1.008	0.471	0.910	-0.838	0.293	1.269	1.408	1.693	1.117	2.821	2.264	1.373	1.720	-1.033	-0.904	-4.823	-0.290	0.448	2.485	167.969
2.426	2.326	1.914	1.431	-1.085	-2.342	-3.137	-4.646	-3.161	-1.871	-0.085	0.660	-1.544	-0.283	1.378	1.186	1.537	1.354	2.582	1.917	0.936	1.479	-1.108	-1.243	-4.240	0.163	0.089	2.630	171.875
2.562	2.283	2.133	1.297	-1.368	-2.459	-3.667	-4.444	-3.438	-2.563	-0.536	0.486	-2.115	-0.786	1.392	0.895	1.284	1.463	2.262	1.509	0.489	1.210	-1.184	-1.475	-3.588	0.742	-0.140	2.849	175.781
2.593	2.201	2.235	1.137	-1.612	-2.586	-4.037	-4.162	-3.535	-3.076	-0.887	0.362	-2.539	-1.200	1.345	0.569	0.976	1.472	1.902	1.074	0.052	0.940	-1.236	-1.598	-2.926	1.384	-0.251	3.097	179.688
2.532	2.080	2.233	0.949	-1.821	-2.723	-4.259	-3.834	-3.484	-3.420	-1.151	0.267	-2.816	-1.525	1.272	0.232	0.651	1.414	1.536	0.637	-0.363	0.690	-1.243	-1.616	-2.289	2.044	-0.261	3.340	183.594
2.392	1.916	2.141	0.725	-2.006	-2.870	-4.352	-3.488	-3.311	-3.611	-1.338	0.184	-2.961	-1.772	1.193	-0.096	0.339	1.320	1.190	0.215	-0.753	0.475	-1.190	-1.534	-1.687	2.698	-0.185	3.558	187.500
2.185	1.699	1.969	0.461	-2.181	-3.027	-4.344	-3.146	-3.043	-3.671	-1.453	0.112	-2.994	-1.954	1.119	-0.409	0.054	1.210	0.874	-0.183	-1.118	0.303	-1.071	-1.361	-1.112	3.344	-0.033	3.748	191.406
1.925	1.423	1.724	0.153	-2.361	-3.195	-4.257	-2.823	-2.695	-3.616	-1.493	0.061	-2.936	-2.086	1.040	-0.709	-0.202	1.090	0.586	-0.560	-1.459	0.173	-0.892	-1.106	-0.545	3.995	0.193	3.920	195.312
1.625	1.085	1.407	-0.196	-2.554	-3.371	-4.112	-2.522	-2.275	-3.456	-1.451	0.050	-2.805	-2.178	0.938	-1.004	-0.442	0.955	0.317	-0.919	-1.774	0.083	-0.666	-0.779	0.035	4.668	0.493	4.097	199.219
1.294	0.687	1.019	-0.579	-2.762	-3.549	-3.919	-2.242	-1.783	-3.194	-1.312	0.103	-2.612	-2.230	0.789	-1.307	-0.683	0.784	0.053	-1.270	-2.060	0.026	-0.413	-0.392	0.643	5.377	0.871	4.304	203.125
0.939	0.242	0.562	-0.981	-2.980	-3.723	-3.681	-1.976	-1.214	-2.828	-1.062	0.245	-2.362	-2.242	0.570	-1.632	-0.944	0.558	-0.219	-1.618	-2.308	-0.004	-0.159	0.043	1.279	6.123	1.327	4.561	207.031
0.566	-0.235	0.042	-1.384	-3.193	-3.881	-3.395	-1.716	-0.568	-2.357	-0.694	0.492	-2.057	-2.205	0.268	-1.983	-1.236	0.258	-0.502	-1.965	-2.510	-0.009	0.076	0.511	1.931	6.894	1.857	4.884	210.938
0.177	-0.724	-0.529	-1.768	-3.384	-4.014	-3.059	-1.458	0.146	-1.785	-0.207	0.850	-1.695	-2.110	-0.120	-2.360	-1.559	-0.126	-0.790	-2.309	-2.655	0.010	0.274	0.997	2.572	7.663	2.450	5.275	214.844
-0.231	-1.205	-1.133	-2.114	-3.534	-4.115	-2.671	-1.203	0.911	-1.125	0.385	1.312	-1.276	-1.949	-0.582	-2.754	-1.903	-0.589	-1.068	-2.636	-2.731	0.051	0.422	1.484	3.169	8.395	3.088	5.727	218.750
-0.659	-1.658	-1.745	-2.411	-3.628	-4.179	-2.238	-0.959	1.696	-0.400	1.056	1.857	-0.801	-1.714	-1.095	-3.146	-2.246	-1.113	-1.314	-2.927	-2.727	0.118	0.517	1.960	3.688	9.058	3.747	6.224	222.656
-1.111	-2.070	-2.340	-2.648	-3.656	-4.207	-1.771	-0.737	2.465	0.360	1.773	2.456	-0.278	-1.403	-1.632	-3.514	-2.565	-1.670	-1.506	-3.161	-2.634	0.211	0.557	2.413	4.102	9.624	4.405	6.746	226.562
-1.591	-2.432	-2.897	-2.826	-3.616	-4.204	-1.288	-0.552	3.178	1.119	2.498	3.075	0.285	-1.016	-2.167	-3.838	-2.837	-2.227	-1.629	-3.316	-2.447	0.326	0.547	2.837	4.394	10.083	5.041	7.268	230.469
-2.099	-2.742	-3.399	-2.950	-3.512	-4.177	-0.807	-0.416	3.802	1.843	3.192	3.678	0.874	-0.560	-2.678	-4.100	-3.048	-2.752	-1.678	-3.378	-2.167	0.460	0.496	3.230	4.565	10.438	5.637	7.772	234.375
-2.635	-3.006	-3.839	-3.031	-3.357	-4.138	-0.349	-0.338	4.309	2.500	3.821	4.233	1.475	-0.043	-3.152	-4.294	-3.195	-3.217	-1.658	-3.342	-1.801	0.608	0.414	3.597	4.631	10.710	6.186	8.242	238.281
-3.188	-3.234	-4.217	-3.085	-3.169	-4.098	0.072	-0.320	4.687	3.065	4.359	4.716	2.072	0.523	-3.585	-4.420	-3.280	-3.606	-1.581	-3.214	-1.365	0.766	0.316	3.946	4.620	10.927	6.682	8.667	242.188
-3.745	-3.436	-4.542	-3.127	-2.968	-4.071	0.440	-0.361	4.931	3.522	4.787	5.105	2.648	1.121	-3.978	-4.485	-3.315	-3.911	-1.462	-3.010	-0.875	0.936	0.218	4.286	4.567	11.119	7.127	9.036	246.094
-4.285	-3.624	-4.823	-3.169	-2.774	-4.066	0.746	-0.454	5.047	3.862	5.091	5.386	3.188	1.735	-4.335	-4.502	-3.310	-4.129	-1.315	-2.750	-0.352	1.121	0.139	4.624	4.508	11.313	7.519	9.338	250.000
-4.787	-3.804	-5.074	-3.221	-2.604	-4.094	0.987	-0.589	5.048	4.082	5.266	5.549	3.675	2.348	-4.658	-4.482	-3.273	-4.267	-1.147	-2.455	0.184	1.328	0.098	4.963	4.470	11.519	7.859	9.562	253.906
-5.228	-3.975	-5.304	-3.284	-2.467	-4.158	1.160	-0.758	4.954	4.187	5.313	5.591	4.097	2.945	-4.944	-4.433	-3.205	-4.331	-0.955	-2.143	0.721	1.565	0.108	5.298	4.468	11.738	8.143	9.695	257.812
-5.595	-4.136	-5.521	-3.355	-2.367	-4.261	1.270	-0.949	4.786	4.190	5.240	5.513	4.444	3.509	-5.188	-4.358	-3.101	-4.331	-0.732	-1.826	1.247	1.836	0.178	5.620	4.503	11.955	8.364	9.727	261.719
-5.882	-4.278	-5.728	-3.427	-2.302	-4.398	1.323	-1.153	4.570	4.107	5.061	5.321	4.713	4.030	-5.381	-4.258	-2.954	-4.275	-0.466	-1.505	1.759	2.140	0.306	5.917	4.567	12.148	8.516	9.652	265.625
-6.091	-4.391	-5.924	-3.485	-2.260	-4.563	1.332	-1.361	4.329	3.953	4.794	5.029	4.903	4.498	-5.516	-4.127	-2.753	-4.175	-0.148	-1.177	2.256	2.469	0.487	6.173	4.642	12.291	8.594	9.468	269.531
-6.234	-4.463	-6.107	-3.514	-2.227	-4.740	1.307	-1.565	4.082	3.749	4.458	4.650	5.020	4.909	-5.592	-3.959	-2.490	-4.039	0.229	-0.830	2.740	2.811	0.709	6.375	4.710	12.365	8.595	9.184	273.438
-6.329	-4.484	-6.270	-3.498	-2.187	-4.916	1.260	-1.759	3.842	3.511	4.073	4.205	5.073	5.260	-5.613	-3.748	-2.165	-3.880	0.664	-0.452	3.214	3.149	0.957	6.516	4.755	12.355	8.524	8.813	277.344
-6.396	-4.448	-6.408	-3.425	-2.124	-5.072	1.205	-1.936	3.618	3.254	3.658	3.717	5.075	5.553	-5.587	-3.492	-1.783	-3.708	1.148	-0.035	3.676	3.469	1.217	6.595	4.769	12.260	8.391	8.379	281.250
-6.457	-4.353	-6.520	-3.290	-2.027	-5.197	1.150	-2.088	3.411	2.994	3.235	3.212	5.040	5.790	-5.531	-3.192	-1.358	-3.537	1.663	0.421	4.123	3.756	1.474	6.620	4.753	12.087	8.211	7.909	285.156
-6.527	-4.208	-6.608	-3.096	-1.893	-5.279	1.105	-2.207	3.222	2.747	2.824	2.722	4.982	5.973	-5.461	-2.859	-0.915	-3.380	2.185	0.905	4.543	4.003	1.718	6.604	4.713	11.855	8.008	7.438	289.062
-6.618	-4.027	-6.683	-2.858	-1.725	-5.317	1.078	-2.287	3.053	2.532	2.451	2.281	4.917	6.108	-5.396	-2.509	-0.479	-3.249	2.689	1.395	4.921	4.209	1.941	6.566	4.663	11.585	7.808	7.003	292.969
-6.732	-3.834	-6.760	-2.599	-1.532	-5.316	1.074	-2.320	2.905	2.365	2.141	1.920	4.857	6.197	-5.351	-2.165	-0.081	-3.154	3.149	1.860	5.241	4.375	2.139	6.529	4.617	11.303	7.636	6.638	296.875
-6.870	-3.654	-6.854	-2.346	-1.331	-5.284	1.099	-2.304	2.785	2.263	1.915	1.666	4.816	6.247	-5.337	-1.854	0.254	-3.102	3.544	2.265	5.490	4.512	2.312	6.513	4.589	11.031	7.516	6.370	300.781
-7.027	-3.512	-6.982	-2.129	-1.138	-5.235	1.156	-2.241	2.696	2.236	1.790	1.536	4.803	6.264	-5.361	-1.601	0.509	-3.093	3.863	2.578	5.658	4.630	2.465	6.537	4.587	10.788	7.466	6.218	304.688
-7.197	-3.428	-7.151	-1.970	-0.969	-5.185	1.245	-2.140	2.647	2.292	1.773	1.535	4.824	6.256	-5.422	-1.430	0.676	-3.123	4.104	2.774	5.741	4.739	2.602	6.611	4.616	10.586	7.497	6.184	308.594
-7.377	-3.418	-7.366	-1.885	-0.839	-5.147	1.363	-2.011	2.644	2.429	1.863	1.659	4.882	6.229	-5.518	-1.358	0.756	-3.185	4.271	2.841	5.744	4.850	2.732	6.742	4.678	10.432	7.607	6.260	312.500
-7.563	-3.486	-7.617	-1.879	-0.756	-5.128	1.505	-1.870	2.691	2.644	2.051	1.889	4.977	6.191	-5.640	-1.392	0.759	-3.268	4.372	2.779	5.672	4.965	2.863	6.925	4.770	10.328	7.791	6.425	316.406
-7.755	-3.629	-7.893	-1.948	-0.727	-5.132	1.664	-1.730	2.792	2.924	2.320	2.204	5.104	6.149	-5.785	-1.533	0.693	-3.364	4.417	2.599	5.538	5.085	2.999	7.152	4.890	10.273	8.032	6.651	320.312
-7.950	-3.838	-8.175	-2.079	-0.749	-5.157	1.831	-1.603	2.947	3.257	2.652	2.577	5.260	6.109	-5.950	-1.774	0.566	-3.467	4.408	2.317	5.354	5.203	3.144	7.409	5.038	10.265	8.313	6.910	324.219
-8.145	-4.098	-8.444	-2.255	-0.815	-5.195	2.000	-1.496	3.153	3.627	3.029	2.983	5.435	6.075	-6.135	-2.103	0.382	-3.574	4.342	1.955	5.131	5.312	3.299	7.680	5.213	10.304	8.613	7.174	328.125
-8.335	-4.388	-8.683	-2.455	-0.915	-5.236	2.162	-1.411	3.401	4.018	3.432	3.396	5.623	6.052	-6.345	-2.501	0.138	-3.686	4.213	1.533	4.879	5.403	3.459	7.950	5.420	10.389	8.914	7.420	332.031
-8.512	-4.688	-8.876	-2.662	-1.031	-5.268	2.313	-1.347	3.679	4.409	3.842	3.793	5.813	6.041	-6.582	-2.947	-0.167	-3.803	4.013	1.071	4.610	5.469	3.621	8.206	5.661	10.520	9.199	7.632	335.938
-8.668	-4.976	-9.013	-2.859	-1.147	-5.282	2.446	-1.299	3.968	4.776	4.233	4.149	5.995	6.043	-6.844	-3.419	-0.529	-3.924	3.742	0.587	4.331	5.508	3.781	8.437	5.936	10.692	9.454	7.799	339.844
-8.796	-5.230	-9.083	-3.033	-1.248	-5.269	2.555	-1.264	4.241	5.092	4.576	4.440	6.155	6.052	-7.120	-3.891	-0.936	-4.041	3.408	0.098	4.050	5.521	3.940	8.635	6.244	10.896	9.666	7.912	343.750
-8.891	-5.436	-9.083	-3.178	-1.323	-5.226	2.633	-1.236	4.472	5.328	4.838	4.641	6.276	6.061	-7.390	-4.343	-1.365	-4.143	3.032	-0.381	3.774	5.514	4.096	8.795	6.577	11.120	9.824	7.966	347.656
-8.952	-5.585	-9.014	-3.291	-1.366	-5.151	2.674	-1.209	4.633	5.460	4.990	4.733	6.345	6.062	-7.632	-4.757	-1.787	-4.216	2.643	-0.835	3.507	5.495	4.253	8.914	6.925	11.352	9.922	7.960	351.562
-8.984	-5.676	-8.883	-3.374	-1.379	-5.050	2.674	-1.175	4.706	5.472	5.008	4.707	6.350	6.042	-7.822	-5.121	-2.171	-4.246	2.274	-1.255	3.252	5.472	4.411	8.993	7.277	11.579	9.959	7.897	355.469
-8.998	-5.721	-8.707	-3.433	-1.369	-4.926	2.634	-1.127	4.687	5.366	4.890	4.570	6.288	5.995	-7.944	-5.434	-2.493	-4.230	1.954	-1.632	3.010	5.450	4.568	9.035	7.619	11.795	9.937	7.791	359.375
-9.008	-5.736	-8.512	-3.480	-1.347	-4.789	2.562	-1.053	4.585	5.159	4.650	4.346	6.164	5.917	-7.995	-5.699	-2.739	-4.170	1.702	-1.965	2.783	5.436	4.716	9.048	7.943	11.999	9.871	7.661	363.281
-9.032	-5.742	-8.326	-3.526	-1.323	-4.645	2.470	-0.946	4.422	4.883	4.320	4.073	5.997	5.812	-7.984	-5.927	-2.912	-4.083	1.522	-2.255	2.573	5.429	4.847	9.041	8.240	12.197	9.779	7.536	367.188
-9.081	-5.760	-8.176	-3.580	-1.302	-4.501	2.375	-0.803	4.230	4.582	3.946	3.794	5.811	5.690	-7.931	-6.133	-3.026	-3.990	1.404	-2.509	2.383	5.427	4.951	9.026	8.503	12.396	9.684	7.445	371.094
-9.162	-5.804	-8.084	-3.651	-1.287	-4.360	2.298	-0.624	4.039	4.297	3.574	3.554	5.636	5.565	-7.866	-6.326	-3.107	-3.916	1.329	-2.734	2.214	5.427	5.018	9.013	8.727	12.600	9.605	7.411	375.000
-9.269	-5.882	-8.057	-3.739	-1.271	-4.220	2.257	-0.419	3.877	4.067	3.249	3.385	5.498	5.454	-7.814	-6.517	-3.184	-3.884	1.271	-2.936	2.070	5.421	5.043	9.010	8.906	12.808	9.557	7.446	378.906
-9.390	-5.993	-8.089	-3.839	-1.242	-4.078	2.264	-0.199	3.763	3.916	3.001	3.306	5.419	5.372	-7.797	-6.708	-3.282	-3.906	1.203	-3.122	1.952	5.403	5.022	9.017	9.030	13.008	9.544	7.547	382.812
-9.508	-6.125	-8.159	-3.940	-1.187	-3.928	2.328	0.023	3.706	3.859	2.850	3.320	5.412	5.330	-7.826	-6.896	-3.420	-3.988	1.103	-3.296	1.861	5.368	4.957	9.033	9.089	13.177	9.561	7.698	386.719
-9.605	-6.267	-8.241	-4.030	-1.091	-3.766	2.451	0.235	3.705	3.898	2.802	3.415	5.478	5.331	-7.900	-7.076	-3.605	-4.125	0.955	-3.458	1.795	5.312	4.847	9.047	9.070	13.289	9.591	7.871	390.625
-9.669	-6.402	-8.306	-4.095	-0.945	-3.588	2.628	0.432	3.758	4.026	2.856	3.571	5.612	5.377	-8.012	-7.241	-3.836	-4.305	0.754	-3.608	1.755	5.235	4.696	9.050	8.964	13.312	9.616	8.034	394.531
-9.694	-6.518	-8.333	-4.128	-0.747	-3.396	2.850	0.612	3.860	4.230	3.003	3.767	5.798	5.462	-8.146	-7.381	-4.104	-4.514	0.504	-3.740	1.741	5.140	4.506	9.034	8.763	13.224	9.617	8.158	398.438
-9.681	-6.608	-8.312	-4.123	-0.503	-3.196	3.105	0.777	4.010	4.497	3.230	3.980	6.019	5.580	-8.289	-7.491	-4.393	-4.738	0.216	-3.849	1.756	5.030	4.282	8.990	8.467	13.012	9.579	8.222	402.344
-9.640	-6.671	-8.251	-4.085	-0.227	-2.999	3.378	0.934	4.208	4.808	3.524	4.196	6.254	5.723	-8.429	-7.569	-4.686	-4.965	-0.089	-3.927	1.803	4.913	4.032	8.920	8.083	12.678	9.497	8.218	406.250
-9.582	-6.713	-8.165	-4.023	0.061	-2.813	3.654	1.090	4.455	5.143	3.868	4.402	6.484	5.882	-8.558	-7.613	-4.963	-5.184	-0.392	-3.970	1.884	4.794	3.765	8.825	7.629	12.240	9.374	8.148	410.156
-9.524	-6.740	-8.080	-3.951	0.338	-2.652	3.918	1.245	4.750	5.481	4.245	4.590	6.691	6.052	-8.672	-7.627	-5.209	-5.390	-0.672	-3.973	2.001	4.682	3.495	8.714	7.132	11.734	9.220	8.027	414.062
-9.477	-6.763	-8.020	-3.885	0.583	-2.524	4.152	1.396	5.082	5.798	4.631	4.756	6.863	6.226	-8.769	-7.614	-5.411	-5.579	-0.910	-3.935	2.154	4.584	3.238	8.596	6.627	11.199	9.049	7.873	417.969
-9.447	-6.787	-8.000	-3.835	0.779	-2.437	4.343	1.531	5.432	6.072	4.999	4.894	6.993	6.401	-8.843	-7.580	-5.562	-5.748	-1.095	-3.859	2.341	4.504	3.012	8.481	6.146	10.680	8.876	7.705	421.875
-9.432	-6.813	-8.025	-3.809	0.917	-2.393	4.476	1.633	5.770	6.283	5.322	4.999	7.078	6.573	-8.888	-7.530	-5.661	-5.896	-1.224	-3.751	2.557	4.449	2.831	8.376	5.719	10.209	8.714	7.538	425.781
-9.425	-6.835	-8.085	-3.803	0.998	-2.392	4.545	1.685	6.062	6.419	5.576	5.067	7.122	6.742	-8.899	-7.468	-5.712	-6.021	-1.298	-3.616	2.796	4.421	2.702	8.284	5.362	9.808	8.571	7.382	429.688
-9.411	-6.842	-8.163	-3.806	1.031	-2.427	4.549	1.673	6.275	6.476	5.744	5.095	7.136	6.907	-8.868	-7.392	-5.723	-6.124	-1.327	-3.461	3.049	4.421	2.625	8.202	5.080	9.476	8.447	7.237	433.594
-9.374	-6.818	-8.233	-3.800	1.036	-2.488	4.495	1.591	6.380	6.461	5.818	5.080	7.131	7.073	-8.793	-7.300	-5.702	-6.209	-1.318	-3.284	3.315	4.448	2.593	8.127	4.861	9.198	8.334	7.097	437.500
-9.298	-6.744	-8.271	-3.758	1.036	-2.560	4.397	1.444	6.361	6.383	5.794	5.016	7.119	7.243	-8.675	-7.179	-5.655	-6.275	-1.280	-3.080	3.594	4.500	2.590	8.046	4.683	8.939	8.219	6.945	441.406
-9.168	-6.603	-8.256	-3.655	1.060	-2.622	4.271	1.242	6.210	6.255	5.677	4.897	7.108	7.424	-8.518	-7.016	-5.586	-6.323	-1.216	-2.837	3.892	4.574	2.598	7.948	4.515	8.659	8.080	6.756	445.312
-8.974	-6.381	-8.173	-3.467	1.132	-2.652	4.134	1.003	5.932	6.086	5.468	4.710	7.104	7.618	-8.325	-6.794	-5.491	-6.350	-1.123	-2.540	4.218	4.662	2.599	7.818	4.327	8.317	7.893	6.506	449.219
-8.710	-6.067	-8.014	-3.177	1.273	-2.632	3.998	0.744	5.538	5.880	5.172	4.446	7.105	7.826	-8.100	-6.497	-5.363	-6.349	-0.997	-2.176	4.579	4.758	2.579	7.644	4.094	7.883	7.636	6.169	453.125
-8.376	-5.661	-7.781	-2.782	1.494	-2.543	3.868	0.484	5.047	5.635	4.789	4.093	7.103	8.044	-7.842	-6.119	-5.195	-6.314	-0.833	-1.739	4.980	4.852	2.531	7.415	3.799	7.341	7.294	5.729	457.031
-7.978	-5.169	-7.484	-2.289	1.792	-2.379	3.744	0.234	4.484	5.345	4.322	3.651	7.090	8.262	-7.550	-5.661	-4.978	-6.240	-0.629	-1.231	5.415	4.932	2.453	7.126	3.440	6.696	6.860	5.183	460.938
-7.526	-4.608	-7.136	-1.720	2.156	-2.141	3.617	0.003	3.875	5.004	3.777	3.125	7.053	8.466	-7.224	-5.137	-4.709	-6.123	-0.387	-0.668	5.871	4.989	2.349	6.779	3.029	5.971	6.342	4.542	464.844
-7.033	-4.001	-6.754	-1.106	2.560	-1.842	3.479	-0.207	3.247	4.608	3.167	2.533	6.981	8.641	-6.866	-4.571	-4.393	-5.970	-0.113	-0.074	6.329	5.018	2.226	6.383	2.583	5.199	5.757	3.831	468.750
-6.513	-3.379	-6.359	-0.486	2.977	-1.502	3.320	-0.399	2.622	4.161	2.507	1.902	6.872	8.773	-6.482	-3.992	-4.039	-5.787	0.183	0.523	6.763	5.016	2.094	5.953	2.130	4.418	5.133	3.088	472.656
-5.978	-2.772	-5.968	0.103	3.375	-1.148	3.135	-0.581	2.021	3.674	1.823	1.264	6.725	8.852	-6.085	-3.431	-3.660	-5.589	0.487	1.094	7.153	4.989	1.965	5.512	1.693	3.667	4.504	2.353	476.562
-5.446	-2.211	-5.599	0.626	3.724	-0.810	2.927	-0.760	1.459	3.168	1.144	0.655	6.551	8.877	-5.689	-2.916	-3.276	-5.388	0.787	1.611	7.482	4.945	1.846	5.084	1.294	2.976	3.908	1.671	480.469
-4.935	-1.722	-5.268	1.057	4.002	-0.517	2.705	-0.944	0.946	2.674	0.505	0.114	6.367	8.850	-5.311	-2.468	-2.906	-5.199	1.070	2.058	7.740	4.896	1.743	4.696	0.947	2.372	3.383	1.087	484.375
-4.468	-1.325	-4.990	1.378	4.192	-0.292	2.484	-1.137	0.494	2.226	-0.059	-0.327	6.195	8.785	-4.969	-2.102	-2.572	-5.032	1.321	2.423	7.928	4.850	1.657	4.375	0.658	1.873	2.964	0.636	488.281
-4.068	-1.035	-4.778	1.584	4.291	-0.151	2.283	-1.341	0.112	1.860	-0.515	-0.639	6.062	8.699	-4.680	-1.824	-2.291	-4.897	1.529	2.700	8.053	4.815	1.585	4.140	0.428	1.491	2.683	0.346	492.188
-3.756	-0.855	-4.642	1.680	4.301	-0.098	2.122	-1.552	-0.193	1.612	-0.836	-0.805	5.990	8.611	-4.456	-1.635	-2.079	-4.804	1.685	2.892	8.124	4.794	1.521	4.005	0.255	1.232	2.559	0.234	496.094
-3.549	-0.782	-4.588	1.681	4.239	-0.128	2.017	-1.764	-0.413	1.503	-1.007	-0.818	5.996	8.542	-4.303	-1.533	-1.946	-4.757	1.783	3.003	8.155	4.784	1.461	3.975	0.130	1.095	2.600	0.297	500.000
-3.454	-0.805	-4.616	1.608	4.125	-0.223	1.978	-1.970	-0.547	1.544	-1.024	-0.686	6.086	8.506	-4.225	-1.509	-1.895	-4.762	1.823	3.042	8.157	4.786	1.401	4.046	0.045	1.070	2.796	0.519	503.906
-3.464	-0.905	-4.719	1.487	3.985	-0.360	2.003	-2.162	-0.596	1.728	-0.900	-0.430	6.255	8.512	-4.216	-1.552	-1.919	-4.817	1.815	3.020	8.140	4.797	1.346	4.202	-0.012	1.137	3.121	0.865	507.812
-3.565	-1.059	-4.882	1.343	3.843	-0.516	2.084	-2.332	-0.574	2.031	-0.657	-0.079	6.483	8.562	-4.264	-1.647	-2.001	-4.913	1.773	2.952	8.112	4.817	1.302	4.418	-0.051	1.269	3.534	1.287	511.719
-3.733	-1.244	-5.087	1.199	3.721	-0.667	2.203	-2.479	-0.500	2.416	-0.330	0.328	6.742	8.646	-4.349	-1.776	-2.116	-5.033	1.721	2.856	8.078	4.848	1.282	4.661	-0.085	1.430	3.981	1.732	515.625
-3.938	-1.438	-5.310	1.073	3.632	-0.797	2.336	-2.604	-0.400	2.832	0.043	0.751	6.995	8.749	-4.447	-1.914	-2.229	-5.152	1.687	2.752	8.043	4.892	1.296	4.898	-0.121	1.579	4.402	2.142	519.531
-4.150	-1.618	-5.528	0.976	3.582	-0.895	2.454	-2.710	-0.307	3.227	0.421	1.152	7.203	8.852	-4.527	-2.038	-2.306	-5.238	1.698	2.661	8.009	4.949	1.352	5.093	-0.166	1.678	4.741	2.470	523.438
-4.339	-1.765	-5.720	0.916	3.570	-0.959	2.532	-2.808	-0.252	3.549	0.764	1.496	7.334	8.934	-4.562	-2.123	-2.312	-5.262	1.775	2.601	7.981	5.018	1.455	5.217	-0.222	1.693	4.950	2.675	527.344
-4.478	-1.863	-5.867	0.895	3.591	-0.991	2.547	-2.908	-0.264	3.758	1.035	1.754	7.361	8.977	-4.527	-2.144	-2.224	-5.201	1.929	2.591	7.961	5.098	1.601	5.249	-0.288	1.599	4.998	2.733	531.250
-4.546	-1.897	-5.955	0.915	3.636	-0.993	2.485	-3.022	-0.365	3.824	1.205	1.905	7.273	8.968	-4.407	-2.083	-2.034	-5.043	2.158	2.642	7.954	5.185	1.781	5.178	-0.363	1.385	4.870	2.637	535.156
-4.528	-1.853	-5.974	0.978	3.697	-0.971	2.341	-3.158	-0.567	3.734	1.253	1.935	7.073	8.903	-4.193	-1.928	-1.744	-4.791	2.449	2.759	7.965	5.278	1.983	5.005	-0.446	1.049	4.576	2.390	539.062
-4.412	-1.721	-5.917	1.084	3.767	-0.924	2.122	-3.319	-0.867	3.493	1.165	1.839	6.776	8.785	-3.889	-1.678	-1.372	-4.461	2.781	2.942	7.997	5.374	2.190	4.743	-0.541	0.604	4.138	2.010	542.969
-4.196	-1.497	-5.783	1.234	3.841	-0.853	1.842	-3.505	-1.254	3.121	0.938	1.619	6.409	8.626	-3.505	-1.337	-0.945	-4.078	3.127	3.182	8.050	5.470	2.389	4.410	-0.653	0.071	3.593	1.516	546.875
-3.884	-1.182	-5.575	1.425	3.919	-0.755	1.524	-3.708	-1.708	2.647	0.579	1.282	6.006	8.443	-3.060	-0.921	-0.493	-3.671	3.464	3.466	8.124	5.564	2.570	4.033	-0.791	-0.523	2.984	0.933	550.781
-3.489	-0.788	-5.302	1.654	4.003	-0.631	1.194	-3.917	-2.200	2.110	0.105	0.844	5.603	8.256	-2.578	-0.452	-0.044	-3.270	3.771	3.776	8.217	5.656	2.725	3.641	-0.960	-1.148	2.356	0.288	554.688
-3.033	-0.337	-4.982	1.911	4.097	-0.485	0.878	-4.119	-2.698	1.553	-0.454	0.326	5.237	8.086	-2.088	0.039	0.373	-2.901	4.032	4.093	8.323	5.746	2.852	3.265	-1.162	-1.766	1.752	-0.391	558.594
-2.549	0.138	-4.638	2.180	4.203	-0.323	0.604	-4.298	-3.170	1.017	-1.061	-0.240	4.934	7.950	-1.622	0.521	0.738	-2.584	4.240	4.396	8.437	5.830	2.954	2.932	-1.389	-2.339	1.211	-1.073	562.500
-2.072	0.599	-4.298	2.439	4.323	-0.157	0.389	-4.440	-3.581	0.542	-1.671	-0.819	4.715	7.859	-1.212	0.959	1.033	-2.334	4.391	4.665	8.550	5.909	3.032	2.666	-1.627	-2.831	0.762	-1.720	566.406
-1.640	1.002	-3.992	2.665	4.455	-0.001	0.250	-4.531	-3.906	0.160	-2.237	-1.371	4.589	7.819	-0.885	1.322	1.248	-2.162	4.483	4.881	8.653	5.978	3.090	2.485	-1.856	-3.209	0.430	-2.295	570.312
-1.289	1.310	-3.744	2.831	4.593	0.137	0.195	-4.562	-4.123	-0.104	-2.718	-1.859	4.556	7.827	-0.663	1.585	1.375	-2.071	4.519	5.032	8.737	6.035	3.127	2.400	-2.058	-3.448	0.230	-2.758	574.219
-1.042	1.493	-3.573	2.919	4.729	0.249	0.223	-4.525	-4.224	-0.238	-3.081	-2.247	4.604	7.871	-0.557	1.733	1.416	-2.060	4.501	5.107	8.795	6.079	3.141	2.409	-2.217	-3.538	0.170	-3.075	578.125
-0.914	1.541	-3.490	2.916	4.850	0.333	0.330	-4.421	-4.213	-0.240	-3.310	-2.511	4.716	7.938	-0.564	1.763	1.379	-2.121	4.436	5.104	8.819	6.110	3.132	2.505	-2.324	-3.485	0.248	-3.224	582.031
-0.900	1.457	-3.491	2.820	4.943	0.393	0.503	-4.253	-4.106	-0.121	-3.400	-2.638	4.869	8.009	-0.671	1.681	1.276	-2.243	4.331	5.024	8.803	6.127	3.096	2.671	-2.379	-3.309	0.450	-3.195	585.938
-0.984	1.265	-3.565	2.642	4.998	0.435	0.725	-4.036	-3.926	0.096	-3.362	-2.630	5.039	8.065	-0.853	1.508	1.129	-2.407	4.197	4.877	8.745	6.129	3.034	2.881	-2.393	-3.045	0.753	-2.998	589.844
-1.137	1.003	-3.688	2.402	5.008	0.468	0.974	-3.787	-3.702	0.381	-3.219	-2.503	5.203	8.089	-1.073	1.274	0.962	-2.592	4.048	4.677	8.641	6.113	2.948	3.107	-2.383	-2.737	1.124	-2.664	593.750
-1.323	0.714	-3.833	2.130	4.972	0.500	1.228	-3.529	-3.463	0.695	-3.000	-2.288	5.339	8.072	-1.293	1.013	0.800	-2.774	3.897	4.446	8.495	6.075	2.845	3.317	-2.371	-2.436	1.518	-2.242	597.656
-1.503	0.447	-3.966	1.857	4.897	0.539	1.462	-3.286	-3.235	1.001	-2.743	-2.024	5.431	8.006	-1.472	0.764	0.669	-2.930	3.761	4.209	8.311	6.010	2.733	3.480	-2.379	-2.189	1.886	-1.793	601.562
-1.643	0.239	-4.056	1.616	4.795	0.589	1.658	-3.080	-3.040	1.263	-2.483	-1.755	5.466	7.892	-1.578	0.562	0.589	-3.042	3.651	3.993	8.099	5.916	2.621	3.572	-2.423	-2.033	2.184	-1.380	605.469
-1.713	0.119	-4.077	1.435	4.682	0.653	1.798	-2.933	-2.895	1.451	-2.257	-1.527	5.439	7.737	-1.587	0.436	0.574	-3.095	3.578	3.824	7.875	5.794	2.518	3.580	-2.511	-1.994	2.373	-1.064	609.375
-1.697	0.097	-4.014	1.329	4.574	0.732	1.869	-2.857	-2.813	1.547	-2.097	-1.375	5.352	7.552	-1.491	0.405	0.628	-3.084	3.545	3.723	7.656	5.648	2.434	3.502	-2.642	-2.077	2.433	-0.887	613.281
-1.593	0.171	-3.867	1.305	4.485	0.821	1.864	-2.861	-2.803	1.542	-2.026	-1.322	5.210	7.348	-1.296	0.474	0.746	-3.009	3.550	3.700	7.461	5.489	2.373	3.348	-2.802	-2.268	2.361	-0.872	617.188
-1.410	0.319	-3.647	1.358	4.425	0.916	1.784	-2.946	-2.869	1.441	-2.055	-1.378	5.025	7.138	-1.020	0.637	0.916	-2.876	3.587	3.757	7.308	5.331	2.341	3.140	-2.975	-2.540	2.173	-1.014	621.094
-1.170	0.515	-3.379	1.471	4.394	1.007	1.634	-3.106	-3.007	1.258	-2.185	-1.532	4.811	6.932	-0.688	0.875	1.124	-2.695	3.649	3.882	7.205	5.187	2.338	2.902	-3.139	-2.856	1.898	-1.291	625.000
-0.902	0.729	-3.092	1.625	4.390	1.087	1.425	-3.328	-3.209	1.012	-2.402	-1.764	4.580	6.737	-0.331	1.165	1.352	-2.475	3.728	4.057	7.156	5.071	2.365	2.662	-3.274	-3.179	1.570	-1.662	628.906
-0.636	0.933	-2.819	1.795	4.401	1.146	1.171	-3.595	-3.458	0.729	-2.684	-2.043	4.342	6.555	0.023	1.477	1.587	-2.227	3.818	4.257	7.153	4.992	2.422	2.440	-3.366	-3.475	1.224	-2.079	632.812
-0.397	1.110	-2.588	1.964	4.416	1.176	0.889	-3.885	-3.735	0.430	-3.000	-2.335	4.101	6.386	0.353	1.786	1.819	-1.958	3.917	4.454	7.182	4.952	2.503	2.247	-3.406	-3.724	0.883	-2.499	636.719
-0.201	1.252	-2.417	2.117	4.421	1.176	0.599	-4.175	-4.016	0.138	-3.322	-2.613	3.858	6.225	0.645	2.071	2.045	-1.675	4.022	4.626	7.223	4.946	2.606	2.085	-3.396	-3.912	0.564	-2.884	640.625
-0.053	1.361	-2.311	2.247	4.408	1.147	0.318	-4.444	-4.280	-0.133	-3.621	-2.853	3.613	6.068	0.893	2.320	2.265	-1.386	4.134	4.759	7.257	4.965	2.723	1.946	-3.344	-4.041	0.269	-3.213	644.531
0.051	1.445	-2.265	2.357	4.373	1.093	0.063	-4.673	-4.507	-0.373	-3.878	-3.045	3.364	5.915	1.101	2.528	2.480	-1.097	4.252	4.847	7.273	4.992	2.843	1.816	-3.266	-4.118	-0.005	-3.477	648.438
0.123	1.514	-2.263	2.452	4.317	1.023	-0.153	-4.847	-4.687	-0.575	-4.081	-3.186	3.114	5.769	1.275	2.698	2.692	-0.819	4.376	4.897	7.263	5.014	2.956	1.683	-3.178	-4.154	-0.264	-3.678	652.344
0.176	1.578	-2.289	2.538	4.249	0.947	-0.318	-4.960	-4.814	-0.736	-4.229	-3.283	2.873	5.637	1.422	2.835	2.901	-0.564	4.505	4.920	7.234	5.018	3.052	1.540	-3.099	-4.159	-0.512	-3.827	656.250
0.223	1.638	-2.327	2.619	4.178	0.873	-0.427	-5.015	-4.891	-0.853	-4.326	-3.350	2.659	5.532	1.545	2.948	3.102	-0.345	4.636	4.934	7.195	5.000	3.121	1.389	-3.040	-4.142	-0.745	-3.935	660.156
0.269	1.691	-2.367	2.693	4.114	0.807	-0.477	-5.019	-4.928	-0.922	-4.383	-3.399	2.495	5.472	1.645	3.040	3.287	-0.173	4.763	4.954	7.160	4.961	3.159	1.245	-3.008	-4.108	-0.950	-4.015	664.062
0.312	1.727	-2.407	2.755	4.063	0.752	-0.467	-4.987	-4.934	-0.940	-4.410	-3.442	2.405	5.470	1.714	3.113	3.445	-0.058	4.879	4.987	7.141	4.907	3.165	1.132	-2.999	-4.055	-1.108	-4.069	667.969
0.345	1.733	-2.451	2.792	4.025	0.706	-0.402	-4.933	-4.919	-0.900	-4.415	-3.481	2.412	5.535	1.742	3.160	3.562	-0.005	4.974	5.034	7.145	4.851	3.141	1.076	-3.007	-3.977	-1.192	-4.093	671.875
0.351	1.693	-2.511	2.790	3.996	0.668	-0.284	-4.868	-4.886	-0.793	-4.397	-3.508	2.532	5.669	1.716	3.172	3.621	-0.019	5.032	5.082	7.169	4.799	3.092	1.101	-3.019	-3.861	-1.173	-4.073	675.781
0.311	1.594	-2.599	2.734	3.968	0.633	-0.117	-4.796	-4.826	-0.609	-4.344	-3.501	2.769	5.862	1.622	3.135	3.604	-0.105	5.038	5.113	7.202	4.754	3.021	1.226	-3.019	-3.692	-1.027	-3.984	679.688
0.206	1.430	-2.729	2.614	3.933	0.600	0.097	-4.711	-4.722	-0.339	-4.233	-3.426	3.114	6.096	1.450	3.034	3.494	-0.267	4.972	5.103	7.226	4.714	2.929	1.455	-2.995	-3.451	-0.737	-3.795	683.594
0.021	1.200	-2.909	2.430	3.881	0.567	0.352	-4.607	-4.554	0.026	-4.038	-3.249	3.543	6.346	1.194	2.861	3.281	-0.512	4.819	5.031	7.220	4.667	2.817	1.779	-2.939	-3.124	-0.298	-3.478	687.500
-0.249	0.913	-3.140	2.186	3.808	0.535	0.641	-4.474	-4.300	0.483	-3.735	-2.940	4.024	6.581	0.854	2.611	2.961	-0.839	4.570	4.880	7.166	4.599	2.680	2.176	-2.847	-2.700	0.278	-3.014	691.406
-0.597	0.587	-3.411	1.897	3.711	0.503	0.952	-4.308	-3.947	1.021	-3.311	-2.485	4.512	6.774	0.445	2.293	2.545	-1.240	4.227	4.647	7.052	4.496	2.521	2.615	-2.724	-2.184	0.963	-2.400	695.312
-1.002	0.245	-3.704	1.587	3.592	0.472	1.264	-4.115	-3.501	1.612	-2.773	-1.896	4.961	6.900	-0.009	1.925	2.057	-1.696	3.806	4.342	6.875	4.349	2.340	3.055	-2.580	-1.594	1.712	-1.660	699.219
-1.430	-0.081	-3.988	1.281	3.455	0.441	1.551	-3.911	-2.982	2.217	-2.148	-1.211	5.325	6.941	-0.470	1.536	1.537	-2.171	3.337	3.987	6.640	4.159	2.145	3.456	-2.430	-0.963	2.466	-0.838	703.125
-1.839	-0.359	-4.231	1.009	3.308	0.409	1.786	-3.718	-2.431	2.786	-1.486	-0.491	5.565	6.890	-0.897	1.158	1.033	-2.623	2.861	3.612	6.363	3.932	1.949	3.777	-2.293	-0.336	3.162	0.002	707.031
-2.184	-0.562	-4.397	0.795	3.156	0.374	1.940	-3.559	-1.901	3.268	-0.847	0.193	5.652	6.746	-1.246	0.826	0.594	-3.004	2.425	3.252	6.061	3.682	1.765	3.986	-2.186	0.238	3.736	0.787	710.938
-2.425	-0.668	-4.457	0.659	3.009	0.339	1.995	-3.454	-1.445	3.615	-0.293	0.769	5.573	6.519	-1.482	0.570	0.265	-3.271	2.072	2.938	5.756	3.425	1.605	4.059	-2.123	0.709	4.137	1.448	714.844
-2.534	-0.669	-4.396	0.608	2.874	0.308	1.943	-3.413	-1.109	3.795	0.121	1.176	5.333	6.229	-1.578	0.410	0.075	-3.390	1.832	2.693	5.468	3.177	1.480	3.986	-2.116	1.039	4.330	1.928	718.750
-2.500	-0.569	-4.208	0.642	2.759	0.287	1.791	-3.435	-0.925	3.793	0.359	1.378	4.955	5.898	-1.526	0.354	0.037	-3.348	1.723	2.532	5.211	2.951	1.396	3.775	-2.166	1.203	4.299	2.188	722.656
-2.327	-0.387	-3.908	0.752	2.671	0.283	1.557	-3.511	-0.906	3.615	0.406	1.365	4.479	5.555	-1.334	0.398	0.143	-3.147	1.743	2.459	4.998	2.758	1.354	3.448	-2.271	1.196	4.055	2.216	726.562
-2.037	-0.146	-3.521	0.919	2.616	0.301	1.271	-3.625	-1.041	3.286	0.269	1.152	3.951	5.229	-1.026	0.530	0.372	-2.812	1.875	2.470	4.836	2.601	1.350	3.040	-2.423	1.026	3.627	2.022	730.469
-1.662	0.123	-3.084	1.124	2.598	0.343	0.970	-3.760	-1.307	2.850	-0.023	0.776	3.427	4.945	-0.640	0.729	0.690	-2.380	2.094	2.555	4.729	2.486	1.378	2.593	-2.611	0.717	3.062	1.635	734.375
-1.245	0.393	-2.640	1.346	2.620	0.409	0.689	-3.899	-1.662	2.360	-0.425	0.293	2.956	4.725	-0.218	0.971	1.059	-1.899	2.365	2.700	4.676	2.413	1.431	2.153	-2.819	0.305	2.421	1.104	738.281
-0.833	0.636	-2.231	1.564	2.678	0.491	0.460	-4.028	-2.059	1.874	-0.881	-0.236	2.580	4.582	0.193	1.230	1.440	-1.418	2.654	2.890	4.675	2.381	1.501	1.761	-3.033	-0.173	1.767	0.489	742.188
-0.472	0.836	-1.895	1.763	2.766	0.580	0.306	-4.135	-2.445	1.445	-1.333	-0.745	2.324	4.521	0.553	1.482	1.797	-0.986	2.931	3.106	4.717	2.387	1.579	1.448	-3.239	-0.673	1.162	-0.145	746.094
-0.201	0.981	-1.658	1.932	2.876	0.666	0.241	-4.211	-2.771	1.117	-1.726	-1.174	2.200	4.536	0.828	1.703	2.101	-0.643	3.169	3.329	4.793	2.424	1.656	1.233	-3.424	-1.155	0.661	-0.735	750.000
-0.048	1.068	-1.531	2.064	2.999	0.742	0.268	-4.247	-2.997	0.921	-2.018	-1.477	2.203	4.618	0.998	1.873	2.331	-0.416	3.348	3.540	4.889	2.482	1.722	1.120	-3.579	-1.580	0.300	-1.224	753.906
-0.025	1.100	-1.513	2.157	3.125	0.804	0.377	-4.241	-3.098	0.868	-2.183	-1.627	2.312	4.748	1.056	1.981	2.474	-0.317	3.457	3.721	4.992	2.547	1.767	1.100	-3.699	-1.918	0.099	-1.573	757.812
-0.127	1.085	-1.590	2.212	3.246	0.851	0.554	-4.191	-3.067	0.949	-2.215	-1.622	2.499	4.906	1.011	2.022	2.530	-0.340	3.492	3.858	5.087	2.605	1.781	1.156	-3.782	-2.149	0.056	-1.762	761.719
-0.329	1.036	-1.738	2.234	3.354	0.889	0.778	-4.102	-2.915	1.144	-2.126	-1.481	2.730	5.070	0.883	2.000	2.506	-0.465	3.454	3.942	5.162	2.641	1.756	1.264	-3.829	-2.265	0.150	-1.792	765.625
-0.598	0.966	-1.931	2.227	3.447	0.923	1.026	-3.982	-2.666	1.419	-1.939	-1.241	2.974	5.220	0.702	1.926	2.416	-0.662	3.355	3.968	5.206	2.645	1.688	1.398	-3.846	-2.271	0.347	-1.685	769.531
-0.893	0.888	-2.142	2.197	3.519	0.959	1.279	-3.844	-2.356	1.739	-1.685	-0.951	3.206	5.339	0.500	1.818	2.281	-0.893	3.207	3.937	5.215	2.611	1.579	1.537	-3.840	-2.182	0.609	-1.474	773.438
-1.176	0.814	-2.353	2.146	3.568	1.000	1.522	-3.699	-2.017	2.075	-1.395	-0.658	3.409	5.418	0.306	1.693	2.120	-1.125	3.029	3.856	5.192	2.540	1.438	1.665	-3.821	-2.019	0.895	-1.198	777.344
-1.420	0.750	-2.551	2.076	3.594	1.044	1.748	-3.560	-1.679	2.404	-1.092	-0.399	3.578	5.454	0.144	1.566	1.952	-1.330	2.837	3.734	5.140	2.436	1.275	1.773	-3.799	-1.804	1.175	-0.895	781.250
-1.611	0.701	-2.733	1.988	3.597	1.089	1.957	-3.432	-1.359	2.715	-0.790	-0.198	3.715	5.449	0.025	1.449	1.792	-1.494	2.644	3.582	5.069	2.308	1.104	1.859	-3.783	-1.558	1.430	-0.592	785.156
-1.749	0.666	-2.899	1.885	3.581	1.132	2.152	-3.320	-1.067	3.005	-0.498	-0.060	3.829	5.414	-0.052	1.347	1.647	-1.612	2.460	3.410	4.987	2.165	0.936	1.927	-3.777	-1.300	1.651	-0.309	789.062
-1.844	0.642	-3.054	1.772	3.552	1.173	2.338	-3.220	-0.800	3.280	-0.218	0.025	3.930	5.360	-0.094	1.260	1.519	-1.692	2.287	3.230	4.903	2.015	0.775	1.982	-3.783	-1.042	1.843	-0.050	792.969
-1.915	0.626	-3.204	1.654	3.519	1.214	2.524	-3.129	-0.553	3.545	0.052	0.076	4.030	5.299	-0.117	1.184	1.404	-1.748	2.125	3.050	4.821	1.865	0.622	2.033	-3.798	-0.793	2.013	0.184	796.875
