FP1	F3	F7	FC3	C3	C5	P3	P7	PO7	PO3	O1	Oz	Pz	CPz	FP2	Fz	F4	F8	FC4	FCz	Cz	C4	C6	P4	P8	PO8	PO4	O2	time
0.209	0.890	-0.064	0.160	0.099	-0.403	0.323	0.034	0.768	0.426	0.503	-0.088	-0.094	-0.226	-0.065	0.252	0.681	0.698	0.899	0.484	0.390	0.464	0.093	-0.383	-0.691	-0.707	-0.385	-0.286	-199.219
0.328	0.629	0.046	0.115	-0.009	-0.631	0.305	-0.185	0.436	0.274	0.343	-0.076	0.236	0.140	-0.222	0.312	0.643	0.367	0.861	0.589	0.588	0.559	0.185	0.001	-0.611	-0.593	-0.108	-0.142	-195.312
0.432	0.394	0.114	0.088	-0.083	-0.821	0.291	-0.374	0.124	0.132	0.193	-0.068	0.545	0.490	-0.362	0.370	0.594	0.070	0.809	0.691	0.783	0.631	0.258	0.348	-0.555	-0.491	0.142	-0.014	-191.406
0.515	0.207	0.113	0.093	-0.095	-0.945	0.290	-0.510	-0.145	0.013	0.063	-0.067	0.815	0.812	-0.476	0.423	0.528	-0.169	0.736	0.785	0.970	0.664	0.292	0.629	-0.545	-0.413	0.342	0.080	-187.500
0.568	0.076	0.037	0.135	-0.027	-0.978	0.306	-0.573	-0.354	-0.073	-0.035	-0.074	1.030	1.092	-0.560	0.465	0.439	-0.340	0.637	0.865	1.143	0.647	0.274	0.821	-0.594	-0.369	0.478	0.131	-183.594
0.580	-0.001	-0.100	0.213	0.125	-0.903	0.343	-0.555	-0.490	-0.121	-0.094	-0.087	1.183	1.322	-0.613	0.490	0.329	-0.450	0.511	0.925	1.293	0.578	0.198	0.917	-0.697	-0.360	0.541	0.135	-179.688
0.540	-0.039	-0.264	0.317	0.351	-0.720	0.403	-0.457	-0.550	-0.128	-0.110	-0.106	1.273	1.494	-0.640	0.491	0.202	-0.513	0.363	0.957	1.411	0.466	0.067	0.920	-0.839	-0.384	0.535	0.094	-175.781
0.442	-0.053	-0.413	0.433	0.629	-0.442	0.480	-0.293	-0.539	-0.098	-0.086	-0.127	1.303	1.607	-0.648	0.464	0.071	-0.547	0.207	0.960	1.489	0.328	-0.105	0.847	-0.994	-0.435	0.472	0.018	-171.875
0.285	-0.055	-0.507	0.544	0.925	-0.102	0.565	-0.091	-0.473	-0.040	-0.033	-0.148	1.281	1.661	-0.639	0.411	-0.051	-0.569	0.059	0.931	1.521	0.187	-0.294	0.723	-1.134	-0.500	0.367	-0.080	-167.969
0.081	-0.050	-0.521	0.635	1.198	0.256	0.642	0.116	-0.374	0.030	0.033	-0.169	1.220	1.660	-0.618	0.338	-0.146	-0.585	-0.058	0.876	1.505	0.073	-0.470	0.579	-1.234	-0.568	0.243	-0.184	-164.062
-0.147	-0.039	-0.444	0.691	1.409	0.582	0.695	0.290	-0.267	0.096	0.093	-0.190	1.129	1.611	-0.587	0.257	-0.199	-0.592	-0.125	0.800	1.443	0.008	-0.601	0.442	-1.277	-0.626	0.118	-0.280	-160.156
-0.363	-0.018	-0.287	0.704	1.527	0.831	0.706	0.402	-0.176	0.140	0.126	-0.215	1.016	1.517	-0.544	0.180	-0.199	-0.574	-0.126	0.711	1.338	0.013	-0.658	0.336	-1.254	-0.662	0.007	-0.358	-156.250
-0.531	0.015	-0.075	0.670	1.527	0.966	0.661	0.432	-0.124	0.147	0.114	-0.248	0.887	1.386	-0.490	0.118	-0.138	-0.512	-0.053	0.617	1.197	0.095	-0.621	0.272	-1.168	-0.670	-0.081	-0.412	-152.344
-0.617	0.062	0.162	0.590	1.403	0.974	0.552	0.376	-0.124	0.104	0.044	-0.296	0.742	1.221	-0.421	0.080	-0.019	-0.384	0.093	0.525	1.028	0.255	-0.482	0.256	-1.024	-0.645	-0.141	-0.442	-148.438
-0.602	0.120	0.393	0.470	1.162	0.858	0.376	0.243	-0.183	0.006	-0.090	-0.365	0.579	1.026	-0.335	0.071	0.150	-0.178	0.303	0.441	0.840	0.482	-0.247	0.279	-0.835	-0.590	-0.179	-0.453	-144.531
-0.481	0.182	0.595	0.321	0.825	0.642	0.142	0.055	-0.299	-0.145	-0.285	-0.459	0.396	0.806	-0.228	0.088	0.353	0.108	0.558	0.366	0.643	0.755	0.065	0.327	-0.615	-0.510	-0.201	-0.452	-140.625
-0.265	0.237	0.753	0.155	0.425	0.363	-0.134	-0.161	-0.460	-0.341	-0.527	-0.576	0.189	0.567	-0.100	0.127	0.571	0.456	0.834	0.305	0.449	1.049	0.423	0.383	-0.381	-0.413	-0.218	-0.448	-136.719
0.019	0.276	0.864	-0.012	0.003	0.064	-0.431	-0.375	-0.648	-0.562	-0.795	-0.711	-0.038	0.316	0.049	0.181	0.782	0.837	1.106	0.261	0.270	1.335	0.787	0.426	-0.150	-0.309	-0.240	-0.449	-132.812
0.332	0.288	0.934	-0.162	-0.397	-0.212	-0.722	-0.559	-0.836	-0.787	-1.059	-0.851	-0.281	0.064	0.212	0.241	0.965	1.207	1.348	0.235	0.117	1.581	1.116	0.441	0.059	-0.209	-0.273	-0.460	-128.906
0.629	0.269	0.969	-0.280	-0.733	-0.434	-0.980	-0.694	-0.999	-0.991	-1.288	-0.983	-0.530	-0.179	0.383	0.301	1.103	1.526	1.535	0.229	-0.001	1.758	1.371	0.416	0.229	-0.123	-0.322	-0.482	-125.000
0.863	0.222	0.974	-0.350	-0.974	-0.577	-1.185	-0.765	-1.111	-1.151	-1.458	-1.091	-0.772	-0.405	0.554	0.354	1.183	1.754	1.649	0.244	-0.083	1.843	1.523	0.346	0.347	-0.058	-0.387	-0.516	-121.094
0.995	0.157	0.945	-0.363	-1.096	-0.632	-1.321	-0.769	-1.153	-1.250	-1.547	-1.161	-0.994	-0.607	0.715	0.399	1.201	1.868	1.677	0.273	-0.130	1.821	1.558	0.231	0.408	-0.019	-0.464	-0.558	-117.188
1.000	0.088	0.877	-0.314	-1.095	-0.599	-1.381	-0.709	-1.117	-1.277	-1.551	-1.183	-1.184	-0.783	0.860	0.433	1.157	1.859	1.615	0.310	-0.156	1.690	1.478	0.078	0.411	-0.006	-0.546	-0.603	-113.281
0.878	0.033	0.760	-0.210	-0.985	-0.493	-1.369	-0.593	-1.004	-1.233	-1.472	-1.154	-1.334	-0.934	0.981	0.453	1.058	1.739	1.467	0.339	-0.175	1.456	1.301	-0.101	0.366	-0.016	-0.624	-0.645	-109.375
0.651	0.008	0.591	-0.066	-0.792	-0.334	-1.298	-0.436	-0.828	-1.128	-1.327	-1.074	-1.440	-1.065	1.071	0.459	0.915	1.535	1.245	0.344	-0.208	1.138	1.055	-0.290	0.292	-0.038	-0.688	-0.677	-105.469
0.363	0.019	0.380	0.095	-0.560	-0.150	-1.184	-0.256	-0.613	-0.979	-1.136	-0.951	-1.505	-1.181	1.124	0.447	0.741	1.283	0.967	0.309	-0.273	0.764	0.775	-0.474	0.212	-0.060	-0.727	-0.688	-101.562
0.070	0.064	0.144	0.242	-0.332	0.030	-1.049	-0.073	-0.385	-0.808	-0.924	-0.791	-1.531	-1.286	1.136	0.412	0.551	1.026	0.654	0.222	-0.385	0.366	0.498	-0.636	0.153	-0.066	-0.733	-0.669	-97.656
-0.171	0.131	-0.093	0.348	-0.154	0.180	-0.911	0.094	-0.170	-0.634	-0.710	-0.606	-1.523	-1.382	1.104	0.351	0.355	0.800	0.330	0.078	-0.547	-0.022	0.252	-0.763	0.136	-0.042	-0.700	-0.612	-93.750
-0.318	0.200	-0.306	0.386	-0.059	0.281	-0.784	0.226	0.011	-0.473	-0.509	-0.402	-1.487	-1.465	1.029	0.259	0.161	0.629	0.017	-0.119	-0.752	-0.372	0.056	-0.844	0.177	0.024	-0.624	-0.511	-89.844
-0.349	0.249	-0.470	0.343	-0.066	0.320	-0.677	0.314	0.147	-0.336	-0.325	-0.190	-1.423	-1.527	0.919	0.138	-0.023	0.521	-0.267	-0.355	-0.984	-0.660	-0.083	-0.874	0.277	0.138	-0.505	-0.363	-85.938
-0.270	0.258	-0.566	0.214	-0.179	0.292	-0.591	0.349	0.238	-0.222	-0.161	0.025	-1.330	-1.558	0.781	-0.009	-0.193	0.467	-0.510	-0.606	-1.217	-0.873	-0.170	-0.852	0.427	0.299	-0.349	-0.173	-82.031
-0.110	0.217	-0.583	0.011	-0.384	0.201	-0.523	0.332	0.288	-0.128	-0.012	0.235	-1.208	-1.546	0.629	-0.170	-0.341	0.449	-0.702	-0.845	-1.421	-1.005	-0.216	-0.779	0.604	0.494	-0.162	0.051	-78.125
0.086	0.127	-0.519	-0.242	-0.648	0.058	-0.467	0.268	0.307	-0.048	0.124	0.432	-1.055	-1.479	0.474	-0.330	-0.462	0.437	-0.842	-1.042	-1.568	-1.063	-0.237	-0.665	0.779	0.702	0.041	0.292	-74.219
0.266	0.001	-0.383	-0.510	-0.931	-0.121	-0.415	0.166	0.306	0.028	0.250	0.608	-0.870	-1.351	0.328	-0.469	-0.549	0.405	-0.931	-1.172	-1.634	-1.056	-0.250	-0.518	0.923	0.901	0.247	0.532	-70.312
0.386	-0.138	-0.204	-0.751	-1.183	-0.311	-0.359	0.043	0.294	0.104	0.365	0.758	-0.657	-1.161	0.200	-0.570	-0.603	0.330	-0.976	-1.217	-1.606	-1.003	-0.265	-0.354	1.012	1.063	0.440	0.751	-66.406
0.416	-0.266	-0.019	-0.926	-1.357	-0.485	-0.288	-0.083	0.280	0.187	0.470	0.879	-0.423	-0.916	0.097	-0.623	-0.625	0.198	-0.987	-1.175	-1.484	-0.925	-0.292	-0.188	1.031	1.170	0.604	0.932	-62.500
0.345	-0.357	0.128	-1.005	-1.417	-0.614	-0.195	-0.190	0.275	0.281	0.567	0.971	-0.176	-0.632	0.017	-0.624	-0.626	0.005	-0.981	-1.055	-1.282	-0.843	-0.336	-0.036	0.975	1.209	0.726	1.062	-58.594
0.185	-0.397	0.197	-0.976	-1.342	-0.669	-0.074	-0.255	0.287	0.389	0.660	1.040	0.071	-0.332	-0.044	-0.584	-0.620	-0.241	-0.973	-0.882	-1.026	-0.780	-0.399	0.085	0.855	1.176	0.797	1.136	-54.688
-0.036	-0.379	0.166	-0.845	-1.134	-0.632	0.079	-0.259	0.327	0.512	0.751	1.089	0.305	-0.044	-0.095	-0.519	-0.623	-0.526	-0.981	-0.685	-0.750	-0.753	-0.483	0.162	0.687	1.080	0.813	1.153	-50.781
-0.275	-0.314	0.035	-0.634	-0.815	-0.496	0.260	-0.191	0.401	0.647	0.843	1.123	0.512	0.205	-0.151	-0.450	-0.649	-0.825	-1.015	-0.501	-0.487	-0.775	-0.583	0.188	0.496	0.933	0.774	1.118	-46.875
-0.490	-0.219	-0.173	-0.379	-0.422	-0.270	0.460	-0.053	0.511	0.790	0.937	1.144	0.680	0.395	-0.220	-0.396	-0.703	-1.112	-1.079	-0.357	-0.268	-0.846	-0.694	0.160	0.305	0.752	0.687	1.037	-42.969
-0.646	-0.121	-0.418	-0.119	-0.006	0.019	0.667	0.142	0.649	0.931	1.025	1.147	0.799	0.509	-0.310	-0.371	-0.784	-1.360	-1.166	-0.271	-0.112	-0.959	-0.805	0.084	0.141	0.556	0.563	0.920	-39.062
-0.724	-0.046	-0.649	0.108	0.385	0.333	0.859	0.366	0.802	1.055	1.100	1.127	0.860	0.545	-0.414	-0.378	-0.879	-1.544	-1.260	-0.249	-0.023	-1.091	-0.899	-0.027	0.023	0.360	0.414	0.777	-35.156
-0.728	-0.013	-0.823	0.272	0.705	0.628	1.016	0.585	0.945	1.146	1.148	1.073	0.860	0.507	-0.521	-0.410	-0.968	-1.646	-1.333	-0.281	0.004	-1.215	-0.956	-0.156	-0.035	0.178	0.255	0.617	-31.250
-0.681	-0.027	-0.907	0.359	0.923	0.858	1.116	0.761	1.051	1.184	1.152	0.977	0.797	0.408	-0.606	-0.451	-1.025	-1.654	-1.356	-0.348	-0.016	-1.296	-0.958	-0.283	-0.026	0.020	0.100	0.448	-27.344
-0.619	-0.082	-0.892	0.365	1.023	0.991	1.140	0.860	1.094	1.152	1.101	0.831	0.675	0.265	-0.643	-0.482	-1.026	-1.564	-1.305	-0.423	-0.064	-1.306	-0.886	-0.390	0.050	-0.106	-0.040	0.278	-23.438
-0.578	-0.159	-0.793	0.301	1.007	1.009	1.079	0.860	1.052	1.041	0.985	0.635	0.502	0.097	-0.612	-0.484	-0.950	-1.382	-1.161	-0.480	-0.121	-1.227	-0.737	-0.460	0.185	-0.196	-0.155	0.115	-19.531
-0.581	-0.235	-0.645	0.184	0.891	0.910	0.930	0.752	0.918	0.847	0.806	0.398	0.290	-0.079	-0.500	-0.444	-0.789	-1.123	-0.922	-0.500	-0.171	-1.054	-0.514	-0.486	0.369	-0.247	-0.241	-0.034	-15.625
-0.634	-0.288	-0.492	0.039	0.703	0.709	0.703	0.546	0.696	0.579	0.574	0.136	0.056	-0.249	-0.312	-0.357	-0.548	-0.809	-0.604	-0.472	-0.207	-0.803	-0.238	-0.464	0.585	-0.257	-0.293	-0.159	-11.719
-0.716	-0.302	-0.378	-0.109	0.475	0.434	0.415	0.266	0.406	0.259	0.310	-0.128	-0.184	-0.406	-0.069	-0.226	-0.250	-0.467	-0.237	-0.395	-0.228	-0.503	0.057	-0.403	0.818	-0.225	-0.311	-0.252	-7.812
-0.793	-0.268	-0.334	-0.237	0.241	0.119	0.094	-0.054	0.083	-0.087	0.042	-0.365	-0.411	-0.547	0.197	-0.065	0.071	-0.128	0.137	-0.283	-0.240	-0.199	0.332	-0.315	1.049	-0.151	-0.299	-0.305	-3.906
-0.827	-0.187	-0.371	-0.324	0.030	-0.201	-0.230	-0.375	-0.234	-0.421	-0.199	-0.550	-0.609	-0.674	0.447	0.110	0.376	0.178	0.470	-0.156	-0.253	0.060	0.541	-0.220	1.262	-0.040	-0.261	-0.314	0.000
-0.783	-0.065	-0.478	-0.359	-0.136	-0.494	-0.526	-0.657	-0.505	-0.711	-0.383	-0.660	-0.768	-0.793	0.643	0.277	0.623	0.423	0.714	-0.036	-0.281	0.231	0.649	-0.141	1.439	0.101	-0.207	-0.278	3.906
-0.646	0.086	-0.623	-0.338	-0.244	-0.734	-0.767	-0.869	-0.696	-0.927	-0.488	-0.683	-0.882	-0.912	0.757	0.419	0.780	0.586	0.837	0.053	-0.333	0.278	0.632	-0.098	1.571	0.259	-0.147	-0.201	7.812
-0.419	0.251	-0.765	-0.265	-0.287	-0.903	-0.932	-0.988	-0.785	-1.049	-0.499	-0.616	-0.952	-1.037	0.777	0.523	0.829	0.648	0.819	0.095	-0.418	0.186	0.484	-0.107	1.650	0.420	-0.090	-0.089	11.719
-0.128	0.414	-0.860	-0.150	-0.271	-0.992	-1.010	-1.004	-0.764	-1.069	-0.416	-0.464	-0.984	-1.172	0.705	0.581	0.769	0.599	0.660	0.079	-0.537	-0.044	0.216	-0.176	1.677	0.570	-0.047	0.048	15.625
0.184	0.558	-0.874	-0.012	-0.203	-0.996	-1.000	-0.918	-0.641	-0.992	-0.246	-0.244	-0.988	-1.316	0.559	0.591	0.612	0.441	0.377	0.005	-0.688	-0.392	-0.146	-0.304	1.655	0.693	-0.023	0.201	19.531
0.468	0.668	-0.788	0.132	-0.096	-0.923	-0.907	-0.741	-0.435	-0.832	-0.006	0.026	-0.974	-1.469	0.369	0.556	0.382	0.186	0.002	-0.122	-0.865	-0.824	-0.566	-0.484	1.592	0.780	-0.022	0.359	23.438
0.678	0.731	-0.600	0.262	0.034	-0.780	-0.746	-0.491	-0.171	-0.608	0.286	0.323	-0.954	-1.624	0.166	0.480	0.107	-0.137	-0.428	-0.292	-1.059	-1.300	-1.006	-0.700	1.500	0.825	-0.043	0.514	27.344
0.781	0.740	-0.324	0.360	0.173	-0.585	-0.537	-0.190	0.122	-0.344	0.608	0.624	-0.938	-1.774	-0.019	0.370	-0.185	-0.489	-0.872	-0.495	-1.262	-1.776	-1.427	-0.933	1.386	0.830	-0.085	0.654	31.250
0.764	0.692	0.007	0.415	0.308	-0.355	-0.298	0.139	0.422	-0.061	0.944	0.908	-0.932	-1.912	-0.166	0.229	-0.472	-0.823	-1.296	-0.718	-1.464	-2.214	-1.797	-1.164	1.262	0.799	-0.145	0.768	35.156
0.637	0.594	0.350	0.421	0.427	-0.110	-0.051	0.478	0.710	0.220	1.275	1.151	-0.943	-2.031	-0.264	0.064	-0.736	-1.094	-1.671	-0.951	-1.655	-2.581	-2.091	-1.375	1.135	0.740	-0.224	0.840	39.062
0.423	0.463	0.658	0.382	0.524	0.126	0.186	0.811	0.977	0.480	1.587	1.330	-0.971	-2.124	-0.317	-0.115	-0.963	-1.267	-1.972	-1.181	-1.825	-2.852	-2.291	-1.553	1.017	0.657	-0.325	0.849	42.969
0.152	0.321	0.887	0.308	0.593	0.335	0.398	1.128	1.218	0.705	1.863	1.414	-1.020	-2.185	-0.338	-0.295	-1.140	-1.322	-2.185	-1.393	-1.962	-3.013	-2.387	-1.690	0.915	0.552	-0.456	0.771	46.875
-0.143	0.197	1.005	0.217	0.635	0.501	0.574	1.425	1.435	0.882	2.084	1.374	-1.087	-2.210	-0.345	-0.458	-1.251	-1.257	-2.297	-1.570	-2.055	-3.057	-2.375	-1.783	0.838	0.419	-0.625	0.580	50.781
-0.436	0.114	0.997	0.128	0.656	0.616	0.707	1.699	1.630	0.998	2.229	1.178	-1.172	-2.196	-0.362	-0.585	-1.286	-1.088	-2.302	-1.692	-2.091	-2.984	-2.259	-1.831	0.792	0.252	-0.838	0.255	54.688
-0.707	0.088	0.865	0.061	0.665	0.681	0.796	1.948	1.802	1.048	2.279	0.799	-1.268	-2.140	-0.414	-0.659	-1.234	-0.840	-2.200	-1.746	-2.062	-2.804	-2.048	-1.837	0.782	0.044	-1.095	-0.217	58.594
-0.948	0.123	0.628	0.028	0.671	0.709	0.843	2.170	1.948	1.028	2.215	0.223	-1.367	-2.040	-0.521	-0.669	-1.094	-0.547	-1.997	-1.721	-1.964	-2.531	-1.758	-1.803	0.811	-0.204	-1.386	-0.828	62.500
-1.160	0.211	0.316	0.035	0.686	0.713	0.856	2.359	2.058	0.940	2.025	-0.550	-1.455	-1.894	-0.695	-0.615	-0.872	-0.241	-1.707	-1.616	-1.794	-2.183	-1.404	-1.728	0.883	-0.481	-1.688	-1.553	66.406
-1.351	0.335	-0.034	0.079	0.718	0.711	0.845	2.505	2.118	0.792	1.701	-1.496	-1.514	-1.701	-0.941	-0.503	-0.584	0.049	-1.348	-1.438	-1.561	-1.778	-1.005	-1.607	0.999	-0.762	-1.970	-2.347	70.312
-1.534	0.469	-0.386	0.149	0.771	0.717	0.820	2.596	2.109	0.593	1.245	-2.571	-1.527	-1.458	-1.252	-0.349	-0.256	0.300	-0.941	-1.202	-1.273	-1.337	-0.581	-1.432	1.161	-1.017	-2.191	-3.147	74.219
-1.724	0.592	-0.704	0.232	0.845	0.738	0.793	2.618	2.012	0.357	0.664	-3.717	-1.472	-1.164	-1.610	-0.169	0.086	0.497	-0.511	-0.923	-0.941	-0.877	-0.148	-1.193	1.364	-1.215	-2.316	-3.890	78.125
-1.939	0.682	-0.964	0.317	0.935	0.779	0.774	2.559	1.806	0.097	-0.026	-4.863	-1.336	-0.820	-1.985	0.026	0.417	0.638	-0.078	-0.617	-0.576	-0.413	0.276	-0.884	1.596	-1.334	-2.320	-4.517	82.031
-2.189	0.729	-1.148	0.393	1.039	0.842	0.770	2.410	1.480	-0.176	-0.803	-5.941	-1.110	-0.424	-2.344	0.227	0.718	0.726	0.341	-0.292	-0.183	0.044	0.676	-0.506	1.838	-1.369	-2.193	-4.986	85.938
-2.478	0.732	-1.250	0.461	1.157	0.924	0.789	2.167	1.028	-0.450	-1.640	-6.888	-0.794	0.019	-2.649	0.433	0.977	0.772	0.735	0.047	0.233	0.484	1.040	-0.069	2.060	-1.332	-1.946	-5.277	89.844
-2.796	0.701	-1.278	0.525	1.294	1.023	0.832	1.830	0.455	-0.715	-2.503	-7.656	-0.396	0.507	-2.869	0.650	1.195	0.789	1.101	0.404	0.676	0.905	1.358	0.409	2.234	-1.248	-1.607	-5.391	93.750
-3.125	0.653	-1.254	0.598	1.457	1.135	0.898	1.402	-0.225	-0.962	-3.358	-8.210	0.070	1.031	-2.981	0.885	1.379	0.792	1.444	0.782	1.145	1.304	1.626	0.903	2.335	-1.150	-1.210	-5.347	97.656
-3.436	0.612	-1.211	0.693	1.655	1.252	0.984	0.890	-0.989	-1.182	-4.168	-8.533	0.582	1.578	-2.975	1.141	1.544	0.790	1.771	1.186	1.639	1.683	1.842	1.388	2.347	-1.065	-0.792	-5.172	101.562
-3.695	0.601	-1.181	0.819	1.890	1.362	1.083	0.302	-1.805	-1.367	-4.895	-8.621	1.120	2.131	-2.854	1.419	1.707	0.785	2.090	1.611	2.149	2.042	2.010	1.841	2.268	-1.010	-0.378	-4.895	105.469
-3.868	0.634	-1.193	0.976	2.156	1.446	1.183	-0.354	-2.637	-1.507	-5.505	-8.482	1.660	2.666	-2.636	1.713	1.883	0.779	2.405	2.046	2.656	2.378	2.135	2.246	2.113	-0.984	0.015	-4.539	109.375
-3.922	0.716	-1.260	1.153	2.432	1.482	1.273	-1.067	-3.446	-1.598	-5.966	-8.133	2.178	3.156	-2.346	2.010	2.083	0.771	2.714	2.471	3.134	2.686	2.223	2.593	1.906	-0.972	0.385	-4.122	113.281
-3.836	0.844	-1.379	1.328	2.686	1.444	1.339	-1.820	-4.192	-1.637	-6.257	-7.598	2.652	3.571	-2.014	2.293	2.308	0.758	3.006	2.859	3.553	2.954	2.274	2.882	1.678	-0.949	0.736	-3.653	117.188
-3.598	1.003	-1.532	1.474	2.881	1.312	1.369	-2.590	-4.841	-1.628	-6.362	-6.908	3.059	3.883	-1.671	2.545	2.552	0.744	3.263	3.185	3.883	3.165	2.288	3.113	1.461	-0.885	1.074	-3.141	121.094
-3.214	1.174	-1.691	1.565	2.984	1.076	1.351	-3.349	-5.360	-1.577	-6.280	-6.097	3.378	4.071	-1.338	2.751	2.796	0.730	3.460	3.424	4.099	3.303	2.260	3.287	1.280	-0.758	1.404	-2.591	125.000
-2.707	1.336	-1.825	1.582	2.970	0.741	1.281	-4.061	-5.727	-1.493	-6.016	-5.202	3.589	4.120	-1.030	2.897	3.016	0.718	3.573	3.558	4.183	3.348	2.178	3.403	1.156	-0.555	1.722	-2.012	128.906
-2.117	1.468	-1.906	1.518	2.830	0.327	1.160	-4.690	-5.926	-1.388	-5.589	-4.260	3.681	4.025	-0.749	2.977	3.181	0.707	3.579	3.580	4.131	3.284	2.035	3.457	1.096	-0.276	2.020	-1.415	132.812
-1.494	1.557	-1.918	1.379	2.574	-0.127	0.995	-5.198	-5.954	-1.271	-5.023	-3.308	3.644	3.795	-0.491	2.987	3.264	0.691	3.462	3.493	3.948	3.104	1.821	3.440	1.098	0.064	2.283	-0.815	136.719
-0.895	1.591	-1.855	1.180	2.226	-0.576	0.801	-5.556	-5.816	-1.147	-4.350	-2.379	3.479	3.445	-0.246	2.927	3.242	0.660	3.218	3.307	3.648	2.806	1.533	3.343	1.151	0.443	2.489	-0.230	140.625
-0.367	1.569	-1.723	0.946	1.824	-0.969	0.594	-5.740	-5.527	-1.018	-3.603	-1.501	3.193	3.000	-0.005	2.801	3.104	0.604	2.855	3.039	3.255	2.399	1.175	3.158	1.236	0.832	2.621	0.321	144.531
0.053	1.493	-1.535	0.702	1.411	-1.262	0.395	-5.743	-5.110	-0.885	-2.816	-0.700	2.802	2.488	0.237	2.613	2.852	0.517	2.390	2.709	2.792	1.900	0.757	2.883	1.330	1.199	2.658	0.817	148.438
0.350	1.376	-1.311	0.472	1.026	-1.425	0.221	-5.568	-4.591	-0.743	-2.021	0.006	2.323	1.935	0.476	2.370	2.500	0.396	1.854	2.336	2.282	1.334	0.300	2.519	1.409	1.518	2.590	1.237	152.344
0.527	1.231	-1.068	0.273	0.703	-1.444	0.088	-5.227	-3.997	-0.589	-1.243	0.605	1.779	1.364	0.704	2.078	2.073	0.245	1.276	1.933	1.744	0.728	-0.174	2.075	1.454	1.767	2.412	1.567	156.250
0.608	1.077	-0.824	0.115	0.462	-1.325	0.006	-4.741	-3.352	-0.418	-0.501	1.093	1.196	0.792	0.902	1.743	1.599	0.073	0.687	1.508	1.189	0.111	-0.637	1.568	1.450	1.935	2.127	1.793	160.156
0.626	0.927	-0.589	-0.003	0.309	-1.091	-0.022	-4.135	-2.674	-0.224	0.194	1.475	0.597	0.231	1.050	1.371	1.106	-0.105	0.110	1.062	0.625	-0.493	-1.064	1.020	1.395	2.018	1.753	1.915	164.062
0.619	0.791	-0.369	-0.088	0.236	-0.779	0.006	-3.437	-1.974	-0.004	0.840	1.764	0.006	-0.312	1.131	0.966	0.616	-0.275	-0.438	0.589	0.057	-1.062	-1.437	0.457	1.292	2.024	1.312	1.939	167.969
0.622	0.669	-0.168	-0.157	0.228	-0.431	0.085	-2.672	-1.258	0.245	1.440	1.980	-0.555	-0.832	1.129	0.534	0.143	-0.423	-0.949	0.084	-0.511	-1.582	-1.743	-0.093	1.158	1.968	0.839	1.880	171.875
0.658	0.557	0.015	-0.224	0.262	-0.088	0.206	-1.869	-0.528	0.522	1.999	2.145	-1.065	-1.322	1.038	0.080	-0.306	-0.540	-1.421	-0.453	-1.071	-2.041	-1.977	-0.601	1.011	1.872	0.369	1.763	175.781
0.735	0.446	0.179	-0.304	0.315	0.213	0.360	-1.057	0.211	0.825	2.524	2.281	-1.505	-1.771	0.863	-0.389	-0.730	-0.626	-1.854	-1.019	-1.610	-2.431	-2.140	-1.041	0.873	1.761	-0.058	1.618	179.688
0.848	0.323	0.318	-0.405	0.369	0.448	0.538	-0.266	0.946	1.146	3.017	2.407	-1.859	-2.166	0.615	-0.862	-1.130	-0.686	-2.250	-1.598	-2.110	-2.747	-2.237	-1.390	0.763	1.659	-0.404	1.476	183.594
0.980	0.177	0.419	-0.530	0.411	0.606	0.729	0.472	1.662	1.475	3.476	2.535	-2.114	-2.486	0.318	-1.326	-1.508	-0.736	-2.605	-2.168	-2.552	-2.984	-2.275	-1.631	0.697	1.591	-0.640	1.367	187.500
1.105	0.003	0.469	-0.674	0.436	0.692	0.926	1.130	2.330	1.798	3.892	2.669	-2.261	-2.716	-0.004	-1.766	-1.864	-0.792	-2.917	-2.701	-2.914	-3.142	-2.265	-1.752	0.683	1.572	-0.746	1.314	191.406
1.196	-0.199	0.455	-0.831	0.442	0.720	1.120	1.681	2.921	2.101	4.252	2.806	-2.295	-2.839	-0.323	-2.169	-2.196	-0.876	-3.181	-3.170	-3.178	-3.218	-2.214	-1.750	0.725	1.613	-0.715	1.332	195.312
1.228	-0.425	0.370	-0.988	0.434	0.708	1.305	2.108	3.406	2.368	4.540	2.935	-2.222	-2.850	-0.613	-2.520	-2.497	-1.003	-3.390	-3.548	-3.333	-3.215	-2.130	-1.630	0.816	1.715	-0.554	1.422	199.219
1.184	-0.662	0.217	-1.139	0.415	0.676	1.473	2.399	3.760	2.587	4.743	3.043	-2.052	-2.751	-0.854	-2.811	-2.758	-1.183	-3.541	-3.819	-3.374	-3.137	-2.021	-1.405	0.950	1.872	-0.283	1.577	203.125
1.060	-0.898	0.009	-1.275	0.387	0.636	1.620	2.556	3.967	2.749	4.851	3.115	-1.805	-2.553	-1.036	-3.035	-2.972	-1.414	-3.630	-3.976	-3.310	-2.993	-1.893	-1.094	1.115	2.072	0.066	1.780	207.031
0.861	-1.119	-0.233	-1.394	0.350	0.595	1.739	2.591	4.028	2.852	4.860	3.140	-1.504	-2.278	-1.154	-3.195	-3.131	-1.682	-3.659	-4.024	-3.153	-2.792	-1.753	-0.719	1.300	2.300	0.457	2.008	210.938
0.598	-1.317	-0.486	-1.500	0.304	0.549	1.830	2.525	3.955	2.898	4.778	3.113	-1.173	-1.950	-1.213	-3.295	-3.231	-1.964	-3.634	-3.977	-2.924	-2.550	-1.608	-0.307	1.492	2.538	0.854	2.233	214.844
0.285	-1.487	-0.733	-1.597	0.247	0.492	1.894	2.394	3.777	2.897	4.620	3.036	-0.837	-1.598	-1.220	-3.347	-3.276	-2.234	-3.562	-3.860	-2.650	-2.284	-1.465	0.113	1.683	2.768	1.221	2.434	218.750
-0.059	-1.631	-0.963	-1.690	0.181	0.411	1.936	2.236	3.535	2.863	4.411	2.917	-0.516	-1.246	-1.191	-3.366	-3.279	-2.464	-3.459	-3.700	-2.357	-2.015	-1.338	0.513	1.866	2.975	1.533	2.591	222.656
-0.416	-1.752	-1.176	-1.783	0.107	0.301	1.969	2.096	3.279	2.818	4.182	2.774	-0.226	-0.917	-1.143	-3.370	-3.259	-2.637	-3.343	-3.531	-2.072	-1.769	-1.240	0.869	2.035	3.147	1.773	2.695	226.562
-0.766	-1.860	-1.379	-1.878	0.033	0.164	2.004	2.017	3.061	2.786	3.966	2.625	0.024	-0.628	-1.097	-3.378	-3.245	-2.748	-3.237	-3.383	-1.820	-1.568	-1.190	1.159	2.188	3.279	1.933	2.747	230.469
-1.084	-1.964	-1.582	-1.976	-0.034	0.013	2.058	2.034	2.932	2.788	3.799	2.493	0.229	-0.390	-1.077	-3.411	-3.266	-2.809	-3.167	-3.281	-1.619	-1.437	-1.203	1.370	2.321	3.369	2.018	2.755	234.375
-1.347	-2.074	-1.795	-2.074	-0.083	-0.132	2.143	2.170	2.927	2.845	3.707	2.398	0.391	-0.207	-1.101	-3.484	-3.350	-2.845	-3.156	-3.246	-1.484	-1.392	-1.294	1.493	2.432	3.423	2.038	2.736	238.281
-1.538	-2.197	-2.018	-2.170	-0.103	-0.242	2.272	2.433	3.065	2.966	3.710	2.355	0.517	-0.078	-1.186	-3.607	-3.517	-2.891	-3.218	-3.283	-1.417	-1.440	-1.468	1.529	2.518	3.447	2.009	2.707	242.188
-1.644	-2.336	-2.244	-2.257	-0.085	-0.291	2.450	2.813	3.345	3.154	3.811	2.373	0.615	0.002	-1.337	-3.783	-3.771	-2.983	-3.359	-3.389	-1.414	-1.580	-1.722	1.486	2.573	3.450	1.948	2.684	246.094
-1.668	-2.487	-2.457	-2.329	-0.023	-0.263	2.675	3.285	3.742	3.399	4.003	2.450	0.694	0.044	-1.550	-4.003	-4.101	-3.150	-3.571	-3.548	-1.461	-1.796	-2.041	1.377	2.597	3.440	1.871	2.677	250.000
-1.622	-2.640	-2.633	-2.381	0.086	-0.149	2.940	3.813	4.219	3.684	4.262	2.576	0.762	0.060	-1.811	-4.249	-4.481	-3.404	-3.835	-3.736	-1.540	-2.065	-2.405	1.219	2.588	3.423	1.788	2.688	253.906
-1.530	-2.784	-2.755	-2.408	0.236	0.041	3.231	4.352	4.727	3.987	4.561	2.737	0.823	0.064	-2.099	-4.500	-4.875	-3.743	-4.127	-3.925	-1.629	-2.356	-2.786	1.030	2.549	3.402	1.708	2.717	257.812
-1.421	-2.904	-2.814	-2.409	0.419	0.287	3.530	4.863	5.220	4.285	4.871	2.916	0.881	0.066	-2.387	-4.733	-5.246	-4.143	-4.418	-4.091	-1.708	-2.640	-3.157	0.830	2.489	3.381	1.636	2.757	261.719
-1.326	-2.992	-2.813	-2.385	0.621	0.562	3.819	5.311	5.658	4.558	5.164	3.096	0.934	0.076	-2.650	-4.928	-5.560	-4.571	-4.682	-4.214	-1.764	-2.891	-3.493	0.637	2.415	3.361	1.573	2.802	265.625
-1.269	-3.041	-2.768	-2.337	0.826	0.835	4.080	5.675	6.017	4.791	5.424	3.266	0.979	0.097	-2.866	-5.073	-5.796	-4.989	-4.899	-4.286	-1.790	-3.089	-3.773	0.464	2.340	3.343	1.520	2.847	269.531
-1.269	-3.048	-2.703	-2.272	1.018	1.077	4.299	5.944	6.287	4.977	5.638	3.417	1.013	0.129	-3.019	-5.162	-5.939	-5.358	-5.054	-4.309	-1.787	-3.226	-3.982	0.322	2.270	3.327	1.474	2.890	273.438
-1.330	-3.016	-2.638	-2.192	1.184	1.265	4.465	6.122	6.470	5.112	5.805	3.545	1.029	0.166	-3.101	-5.194	-5.987	-5.648	-5.137	-4.289	-1.762	-3.298	-4.111	0.214	2.211	3.313	1.432	2.926	277.344
-1.448	-2.950	-2.590	-2.105	1.312	1.382	4.570	6.215	6.578	5.197	5.924	3.643	1.024	0.202	-3.114	-5.174	-5.942	-5.837	-5.142	-4.236	-1.723	-3.309	-4.161	0.142	2.161	3.298	1.392	2.954	281.250
-1.607	-2.857	-2.568	-2.013	1.399	1.419	4.614	6.238	6.625	5.235	5.997	3.709	0.995	0.228	-3.070	-5.107	-5.810	-5.918	-5.066	-4.159	-1.680	-3.264	-4.132	0.101	2.119	3.280	1.348	2.971	285.156
-1.785	-2.747	-2.571	-1.923	1.444	1.374	4.601	6.202	6.625	5.233	6.026	3.737	0.944	0.243	-2.987	-4.997	-5.599	-5.892	-4.910	-4.063	-1.636	-3.168	-4.031	0.088	2.080	3.257	1.301	2.974	289.062
-1.960	-2.632	-2.596	-1.842	1.455	1.247	4.543	6.121	6.592	5.197	6.014	3.722	0.877	0.246	-2.888	-4.853	-5.318	-5.773	-4.675	-3.949	-1.592	-3.025	-3.862	0.104	2.045	3.230	1.251	2.963	292.969
-2.113	-2.528	-2.643	-1.775	1.442	1.043	4.455	6.006	6.535	5.136	5.962	3.662	0.807	0.244	-2.800	-4.680	-4.982	-5.584	-4.370	-3.816	-1.541	-2.834	-3.630	0.151	2.021	3.205	1.204	2.937	296.875
-2.237	-2.446	-2.712	-1.728	1.416	0.774	4.356	5.867	6.460	5.055	5.872	3.555	0.748	0.248	-2.742	-4.487	-4.607	-5.354	-4.006	-3.663	-1.475	-2.594	-3.336	0.238	2.021	3.187	1.171	2.899	300.781
-2.330	-2.398	-2.808	-1.705	1.389	0.458	4.266	5.715	6.372	4.963	5.746	3.403	0.714	0.270	-2.732	-4.285	-4.215	-5.116	-3.601	-3.490	-1.385	-2.303	-2.982	0.375	2.061	3.186	1.161	2.853	304.688
-2.402	-2.387	-2.932	-1.707	1.371	0.121	4.200	5.559	6.270	4.865	5.587	3.210	0.717	0.323	-2.775	-4.083	-3.828	-4.902	-3.173	-3.298	-1.263	-1.962	-2.574	0.572	2.152	3.207	1.185	2.802	308.594
-2.463	-2.413	-3.083	-1.728	1.368	-0.203	4.171	5.410	6.156	4.766	5.399	2.980	0.766	0.415	-2.868	-3.888	-3.468	-4.742	-2.746	-3.091	-1.107	-1.579	-2.122	0.830	2.299	3.251	1.252	2.748	312.500
-2.528	-2.469	-3.251	-1.764	1.387	-0.478	4.182	5.279	6.030	4.669	5.190	2.723	0.861	0.551	-3.002	-3.707	-3.154	-4.656	-2.341	-2.878	-0.918	-1.166	-1.646	1.147	2.494	3.315	1.362	2.690	316.406
-2.606	-2.545	-3.422	-1.805	1.426	-0.673	4.234	5.174	5.892	4.578	4.970	2.448	1.000	0.728	-3.164	-3.544	-2.901	-4.654	-1.980	-2.665	-0.703	-0.744	-1.171	1.509	2.721	3.389	1.513	2.626	320.312
-2.703	-2.629	-3.576	-1.844	1.487	-0.770	4.320	5.101	5.746	4.497	4.752	2.169	1.178	0.941	-3.337	-3.403	-2.716	-4.729	-1.679	-2.462	-0.472	-0.336	-0.726	1.893	2.952	3.460	1.694	2.556	324.219
-2.821	-2.707	-3.695	-1.870	1.566	-0.763	4.430	5.063	5.597	4.433	4.554	1.903	1.384	1.177	-3.505	-3.283	-2.602	-4.859	-1.448	-2.277	-0.241	0.031	-0.342	2.274	3.159	3.514	1.893	2.477	328.125
-2.958	-2.767	-3.767	-1.879	1.658	-0.665	4.556	5.062	5.456	4.393	4.394	1.669	1.609	1.420	-3.657	-3.186	-2.553	-5.017	-1.294	-2.119	-0.024	0.333	-0.045	2.623	3.312	3.537	2.092	2.393	332.031
-3.107	-2.802	-3.791	-1.868	1.757	-0.499	4.687	5.095	5.335	4.385	4.294	1.491	1.843	1.652	-3.784	-3.113	-2.558	-5.168	-1.214	-1.995	0.161	0.549	0.146	2.911	3.386	3.520	2.273	2.307	335.938
-3.257	-2.806	-3.772	-1.836	1.857	-0.298	4.818	5.162	5.253	4.417	4.270	1.389	2.073	1.856	-3.883	-3.067	-2.603	-5.289	-1.205	-1.909	0.300	0.662	0.220	3.119	3.367	3.458	2.421	2.229	339.844
-3.393	-2.782	-3.725	-1.792	1.951	-0.094	4.947	5.264	5.228	4.497	4.339	1.384	2.289	2.016	-3.956	-3.052	-2.675	-5.365	-1.258	-1.867	0.380	0.666	0.174	3.232	3.249	3.352	2.523	2.169	343.750
-3.499	-2.736	-3.666	-1.745	2.030	0.086	5.076	5.402	5.277	4.628	4.506	1.490	2.482	2.119	-4.011	-3.072	-2.768	-5.397	-1.367	-1.874	0.391	0.560	0.018	3.246	3.041	3.211	2.571	2.138	347.656
-3.560	-2.680	-3.604	-1.707	2.092	0.225	5.207	5.579	5.409	4.808	4.769	1.710	2.641	2.158	-4.055	-3.134	-2.878	-5.402	-1.527	-1.934	0.333	0.354	-0.232	3.166	2.762	3.048	2.566	2.149	351.562
-3.565	-2.627	-3.542	-1.689	2.132	0.318	5.340	5.793	5.625	5.029	5.109	2.036	2.759	2.132	-4.096	-3.239	-3.010	-5.401	-1.733	-2.046	0.207	0.065	-0.550	3.008	2.440	2.881	2.509	2.207	355.469
-3.513	-2.589	-3.474	-1.694	2.155	0.370	5.473	6.039	5.907	5.271	5.495	2.440	2.827	2.046	-4.139	-3.389	-3.169	-5.421	-1.979	-2.206	0.026	-0.279	-0.906	2.791	2.112	2.728	2.409	2.313	359.375
-3.408	-2.575	-3.394	-1.720	2.167	0.396	5.597	6.305	6.224	5.509	5.882	2.882	2.844	1.912	-4.187	-3.577	-3.358	-5.481	-2.253	-2.404	-0.190	-0.648	-1.263	2.542	1.814	2.608	2.278	2.458	363.281
-3.263	-2.587	-3.295	-1.759	2.179	0.417	5.701	6.571	6.537	5.713	6.221	3.310	2.812	1.749	-4.240	-3.793	-3.575	-5.588	-2.540	-2.621	-0.417	-1.004	-1.585	2.287	1.580	2.533	2.130	2.626	367.188
-3.095	-2.626	-3.178	-1.801	2.200	0.452	5.775	6.815	6.801	5.855	6.461	3.666	2.738	1.579	-4.296	-4.024	-3.812	-5.733	-2.818	-2.841	-0.628	-1.315	-1.837	2.052	1.433	2.509	1.979	2.793	371.094
-2.922	-2.688	-3.051	-1.839	2.236	0.520	5.810	7.013	6.980	5.913	6.564	3.901	2.636	1.427	-4.354	-4.253	-4.052	-5.896	-3.064	-3.042	-0.799	-1.549	-1.992	1.859	1.381	2.533	1.839	2.934	375.000
-2.759	-2.769	-2.923	-1.868	2.290	0.632	5.803	7.149	7.047	5.877	6.510	3.979	2.523	1.311	-4.411	-4.467	-4.281	-6.046	-3.255	-3.210	-0.912	-1.687	-2.036	1.721	1.417	2.596	1.721	3.025	378.906
-2.611	-2.865	-2.804	-1.891	2.352	0.792	5.755	7.212	6.994	5.749	6.299	3.888	2.415	1.244	-4.465	-4.654	-4.482	-6.153	-3.374	-3.337	-0.959	-1.723	-1.969	1.646	1.523	2.681	1.632	3.048	382.812
-2.481	-2.971	-2.697	-1.915	2.412	0.996	5.673	7.198	6.829	5.545	5.955	3.642	2.327	1.230	-4.513	-4.806	-4.643	-6.192	-3.417	-3.419	-0.945	-1.663	-1.804	1.629	1.670	2.770	1.576	3.000	386.719
-2.363	-3.080	-2.601	-1.945	2.454	1.232	5.565	7.115	6.574	5.288	5.521	3.282	2.266	1.265	-4.550	-4.924	-4.760	-6.149	-3.388	-3.463	-0.882	-1.525	-1.567	1.663	1.829	2.846	1.554	2.890	390.625
-2.253	-3.184	-2.510	-1.989	2.466	1.479	5.441	6.972	6.259	5.004	5.047	2.870	2.236	1.335	-4.566	-5.009	-4.830	-6.024	-3.299	-3.478	-0.790	-1.334	-1.289	1.732	1.974	2.900	1.565	2.742	394.531
-2.150	-3.277	-2.423	-2.051	2.440	1.716	5.308	6.781	5.914	4.720	4.588	2.478	2.233	1.423	-4.548	-5.068	-4.858	-5.831	-3.170	-3.478	-0.693	-1.119	-1.003	1.822	2.090	2.930	1.604	2.591	398.438
-2.058	-3.356	-2.345	-2.133	2.375	1.917	5.171	6.552	5.569	4.457	4.192	2.178	2.249	1.508	-4.484	-5.110	-4.852	-5.591	-3.023	-3.476	-0.613	-0.906	-0.737	1.917	2.172	2.944	1.669	2.478	402.344
-1.984	-3.420	-2.286	-2.233	2.279	2.063	5.030	6.298	5.248	4.229	3.894	2.023	2.273	1.570	-4.361	-5.147	-4.823	-5.334	-2.880	-3.483	-0.566	-0.719	-0.513	2.008	2.228	2.957	1.757	2.438	406.250
-1.936	-3.476	-2.258	-2.348	2.162	2.140	4.882	6.024	4.963	4.041	3.712	2.041	2.293	1.597	-4.175	-5.190	-4.782	-5.088	-2.761	-3.509	-0.564	-0.571	-0.339	2.084	2.270	2.984	1.863	2.493	410.156
-1.915	-3.528	-2.272	-2.473	2.040	2.145	4.724	5.740	4.721	3.890	3.645	2.225	2.298	1.579	-3.932	-5.245	-4.744	-4.875	-2.678	-3.558	-0.607	-0.470	-0.216	2.139	2.314	3.040	1.978	2.644	414.062
-1.916	-3.584	-2.329	-2.601	1.927	2.085	4.553	5.452	4.519	3.765	3.671	2.537	2.281	1.519	-3.648	-5.317	-4.715	-4.703	-2.637	-3.629	-0.688	-0.412	-0.137	2.171	2.372	3.126	2.091	2.870	417.969
-1.926	-3.643	-2.416	-2.722	1.836	1.974	4.367	5.167	4.350	3.654	3.758	2.909	2.237	1.425	-3.353	-5.401	-4.698	-4.573	-2.632	-3.715	-0.792	-0.391	-0.086	2.178	2.449	3.235	2.186	3.130	421.875
-1.933	-3.702	-2.514	-2.825	1.778	1.835	4.170	4.892	4.207	3.545	3.865	3.261	2.164	1.313	-3.077	-5.487	-4.689	-4.475	-2.649	-3.801	-0.898	-0.391	-0.048	2.158	2.540	3.347	2.245	3.368	425.781
-1.924	-3.751	-2.596	-2.896	1.759	1.693	3.971	4.638	4.080	3.428	3.950	3.514	2.067	1.202	-2.850	-5.559	-4.675	-4.392	-2.666	-3.872	-0.984	-0.397	-0.008	2.112	2.630	3.434	2.250	3.527	429.688
-1.894	-3.776	-2.635	-2.924	1.785	1.572	3.780	4.410	3.964	3.302	3.983	3.609	1.949	1.109	-2.695	-5.599	-4.643	-4.309	-2.660	-3.907	-1.030	-0.393	0.047	2.040	2.698	3.465	2.183	3.556	433.594
-1.840	-3.763	-2.612	-2.899	1.856	1.492	3.614	4.218	3.855	3.169	3.945	3.515	1.819	1.049	-2.620	-5.590	-4.580	-4.211	-2.612	-3.890	-1.023	-0.369	0.121	1.941	2.720	3.413	2.036	3.428	437.500
-1.766	-3.699	-2.518	-2.816	1.969	1.465	3.486	4.064	3.752	3.040	3.836	3.237	1.683	1.027	-2.621	-5.522	-4.479	-4.091	-2.511	-3.814	-0.958	-0.319	0.212	1.816	2.674	3.264	1.808	3.139	441.406
-1.678	-3.578	-2.359	-2.677	2.114	1.497	3.409	3.952	3.653	2.928	3.672	2.813	1.549	1.045	-2.679	-5.397	-4.339	-3.948	-2.356	-3.680	-0.843	-0.245	0.316	1.667	2.551	3.017	1.510	2.711	445.312
-1.584	-3.403	-2.151	-2.493	2.281	1.584	3.388	3.880	3.559	2.844	3.484	2.304	1.423	1.093	-2.771	-5.225	-4.167	-3.789	-2.161	-3.502	-0.694	-0.154	0.420	1.501	2.353	2.690	1.163	2.193	449.219
-1.489	-3.186	-1.921	-2.280	2.454	1.718	3.424	3.844	3.472	2.801	3.305	1.786	1.312	1.160	-2.869	-5.028	-3.982	-3.627	-1.948	-3.300	-0.532	-0.057	0.516	1.325	2.097	2.316	0.799	1.645	453.125
-1.401	-2.948	-1.698	-2.057	2.619	1.883	3.510	3.838	3.392	2.802	3.167	1.328	1.218	1.233	-2.950	-4.833	-3.805	-3.475	-1.743	-3.101	-0.381	0.030	0.595	1.154	1.814	1.939	0.454	1.134	457.031
-1.324	-2.714	-1.506	-1.843	2.766	2.065	3.632	3.853	3.320	2.844	3.093	0.988	1.147	1.300	-3.000	-4.668	-3.664	-3.347	-1.576	-2.934	-0.262	0.094	0.650	1.001	1.540	1.606	0.163	0.720	460.938
-1.258	-2.510	-1.366	-1.652	2.890	2.245	3.772	3.876	3.254	2.918	3.089	0.800	1.099	1.354	-3.012	-4.556	-3.584	-3.253	-1.471	-2.817	-0.187	0.127	0.682	0.882	1.312	1.363	-0.042	0.451	464.844
-1.197	-2.358	-1.287	-1.491	2.992	2.411	3.910	3.894	3.191	3.007	3.146	0.771	1.078	1.392	-2.992	-4.509	-3.583	-3.202	-1.444	-2.762	-0.159	0.125	0.692	0.811	1.158	1.241	-0.141	0.350	468.750
-1.131	-2.270	-1.264	-1.364	3.077	2.550	4.027	3.893	3.125	3.092	3.241	0.886	1.083	1.418	-2.950	-4.527	-3.669	-3.195	-1.497	-2.767	-0.171	0.092	0.686	0.794	1.091	1.255	-0.125	0.420	472.656
-1.045	-2.249	-1.285	-1.268	3.151	2.657	4.107	3.861	3.050	3.155	3.343	1.111	1.113	1.438	-2.900	-4.598	-3.838	-3.235	-1.620	-2.822	-0.208	0.037	0.669	0.834	1.110	1.400	-0.001	0.642	476.562
-0.922	-2.284	-1.325	-1.199	3.218	2.727	4.139	3.791	2.960	3.182	3.423	1.403	1.167	1.459	-2.857	-4.704	-4.073	-3.319	-1.793	-2.907	-0.251	-0.028	0.646	0.923	1.196	1.649	0.213	0.981	480.469
-0.744	-2.363	-1.357	-1.153	3.281	2.764	4.119	3.682	2.853	3.165	3.457	1.719	1.236	1.487	-2.830	-4.818	-4.344	-3.439	-1.988	-2.997	-0.283	-0.092	0.619	1.046	1.320	1.964	0.488	1.388	484.375
-0.506	-2.467	-1.352	-1.126	3.338	2.771	4.049	3.539	2.729	3.105	3.433	2.022	1.312	1.523	-2.823	-4.916	-4.618	-3.587	-2.175	-3.072	-0.294	-0.147	0.586	1.184	1.448	2.296	0.787	1.813	488.281
-0.213	-2.580	-1.287	-1.116	3.383	2.755	3.936	3.372	2.595	3.009	3.354	2.282	1.385	1.565	-2.831	-4.979	-4.861	-3.744	-2.331	-3.113	-0.276	-0.189	0.545	1.313	1.546	2.597	1.075	2.206	492.188
0.109	-2.688	-1.151	-1.122	3.413	2.726	3.793	3.199	2.461	2.891	3.233	2.485	1.444	1.609	-2.845	-4.994	-5.044	-3.894	-2.437	-3.109	-0.231	-0.218	0.491	1.409	1.586	2.827	1.317	2.525	496.094
0.423	-2.777	-0.948	-1.139	3.425	2.696	3.637	3.035	2.339	2.769	3.091	2.624	1.481	1.650	-2.849	-4.956	-5.147	-4.018	-2.484	-3.058	-0.163	-0.237	0.425	1.455	1.552	2.955	1.487	2.741	500.000
0.683	-2.833	-0.700	-1.158	3.424	2.677	3.485	2.898	2.241	2.660	2.948	2.702	1.491	1.682	-2.827	-4.866	-5.162	-4.105	-2.472	-2.959	-0.081	-0.248	0.347	1.437	1.436	2.967	1.567	2.837	503.906
0.851	-2.840	-0.441	-1.166	3.418	2.678	3.354	2.799	2.177	2.576	2.822	2.725	1.472	1.701	-2.768	-4.729	-5.090	-4.153	-2.405	-2.819	0.008	-0.254	0.261	1.353	1.244	2.863	1.551	2.811	507.812
0.906	-2.785	-0.217	-1.149	3.422	2.706	3.255	2.744	2.150	2.526	2.726	2.705	1.427	1.708	-2.667	-4.553	-4.942	-4.169	-2.292	-2.644	0.099	-0.255	0.174	1.206	0.989	2.659	1.440	2.673	511.719
0.846	-2.659	-0.071	-1.092	3.448	2.762	3.195	2.730	2.157	2.510	2.664	2.651	1.359	1.704	-2.526	-4.345	-4.732	-4.168	-2.144	-2.440	0.190	-0.248	0.096	1.010	0.692	2.379	1.245	2.442	515.625
0.688	-2.464	-0.035	-0.989	3.508	2.842	3.174	2.749	2.190	2.523	2.633	2.570	1.276	1.692	-2.354	-4.116	-4.479	-4.167	-1.970	-2.217	0.281	-0.227	0.038	0.782	0.377	2.051	0.985	2.145	519.531
0.465	-2.214	-0.122	-0.840	3.603	2.934	3.183	2.787	2.234	2.552	2.625	2.468	1.183	1.677	-2.164	-3.877	-4.204	-4.177	-1.782	-1.981	0.372	-0.185	0.011	0.543	0.071	1.706	0.678	1.809	523.438
0.218	-1.933	-0.322	-0.657	3.729	3.027	3.210	2.827	2.277	2.581	2.629	2.347	1.083	1.664	-1.971	-3.638	-3.922	-4.200	-1.586	-1.742	0.465	-0.116	0.023	0.312	-0.205	1.367	0.349	1.459	527.344
-0.006	-1.654	-0.600	-0.458	3.872	3.105	3.238	2.854	2.302	2.595	2.632	2.205	0.981	1.655	-1.792	-3.408	-3.646	-4.228	-1.388	-1.507	0.561	-0.016	0.078	0.104	-0.436	1.053	0.016	1.113	531.250
-0.163	-1.413	-0.904	-0.265	4.013	3.156	3.249	2.854	2.297	2.577	2.621	2.040	0.877	1.654	-1.638	-3.193	-3.383	-4.238	-1.189	-1.281	0.662	0.120	0.181	-0.069	-0.616	0.770	-0.305	0.784	535.156
-0.215	-1.235	-1.175	-0.098	4.136	3.169	3.228	2.816	2.249	2.512	2.586	1.848	0.771	1.660	-1.521	-2.994	-3.131	-4.204	-0.986	-1.067	0.768	0.290	0.332	-0.204	-0.748	0.518	-0.604	0.473	539.062
-0.145	-1.135	-1.359	0.028	4.225	3.140	3.165	2.734	2.152	2.394	2.517	1.624	0.663	1.672	-1.446	-2.809	-2.887	-4.100	-0.775	-0.865	0.880	0.494	0.528	-0.299	-0.839	0.292	-0.875	0.179	542.969
0.044	-1.109	-1.422	0.109	4.271	3.067	3.054	2.605	2.003	2.220	2.411	1.368	0.552	1.686	-1.408	-2.633	-2.645	-3.907	-0.551	-0.673	0.998	0.723	0.767	-0.359	-0.901	0.086	-1.115	-0.103	546.875
0.320	-1.141	-1.355	0.151	4.273	2.957	2.899	2.429	1.805	1.998	2.270	1.084	0.441	1.699	-1.398	-2.463	-2.401	-3.621	-0.315	-0.491	1.119	0.970	1.040	-0.384	-0.939	-0.100	-1.324	-0.376	550.781
0.632	-1.201	-1.173	0.166	4.233	2.821	2.709	2.212	1.564	1.739	2.101	0.779	0.331	1.707	-1.397	-2.297	-2.161	-3.257	-0.072	-0.322	1.238	1.221	1.336	-0.377	-0.955	-0.260	-1.498	-0.636	554.688
0.916	-1.261	-0.917	0.167	4.161	2.676	2.498	1.961	1.292	1.462	1.917	0.471	0.227	1.710	-1.388	-2.138	-1.933	-2.845	0.167	-0.172	1.348	1.464	1.640	-0.336	-0.940	-0.383	-1.629	-0.875	558.594
1.113	-1.293	-0.639	0.165	4.064	2.542	2.283	1.685	1.002	1.189	1.733	0.177	0.135	1.706	-1.352	-1.994	-1.731	-2.423	0.386	-0.050	1.440	1.685	1.936	-0.256	-0.883	-0.450	-1.709	-1.078	562.500
1.182	-1.284	-0.390	0.165	3.953	2.434	2.079	1.394	0.708	0.936	1.560	-0.082	0.059	1.694	-1.276	-1.874	-1.569	-2.033	0.572	0.033	1.505	1.875	2.206	-0.136	-0.771	-0.446	-1.731	-1.229	566.406
1.107	-1.229	-0.213	0.161	3.831	2.363	1.895	1.096	0.419	0.716	1.409	-0.288	0.001	1.675	-1.155	-1.788	-1.457	-1.706	0.715	0.067	1.534	2.028	2.437	0.024	-0.596	-0.360	-1.687	-1.312	570.312
0.908	-1.138	-0.133	0.144	3.701	2.329	1.733	0.800	0.141	0.532	1.282	-0.428	-0.040	1.648	-0.991	-1.744	-1.396	-1.459	0.813	0.047	1.522	2.144	2.623	0.218	-0.356	-0.191	-1.580	-1.319	574.219
0.631	-1.025	-0.156	0.099	3.559	2.322	1.589	0.510	-0.126	0.380	1.178	-0.496	-0.067	1.610	-0.792	-1.744	-1.378	-1.294	0.872	-0.027	1.467	2.229	2.764	0.431	-0.063	0.055	-1.417	-1.248	578.125
0.344	-0.907	-0.270	0.019	3.403	2.325	1.453	0.229	-0.385	0.248	1.089	-0.495	-0.088	1.557	-0.574	-1.783	-1.388	-1.196	0.906	-0.147	1.371	2.290	2.866	0.645	0.260	0.356	-1.214	-1.108	582.031
0.120	-0.799	-0.450	-0.100	3.232	2.319	1.311	-0.040	-0.637	0.117	1.004	-0.440	-0.112	1.487	-0.353	-1.850	-1.402	-1.142	0.929	-0.298	1.244	2.336	2.941	0.835	0.582	0.688	-0.995	-0.915	585.938
0.020	-0.711	-0.663	-0.246	3.049	2.292	1.153	-0.293	-0.885	-0.029	0.912	-0.349	-0.147	1.398	-0.147	-1.927	-1.396	-1.105	0.960	-0.459	1.100	2.372	3.000	0.976	0.865	1.016	-0.788	-0.694	589.844
0.079	-0.645	-0.875	-0.400	2.865	2.240	0.971	-0.524	-1.126	-0.203	0.805	-0.245	-0.201	1.290	0.032	-1.994	-1.350	-1.061	1.010	-0.606	0.956	2.403	3.051	1.048	1.072	1.307	-0.617	-0.475	593.750
0.302	-0.598	-1.056	-0.536	2.697	2.172	0.764	-0.726	-1.354	-0.412	0.678	-0.151	-0.275	1.167	0.178	-2.031	-1.256	-0.991	1.084	-0.715	0.830	2.429	3.101	1.038	1.176	1.533	-0.505	-0.284	597.656
0.663	-0.565	-1.182	-0.627	2.561	2.101	0.539	-0.889	-1.560	-0.654	0.531	-0.082	-0.368	1.036	0.290	-2.023	-1.114	-0.889	1.179	-0.769	0.738	2.448	3.151	0.946	1.164	1.670	-0.466	-0.144	601.562
1.107	-0.536	-1.237	-0.651	2.473	2.047	0.304	-1.006	-1.735	-0.922	0.371	-0.051	-0.476	0.905	0.372	-1.961	-0.937	-0.754	1.284	-0.758	0.690	2.455	3.200	0.779	1.039	1.705	-0.502	-0.068	605.469
1.570	-0.498	-1.212	-0.596	2.441	2.027	0.070	-1.072	-1.872	-1.200	0.208	-0.061	-0.593	0.780	0.434	-1.845	-0.743	-0.595	1.385	-0.683	0.688	2.443	3.244	0.554	0.818	1.636	-0.608	-0.064	609.375
1.986	-0.438	-1.106	-0.462	2.468	2.053	-0.151	-1.084	-1.966	-1.475	0.050	-0.109	-0.715	0.665	0.488	-1.683	-0.556	-0.421	1.466	-0.554	0.724	2.410	3.281	0.292	0.529	1.471	-0.774	-0.128	613.281
2.303	-0.344	-0.921	-0.260	2.544	2.128	-0.354	-1.049	-2.019	-1.732	-0.094	-0.192	-0.838	0.560	0.545	-1.485	-0.393	-0.240	1.516	-0.386	0.787	2.351	3.308	0.016	0.206	1.225	-0.987	-0.254	617.188
2.495	-0.204	-0.664	-0.009	2.653	2.250	-0.538	-0.975	-2.037	-1.965	-0.223	-0.304	-0.963	0.461	0.614	-1.267	-0.267	-0.054	1.530	-0.201	0.859	2.268	3.326	-0.257	-0.119	0.916	-1.235	-0.433	621.094
2.565	-0.014	-0.346	0.263	2.775	2.407	-0.705	-0.877	-2.031	-2.171	-0.340	-0.442	-1.094	0.362	0.697	-1.042	-0.180	0.135	1.509	-0.017	0.922	2.167	3.337	-0.515	-0.421	0.568	-1.510	-0.655	625.000
2.542	0.224	0.022	0.532	2.886	2.584	-0.863	-0.771	-2.015	-2.355	-0.452	-0.603	-1.237	0.256	0.793	-0.822	-0.126	0.326	1.462	0.150	0.964	2.056	3.347	-0.749	-0.680	0.202	-1.805	-0.910	628.906
2.473	0.494	0.419	0.774	2.969	2.759	-1.019	-0.673	-2.002	-2.525	-0.569	-0.782	-1.396	0.139	0.895	-0.614	-0.094	0.518	1.404	0.291	0.977	1.948	3.361	-0.952	-0.883	-0.158	-2.111	-1.187	632.812
2.414	0.776	0.823	0.970	3.011	2.915	-1.180	-0.600	-2.004	-2.689	-0.700	-0.976	-1.570	0.009	0.991	-0.427	-0.074	0.702	1.351	0.401	0.961	1.860	3.386	-1.120	-1.026	-0.491	-2.420	-1.473	636.719
2.410	1.041	1.207	1.111	3.006	3.033	-1.347	-0.564	-2.029	-2.856	-0.847	-1.177	-1.753	-0.127	1.071	-0.266	-0.054	0.870	1.321	0.483	0.920	1.806	3.429	-1.245	-1.104	-0.778	-2.718	-1.754	640.625
2.491	1.263	1.541	1.191	2.957	3.104	-1.515	-0.573	-2.079	-3.027	-1.008	-1.375	-1.935	-0.260	1.123	-0.135	-0.027	1.010	1.328	0.541	0.866	1.801	3.495	-1.321	-1.118	-1.006	-2.989	-2.016	644.531
2.659	1.415	1.797	1.211	2.872	3.121	-1.674	-0.627	-2.151	-3.199	-1.172	-1.560	-2.100	-0.377	1.141	-0.040	0.007	1.117	1.379	0.579	0.810	1.852	3.589	-1.339	-1.069	-1.164	-3.214	-2.243	648.438
2.895	1.477	1.955	1.177	2.761	3.086	-1.807	-0.722	-2.232	-3.360	-1.325	-1.722	-2.230	-0.463	1.122	0.013	0.044	1.186	1.472	0.601	0.765	1.962	3.710	-1.295	-0.961	-1.246	-3.371	-2.424	652.344
3.158	1.438	2.003	1.093	2.633	3.003	-1.897	-0.846	-2.309	-3.494	-1.448	-1.850	-2.308	-0.507	1.069	0.017	0.076	1.223	1.596	0.607	0.738	2.122	3.855	-1.187	-0.800	-1.251	-3.443	-2.544	656.250
3.397	1.295	1.940	0.968	2.500	2.883	-1.927	-0.981	-2.364	-3.580	-1.524	-1.934	-2.320	-0.498	0.987	-0.034	0.092	1.234	1.730	0.594	0.734	2.316	4.012	-1.019	-0.594	-1.180	-3.414	-2.596	660.156
3.565	1.059	1.777	0.807	2.368	2.739	-1.886	-1.111	-2.382	-3.601	-1.541	-1.968	-2.259	-0.434	0.884	-0.142	0.078	1.226	1.851	0.560	0.753	2.522	4.168	-0.801	-0.357	-1.038	-3.279	-2.574	664.062
3.627	0.750	1.534	0.620	2.244	2.584	-1.770	-1.218	-2.355	-3.545	-1.495	-1.951	-2.124	-0.316	0.766	-0.306	0.027	1.206	1.934	0.502	0.790	2.717	4.307	-0.547	-0.105	-0.834	-3.044	-2.480	667.969
3.572	0.399	1.235	0.417	2.135	2.433	-1.587	-1.290	-2.279	-3.412	-1.390	-1.884	-1.927	-0.155	0.644	-0.514	-0.067	1.174	1.963	0.419	0.839	2.881	4.416	-0.275	0.144	-0.582	-2.727	-2.321	671.875
3.408	0.043	0.909	0.209	2.047	2.297	-1.354	-1.321	-2.163	-3.211	-1.239	-1.775	-1.684	0.035	0.526	-0.751	-0.199	1.134	1.930	0.315	0.890	2.998	4.484	-0.003	0.370	-0.302	-2.355	-2.116	675.781
3.164	-0.282	0.581	0.012	1.985	2.182	-1.096	-1.313	-2.020	-2.964	-1.061	-1.635	-1.421	0.235	0.420	-0.994	-0.361	1.089	1.842	0.200	0.936	3.059	4.507	0.247	0.554	-0.018	-1.967	-1.884	679.688
2.878	-0.546	0.281	-0.159	1.953	2.090	-0.843	-1.273	-1.874	-2.701	-0.879	-1.481	-1.166	0.425	0.337	-1.216	-0.535	1.049	1.714	0.084	0.971	3.066	4.488	0.457	0.682	0.243	-1.604	-1.654	683.594
2.590	-0.727	0.031	-0.291	1.952	2.019	-0.625	-1.217	-1.746	-2.455	-0.717	-1.330	-0.946	0.587	0.286	-1.391	-0.698	1.026	1.573	-0.017	0.993	3.024	4.435	0.610	0.743	0.454	-1.302	-1.450	687.500
2.336	-0.813	-0.147	-0.374	1.976	1.966	-0.469	-1.166	-1.662	-2.258	-0.596	-1.203	-0.786	0.705	0.276	-1.496	-0.825	1.037	1.446	-0.091	1.002	2.950	4.360	0.696	0.734	0.594	-1.091	-1.297	691.406
2.144	-0.808	-0.241	-0.405	2.017	1.926	-0.393	-1.140	-1.642	-2.140	-0.536	-1.117	-0.700	0.772	0.313	-1.513	-0.890	1.095	1.361	-0.125	1.001	2.859	4.278	0.708	0.656	0.650	-0.986	-1.210	695.312
2.036	-0.724	-0.247	-0.387	2.063	1.895	-0.407	-1.161	-1.699	-2.121	-0.551	-1.088	-0.694	0.783	0.397	-1.436	-0.874	1.211	1.339	-0.112	0.997	2.770	4.204	0.649	0.520	0.620	-0.990	-1.196	699.219
2.022	-0.582	-0.172	-0.332	2.098	1.870	-0.513	-1.244	-1.842	-2.209	-0.648	-1.124	-0.766	0.744	0.525	-1.267	-0.763	1.384	1.392	-0.047	0.993	2.699	4.149	0.529	0.341	0.514	-1.089	-1.252	703.125
2.102	-0.405	-0.031	-0.254	2.110	1.851	-0.700	-1.396	-2.069	-2.401	-0.829	-1.225	-0.902	0.665	0.688	-1.018	-0.560	1.604	1.521	0.066	0.994	2.659	4.125	0.362	0.136	0.352	-1.255	-1.365	707.031
2.266	-0.213	0.156	-0.168	2.090	1.837	-0.953	-1.615	-2.370	-2.684	-1.088	-1.385	-1.083	0.557	0.877	-0.712	-0.276	1.849	1.717	0.220	1.002	2.654	4.134	0.167	-0.073	0.161	-1.458	-1.515	710.938
2.494	-0.026	0.372	-0.089	2.034	1.827	-1.248	-1.887	-2.729	-3.034	-1.408	-1.585	-1.287	0.435	1.080	-0.376	0.063	2.091	1.958	0.402	1.017	2.680	4.175	-0.036	-0.271	-0.030	-1.662	-1.678	714.844
2.765	0.146	0.602	-0.028	1.945	1.823	-1.563	-2.188	-3.121	-3.421	-1.767	-1.803	-1.494	0.312	1.286	-0.038	0.426	2.302	2.218	0.596	1.035	2.728	4.237	-0.230	-0.444	-0.194	-1.841	-1.830	718.750
3.056	0.295	0.842	0.012	1.831	1.824	-1.875	-2.491	-3.520	-3.816	-2.140	-2.014	-1.688	0.195	1.482	0.273	0.777	2.463	2.464	0.784	1.051	2.781	4.305	-0.408	-0.582	-0.315	-1.977	-1.952	722.656
3.349	0.419	1.089	0.035	1.704	1.832	-2.169	-2.769	-3.897	-4.190	-2.497	-2.194	-1.862	0.087	1.660	0.537	1.084	2.567	2.670	0.951	1.059	2.820	4.362	-0.563	-0.682	-0.385	-2.064	-2.030	726.562
3.634	0.520	1.343	0.051	1.579	1.846	-2.431	-2.999	-4.229	-4.522	-2.817	-2.328	-2.015	-0.012	1.813	0.741	1.322	2.621	2.813	1.085	1.055	2.830	4.393	-0.700	-0.745	-0.409	-2.109	-2.063	730.469
3.904	0.604	1.603	0.073	1.470	1.866	-2.658	-3.168	-4.497	-4.801	-3.082	-2.411	-2.153	-0.107	1.937	0.883	1.483	2.648	2.886	1.181	1.036	2.804	4.391	-0.823	-0.776	-0.402	-2.128	-2.057	734.375
4.152	0.684	1.862	0.112	1.387	1.884	-2.852	-3.274	-4.694	-5.026	-3.285	-2.447	-2.284	-0.201	2.034	0.968	1.569	2.675	2.897	1.241	1.002	2.742	4.356	-0.938	-0.783	-0.386	-2.143	-2.029	738.281
4.370	0.773	2.106	0.180	1.333	1.892	-3.019	-3.327	-4.822	-5.205	-3.431	-2.452	-2.420	-0.298	2.110	1.014	1.599	2.729	2.866	1.271	0.956	2.658	4.303	-1.046	-0.775	-0.381	-2.172	-1.999	742.188
4.546	0.887	2.318	0.278	1.310	1.879	-3.167	-3.342	-4.891	-5.351	-3.530	-2.445	-2.569	-0.402	2.174	1.037	1.595	2.830	2.819	1.282	0.902	2.569	4.249	-1.147	-0.759	-0.403	-2.229	-1.986	746.094
4.667	1.039	2.479	0.405	1.310	1.836	-3.304	-3.336	-4.913	-5.477	-3.597	-2.445	-2.733	-0.512	2.236	1.055	1.581	2.984	2.783	1.282	0.843	2.496	4.216	-1.235	-0.737	-0.460	-2.318	-2.004	750.000
4.720	1.234	2.571	0.552	1.328	1.758	-3.431	-3.326	-4.904	-5.592	-3.648	-2.468	-2.908	-0.625	2.299	1.082	1.576	3.183	2.779	1.276	0.782	2.458	4.220	-1.301	-0.710	-0.545	-2.431	-2.058	753.906
4.698	1.469	2.583	0.705	1.356	1.649	-3.544	-3.318	-4.872	-5.699	-3.690	-2.520	-3.085	-0.736	2.362	1.120	1.586	3.404	2.814	1.265	0.720	2.464	4.271	-1.333	-0.673	-0.643	-2.551	-2.142	757.812
4.601	1.724	2.517	0.848	1.389	1.521	-3.633	-3.312	-4.822	-5.790	-3.726	-2.599	-3.246	-0.836	2.415	1.165	1.611	3.616	2.885	1.248	0.658	2.518	4.366	-1.322	-0.623	-0.735	-2.656	-2.243	761.719
4.438	1.971	2.384	0.960	1.423	1.395	-3.682	-3.301	-4.751	-5.851	-3.749	-2.692	-3.369	-0.912	2.442	1.207	1.641	3.782	2.974	1.219	0.595	2.609	4.492	-1.259	-0.553	-0.800	-2.722	-2.340	765.625
4.223	2.169	2.205	1.024	1.457	1.296	-3.674	-3.272	-4.651	-5.863	-3.742	-2.780	-3.430	-0.951	2.425	1.229	1.663	3.866	3.059	1.173	0.535	2.722	4.631	-1.141	-0.464	-0.821	-2.727	-2.412	769.531
3.974	2.279	2.007	1.022	1.489	1.246	-3.590	-3.212	-4.510	-5.802	-3.686	-2.839	-3.407	-0.939	2.344	1.215	1.663	3.837	3.116	1.106	0.481	2.839	4.761	-0.969	-0.354	-0.789	-2.656	-2.440	773.438
3.709	2.264	1.813	0.944	1.518	1.261	-3.421	-3.109	-4.318	-5.652	-3.558	-2.848	-3.283	-0.866	2.186	1.149	1.629	3.676	3.125	1.018	0.435	2.938	4.863	-0.747	-0.228	-0.702	-2.499	-2.410	777.344
3.441	2.100	1.641	0.785	1.541	1.345	-3.161	-2.955	-4.067	-5.399	-3.343	-2.790	-3.048	-0.725	1.948	1.020	1.556	3.372	3.074	0.908	0.402	3.006	4.927	-0.481	-0.091	-0.566	-2.258	-2.317	781.250
3.180	1.782	1.499	0.549	1.556	1.493	-2.815	-2.750	-3.754	-5.044	-3.033	-2.656	-2.707	-0.517	1.632	0.827	1.441	2.934	2.958	0.777	0.385	3.036	4.947	-0.179	0.053	-0.388	-1.940	-2.162	785.156
2.929	1.326	1.387	0.248	1.563	1.690	-2.398	-2.498	-3.384	-4.599	-2.634	-2.451	-2.274	-0.251	1.253	0.575	1.290	2.381	2.787	0.630	0.381	3.028	4.928	0.149	0.201	-0.183	-1.559	-1.956	789.062
2.688	0.768	1.299	-0.098	1.563	1.920	-1.930	-2.211	-2.971	-4.087	-2.166	-2.192	-1.775	0.058	0.828	0.279	1.112	1.749	2.573	0.471	0.388	2.991	4.881	0.495	0.350	0.039	-1.138	-1.714	792.969
2.454	0.158	1.226	-0.465	1.559	2.165	-1.438	-1.905	-2.534	-3.540	-1.660	-1.903	-1.246	0.387	0.382	-0.041	0.919	1.080	2.338	0.306	0.401	2.936	4.818	0.847	0.498	0.264	-0.699	-1.456	796.875
