FP1	F3	F7	FC3	C3	C5	P3	P7	PO7	PO3	O1	Oz	Pz	CPz	FP2	Fz	F4	F8	FC4	FCz	Cz	C4	C6	P4	P8	PO8	PO4	O2	time
1.784	-0.397	1.274	-1.238	-1.732	0.132	-1.631	-2.076	-2.414	-2.173	-1.564	-0.502	-0.169	0.304	1.122	0.252	0.606	0.885	0.974	0.501	0.513	0.742	1.027	0.436	0.727	0.184	0.641	0.364	-199.219
1.544	-0.148	0.907	-0.896	-1.588	0.075	-1.757	-2.112	-2.411	-2.222	-1.575	-0.577	-0.327	0.209	1.300	0.375	0.856	1.040	1.082	0.680	0.553	0.806	1.012	0.293	0.608	0.167	0.359	0.327	-195.312
1.348	0.080	0.577	-0.566	-1.431	0.031	-1.854	-2.123	-2.387	-2.252	-1.573	-0.648	-0.464	0.132	1.437	0.483	1.064	1.162	1.175	0.840	0.595	0.860	0.991	0.156	0.485	0.136	0.087	0.281	-191.406
1.231	0.268	0.307	-0.259	-1.254	0.005	-1.897	-2.087	-2.322	-2.244	-1.545	-0.711	-0.565	0.085	1.496	0.561	1.197	1.230	1.238	0.963	0.640	0.898	0.962	0.034	0.354	0.081	-0.166	0.217	-187.500
1.206	0.400	0.103	0.012	-1.052	0.000	-1.871	-1.990	-2.202	-2.186	-1.482	-0.764	-0.621	0.078	1.458	0.603	1.235	1.231	1.262	1.038	0.686	0.914	0.928	-0.068	0.220	-0.002	-0.391	0.129	-183.594
1.256	0.469	-0.045	0.239	-0.827	0.013	-1.770	-1.828	-2.020	-2.070	-1.378	-0.808	-0.627	0.113	1.321	0.606	1.176	1.165	1.245	1.064	0.730	0.909	0.893	-0.145	0.089	-0.110	-0.580	0.018	-179.688
1.344	0.469	-0.162	0.413	-0.590	0.038	-1.600	-1.606	-1.777	-1.898	-1.237	-0.843	-0.586	0.185	1.102	0.575	1.035	1.044	1.193	1.044	0.769	0.884	0.865	-0.192	-0.028	-0.232	-0.728	-0.114	-175.781
1.419	0.407	-0.269	0.529	-0.355	0.069	-1.374	-1.336	-1.482	-1.676	-1.065	-0.870	-0.509	0.282	0.834	0.517	0.839	0.893	1.117	0.986	0.796	0.843	0.849	-0.210	-0.119	-0.356	-0.832	-0.260	-171.875
1.429	0.294	-0.384	0.582	-0.142	0.100	-1.112	-1.035	-1.149	-1.416	-0.872	-0.893	-0.409	0.390	0.551	0.445	0.624	0.737	1.028	0.902	0.804	0.791	0.850	-0.203	-0.178	-0.468	-0.895	-0.414	-167.969
1.338	0.146	-0.513	0.570	0.030	0.128	-0.835	-0.720	-0.797	-1.132	-0.667	-0.911	-0.300	0.491	0.289	0.371	0.422	0.604	0.938	0.807	0.790	0.731	0.866	-0.176	-0.203	-0.559	-0.920	-0.567	-164.062
1.130	-0.016	-0.651	0.498	0.144	0.148	-0.562	-0.410	-0.445	-0.840	-0.458	-0.925	-0.194	0.573	0.074	0.304	0.262	0.507	0.856	0.709	0.752	0.666	0.893	-0.136	-0.199	-0.619	-0.912	-0.709	-160.156
0.814	-0.174	-0.783	0.373	0.191	0.158	-0.306	-0.121	-0.111	-0.552	-0.252	-0.929	-0.099	0.625	-0.079	0.249	0.159	0.451	0.784	0.616	0.692	0.596	0.920	-0.087	-0.175	-0.645	-0.877	-0.831	-156.250
0.415	-0.311	-0.891	0.211	0.171	0.156	-0.076	0.134	0.191	-0.277	-0.053	-0.916	-0.015	0.643	-0.170	0.206	0.113	0.425	0.720	0.530	0.613	0.519	0.937	-0.034	-0.139	-0.636	-0.817	-0.921	-152.344
-0.027	-0.415	-0.961	0.031	0.094	0.141	0.129	0.348	0.450	-0.022	0.135	-0.877	0.061	0.631	-0.208	0.170	0.113	0.407	0.658	0.447	0.523	0.434	0.929	0.023	-0.099	-0.595	-0.731	-0.969	-148.438
-0.471	-0.480	-0.979	-0.146	-0.016	0.117	0.312	0.514	0.660	0.214	0.309	-0.803	0.136	0.596	-0.214	0.135	0.137	0.375	0.589	0.364	0.427	0.334	0.883	0.083	-0.060	-0.526	-0.622	-0.966	-144.531
-0.872	-0.508	-0.941	-0.296	-0.132	0.087	0.478	0.634	0.821	0.430	0.463	-0.688	0.217	0.547	-0.208	0.092	0.159	0.307	0.502	0.273	0.334	0.216	0.788	0.146	-0.024	-0.436	-0.487	-0.906	-140.625
-1.195	-0.504	-0.848	-0.401	-0.222	0.062	0.636	0.711	0.932	0.625	0.594	-0.530	0.307	0.497	-0.215	0.038	0.153	0.194	0.386	0.173	0.248	0.077	0.639	0.211	0.009	-0.332	-0.331	-0.791	-136.719
-1.407	-0.479	-0.705	-0.451	-0.261	0.048	0.785	0.749	0.998	0.799	0.696	-0.336	0.406	0.453	-0.253	-0.030	0.099	0.036	0.235	0.062	0.173	-0.082	0.440	0.275	0.039	-0.221	-0.157	-0.625	-132.812
-1.491	-0.445	-0.521	-0.443	-0.233	0.056	0.926	0.757	1.022	0.947	0.763	-0.116	0.510	0.422	-0.333	-0.108	-0.010	-0.155	0.048	-0.054	0.107	-0.255	0.201	0.336	0.067	-0.110	0.026	-0.424	-128.906
-1.438	-0.411	-0.307	-0.384	-0.138	0.088	1.049	0.743	1.008	1.061	0.791	0.113	0.609	0.403	-0.454	-0.190	-0.170	-0.360	-0.168	-0.170	0.051	-0.431	-0.055	0.389	0.090	-0.002	0.205	-0.203	-125.000
-1.260	-0.382	-0.075	-0.286	0.013	0.144	1.144	0.713	0.957	1.131	0.776	0.331	0.691	0.391	-0.605	-0.267	-0.364	-0.556	-0.398	-0.275	0.001	-0.591	-0.300	0.429	0.109	0.098	0.368	0.017	-121.094
-0.984	-0.358	0.159	-0.164	0.195	0.214	1.194	0.671	0.870	1.144	0.716	0.519	0.743	0.376	-0.764	-0.330	-0.564	-0.720	-0.621	-0.362	-0.048	-0.719	-0.503	0.450	0.120	0.188	0.500	0.215	-117.188
-0.652	-0.332	0.377	-0.035	0.381	0.286	1.187	0.618	0.747	1.091	0.612	0.658	0.752	0.346	-0.898	-0.369	-0.739	-0.830	-0.812	-0.422	-0.097	-0.796	-0.637	0.446	0.123	0.264	0.589	0.374	-113.281
-0.319	-0.293	0.565	0.091	0.541	0.346	1.111	0.551	0.588	0.968	0.469	0.738	0.710	0.289	-0.975	-0.376	-0.858	-0.870	-0.946	-0.452	-0.151	-0.810	-0.687	0.415	0.117	0.325	0.627	0.482	-109.375
-0.036	-0.231	0.708	0.205	0.653	0.378	0.962	0.465	0.396	0.777	0.296	0.756	0.613	0.199	-0.967	-0.345	-0.898	-0.830	-1.006	-0.449	-0.208	-0.757	-0.650	0.354	0.105	0.368	0.611	0.537	-105.469
0.154	-0.137	0.803	0.301	0.702	0.371	0.745	0.357	0.179	0.532	0.104	0.718	0.463	0.073	-0.855	-0.275	-0.849	-0.712	-0.981	-0.414	-0.269	-0.640	-0.537	0.266	0.086	0.390	0.544	0.542	-101.562
0.234	-0.013	0.848	0.376	0.684	0.319	0.474	0.227	-0.053	0.253	-0.095	0.636	0.269	-0.084	-0.640	-0.167	-0.712	-0.527	-0.876	-0.350	-0.327	-0.471	-0.374	0.155	0.062	0.390	0.435	0.504	-97.656
0.210	0.133	0.851	0.431	0.604	0.224	0.169	0.080	-0.285	-0.031	-0.286	0.526	0.045	-0.261	-0.339	-0.029	-0.503	-0.290	-0.704	-0.261	-0.379	-0.269	-0.192	0.030	0.032	0.365	0.296	0.436	-93.750
0.115	0.288	0.822	0.465	0.475	0.094	-0.143	-0.078	-0.502	-0.292	-0.456	0.407	-0.193	-0.440	0.018	0.129	-0.246	-0.024	-0.490	-0.153	-0.416	-0.059	-0.024	-0.099	-0.006	0.314	0.141	0.348	-89.844
-0.008	0.437	0.772	0.482	0.316	-0.058	-0.433	-0.236	-0.688	-0.504	-0.598	0.290	-0.425	-0.605	0.387	0.296	0.027	0.250	-0.261	-0.030	-0.432	0.136	0.103	-0.222	-0.057	0.239	-0.015	0.250	-85.938
-0.115	0.563	0.709	0.485	0.150	-0.215	-0.677	-0.381	-0.829	-0.649	-0.704	0.185	-0.631	-0.740	0.728	0.455	0.287	0.508	-0.044	0.099	-0.422	0.293	0.173	-0.330	-0.121	0.144	-0.159	0.147	-82.031
-0.173	0.658	0.640	0.479	0.000	-0.361	-0.855	-0.503	-0.916	-0.717	-0.771	0.094	-0.794	-0.831	1.000	0.593	0.507	0.732	0.137	0.227	-0.383	0.398	0.181	-0.416	-0.194	0.036	-0.279	0.045	-78.125
-0.169	0.712	0.571	0.466	-0.115	-0.482	-0.953	-0.591	-0.943	-0.708	-0.798	0.019	-0.900	-0.872	1.175	0.696	0.668	0.903	0.270	0.343	-0.319	0.446	0.137	-0.472	-0.271	-0.072	-0.363	-0.052	-74.219
-0.106	0.723	0.502	0.444	-0.182	-0.570	-0.970	-0.639	-0.908	-0.631	-0.784	-0.043	-0.939	-0.864	1.235	0.753	0.760	1.007	0.347	0.432	-0.239	0.439	0.057	-0.495	-0.338	-0.167	-0.404	-0.141	-70.312
-0.006	0.694	0.434	0.410	-0.196	-0.621	-0.908	-0.642	-0.812	-0.499	-0.729	-0.091	-0.909	-0.812	1.177	0.754	0.783	1.035	0.372	0.481	-0.156	0.389	-0.038	-0.483	-0.385	-0.236	-0.397	-0.214	-66.406
0.104	0.631	0.366	0.357	-0.162	-0.633	-0.778	-0.594	-0.661	-0.326	-0.633	-0.124	-0.813	-0.727	1.009	0.694	0.741	0.981	0.351	0.477	-0.085	0.309	-0.127	-0.436	-0.401	-0.269	-0.341	-0.265	-62.500
0.193	0.540	0.295	0.279	-0.089	-0.608	-0.593	-0.495	-0.460	-0.125	-0.497	-0.137	-0.658	-0.619	0.752	0.575	0.644	0.845	0.293	0.412	-0.041	0.214	-0.198	-0.357	-0.382	-0.261	-0.239	-0.286	-58.594
0.238	0.430	0.218	0.176	0.006	-0.548	-0.365	-0.344	-0.216	0.094	-0.322	-0.124	-0.459	-0.501	0.434	0.402	0.500	0.631	0.205	0.281	-0.035	0.116	-0.245	-0.254	-0.331	-0.211	-0.101	-0.271	-54.688
0.223	0.309	0.135	0.049	0.107	-0.457	-0.109	-0.143	0.061	0.324	-0.111	-0.079	-0.234	-0.384	0.087	0.187	0.321	0.350	0.094	0.092	-0.071	0.024	-0.272	-0.136	-0.255	-0.127	0.063	-0.219	-50.781
0.145	0.182	0.046	-0.091	0.202	-0.341	0.163	0.100	0.361	0.558	0.130	-0.001	-0.002	-0.277	-0.258	-0.055	0.115	0.015	-0.037	-0.142	-0.146	-0.062	-0.291	-0.016	-0.166	-0.021	0.235	-0.133	-46.875
0.012	0.055	-0.042	-0.231	0.280	-0.212	0.437	0.375	0.672	0.790	0.390	0.109	0.216	-0.187	-0.574	-0.304	-0.109	-0.348	-0.188	-0.402	-0.251	-0.144	-0.319	0.093	-0.075	0.093	0.399	-0.021	-42.969
-0.156	-0.066	-0.122	-0.357	0.337	-0.080	0.702	0.666	0.979	1.011	0.657	0.246	0.402	-0.117	-0.839	-0.540	-0.342	-0.712	-0.356	-0.663	-0.372	-0.230	-0.373	0.176	0.006	0.202	0.538	0.106	-39.062
-0.336	-0.174	-0.186	-0.453	0.376	0.041	0.941	0.952	1.264	1.210	0.915	0.398	0.541	-0.071	-1.041	-0.745	-0.572	-1.043	-0.538	-0.901	-0.493	-0.328	-0.467	0.223	0.069	0.292	0.638	0.234	-35.156
-0.501	-0.262	-0.229	-0.506	0.402	0.139	1.142	1.211	1.508	1.375	1.148	0.555	0.626	-0.049	-1.175	-0.903	-0.786	-1.313	-0.731	-1.096	-0.599	-0.445	-0.609	0.227	0.107	0.353	0.690	0.350	-31.250
-0.632	-0.320	-0.249	-0.509	0.422	0.207	1.291	1.422	1.697	1.493	1.341	0.702	0.657	-0.047	-1.242	-1.005	-0.971	-1.500	-0.925	-1.234	-0.680	-0.585	-0.797	0.184	0.115	0.380	0.692	0.445	-27.344
-0.716	-0.341	-0.245	-0.460	0.446	0.245	1.381	1.571	1.817	1.557	1.484	0.831	0.640	-0.061	-1.250	-1.049	-1.117	-1.597	-1.112	-1.308	-0.728	-0.745	-1.022	0.102	0.091	0.375	0.649	0.515	-23.438
-0.750	-0.323	-0.222	-0.362	0.479	0.257	1.408	1.648	1.864	1.563	1.571	0.935	0.590	-0.088	-1.211	-1.042	-1.218	-1.612	-1.282	-1.325	-0.743	-0.918	-1.264	-0.010	0.040	0.343	0.573	0.562	-19.531
-0.741	-0.269	-0.185	-0.228	0.523	0.250	1.376	1.655	1.837	1.515	1.606	1.016	0.522	-0.121	-1.139	-0.998	-1.275	-1.563	-1.428	-1.296	-0.734	-1.090	-1.502	-0.133	-0.031	0.297	0.483	0.596	-15.625
-0.700	-0.188	-0.143	-0.075	0.574	0.233	1.292	1.602	1.748	1.424	1.595	1.078	0.453	-0.158	-1.048	-0.934	-1.292	-1.476	-1.543	-1.241	-0.709	-1.244	-1.711	-0.249	-0.110	0.250	0.396	0.627	-11.719
-0.642	-0.098	-0.105	0.075	0.625	0.214	1.170	1.506	1.610	1.304	1.549	1.126	0.397	-0.198	-0.950	-0.869	-1.276	-1.373	-1.622	-1.179	-0.682	-1.365	-1.870	-0.341	-0.184	0.217	0.329	0.667	-7.812
-0.581	-0.013	-0.078	0.202	0.663	0.197	1.025	1.387	1.441	1.170	1.481	1.168	0.360	-0.239	-0.852	-0.817	-1.235	-1.272	-1.660	-1.126	-0.665	-1.437	-1.965	-0.399	-0.242	0.206	0.293	0.720	-3.906
-0.527	0.051	-0.067	0.290	0.680	0.182	0.874	1.265	1.263	1.036	1.404	1.204	0.342	-0.286	-0.758	-0.786	-1.172	-1.183	-1.653	-1.092	-0.666	-1.454	-1.991	-0.421	-0.278	0.217	0.288	0.786	0.000
-0.485	0.090	-0.070	0.331	0.667	0.163	0.730	1.158	1.094	0.916	1.328	1.236	0.335	-0.341	-0.668	-0.776	-1.089	-1.104	-1.597	-1.080	-0.691	-1.414	-1.951	-0.414	-0.295	0.243	0.306	0.858	3.906
-0.453	0.107	-0.081	0.327	0.617	0.136	0.603	1.078	0.950	0.816	1.264	1.260	0.326	-0.411	-0.580	-0.779	-0.987	-1.030	-1.494	-1.086	-0.739	-1.328	-1.858	-0.396	-0.306	0.269	0.331	0.924	7.812
-0.425	0.112	-0.091	0.289	0.530	0.095	0.498	1.030	0.844	0.739	1.217	1.273	0.301	-0.502	-0.489	-0.784	-0.863	-0.953	-1.346	-1.102	-0.810	-1.210	-1.729	-0.383	-0.326	0.280	0.346	0.972	11.719
-0.389	0.119	-0.091	0.232	0.407	0.037	0.414	1.012	0.783	0.682	1.190	1.275	0.247	-0.617	-0.393	-0.778	-0.719	-0.864	-1.164	-1.119	-0.898	-1.084	-1.585	-0.394	-0.371	0.262	0.336	0.993	15.625
-0.335	0.141	-0.075	0.172	0.255	-0.033	0.349	1.015	0.767	0.641	1.184	1.268	0.159	-0.758	-0.290	-0.753	-0.561	-0.761	-0.962	-1.133	-1.001	-0.970	-1.442	-0.438	-0.447	0.210	0.293	0.984	19.531
-0.259	0.181	-0.044	0.118	0.081	-0.111	0.295	1.028	0.792	0.610	1.198	1.258	0.039	-0.920	-0.184	-0.704	-0.399	-0.644	-0.759	-1.140	-1.114	-0.885	-1.313	-0.514	-0.548	0.130	0.220	0.954	23.438
-0.161	0.237	-0.003	0.076	-0.102	-0.192	0.247	1.039	0.850	0.585	1.230	1.254	-0.102	-1.096	-0.081	-0.635	-0.247	-0.519	-0.572	-1.142	-1.231	-0.839	-1.205	-0.611	-0.661	0.036	0.131	0.914	27.344
-0.051	0.295	0.040	0.043	-0.281	-0.271	0.201	1.035	0.933	0.565	1.277	1.260	-0.248	-1.271	0.011	-0.554	-0.120	-0.398	-0.417	-1.142	-1.344	-0.831	-1.119	-0.710	-0.762	-0.052	0.043	0.881	31.250
0.058	0.340	0.072	0.012	-0.443	-0.350	0.158	1.012	1.029	0.551	1.335	1.278	-0.378	-1.428	0.080	-0.472	-0.034	-0.286	-0.308	-1.144	-1.447	-0.853	-1.051	-0.789	-0.829	-0.114	-0.023	0.864	35.156
0.149	0.357	0.082	-0.024	-0.575	-0.435	0.118	0.969	1.129	0.545	1.400	1.300	-0.477	-1.550	0.114	-0.400	0.007	-0.187	-0.247	-1.149	-1.530	-0.892	-0.995	-0.826	-0.847	-0.133	-0.051	0.868	39.062
0.205	0.340	0.058	-0.070	-0.667	-0.532	0.087	0.914	1.225	0.553	1.467	1.310	-0.535	-1.624	0.106	-0.347	0.000	-0.098	-0.234	-1.156	-1.584	-0.931	-0.947	-0.809	-0.807	-0.106	-0.037	0.883	42.969
0.212	0.292	-0.008	-0.126	-0.717	-0.647	0.069	0.860	1.317	0.579	1.531	1.283	-0.548	-1.639	0.050	-0.315	-0.044	-0.014	-0.259	-1.161	-1.602	-0.957	-0.905	-0.738	-0.714	-0.040	0.011	0.887	46.875
0.155	0.222	-0.117	-0.186	-0.722	-0.777	0.071	0.825	1.404	0.625	1.588	1.194	-0.523	-1.592	-0.052	-0.303	-0.113	0.074	-0.309	-1.159	-1.580	-0.960	-0.866	-0.622	-0.582	0.044	0.073	0.847	50.781
0.023	0.145	-0.263	-0.242	-0.685	-0.915	0.101	0.828	1.495	0.691	1.638	1.018	-0.470	-1.487	-0.195	-0.305	-0.190	0.167	-0.366	-1.143	-1.513	-0.937	-0.833	-0.480	-0.432	0.119	0.122	0.731	54.688
-0.189	0.078	-0.430	-0.281	-0.609	-1.041	0.164	0.884	1.595	0.778	1.678	0.739	-0.399	-1.329	-0.370	-0.312	-0.260	0.262	-0.412	-1.107	-1.400	-0.888	-0.808	-0.335	-0.290	0.154	0.129	0.507	58.594
-0.479	0.031	-0.603	-0.292	-0.498	-1.131	0.266	1.004	1.711	0.880	1.711	0.348	-0.320	-1.125	-0.567	-0.313	-0.308	0.347	-0.431	-1.047	-1.240	-0.817	-0.794	-0.208	-0.182	0.120	0.072	0.157	62.500
-0.838	0.012	-0.763	-0.266	-0.352	-1.160	0.411	1.186	1.847	0.994	1.732	-0.150	-0.233	-0.882	-0.783	-0.299	-0.326	0.407	-0.414	-0.958	-1.032	-0.730	-0.791	-0.112	-0.128	0.001	-0.061	-0.320	66.406
-1.245	0.022	-0.902	-0.199	-0.174	-1.107	0.601	1.424	2.000	1.112	1.735	-0.743	-0.133	-0.603	-1.017	-0.261	-0.307	0.429	-0.355	-0.840	-0.779	-0.633	-0.797	-0.052	-0.141	-0.209	-0.265	-0.909	70.312
-1.677	0.055	-1.015	-0.093	0.036	-0.961	0.835	1.703	2.164	1.230	1.709	-1.415	-0.011	-0.290	-1.277	-0.197	-0.254	0.407	-0.259	-0.692	-0.481	-0.528	-0.807	-0.019	-0.222	-0.501	-0.517	-1.579	74.219
-2.110	0.102	-1.106	0.042	0.270	-0.724	1.108	2.006	2.329	1.341	1.638	-2.143	0.146	0.057	-1.570	-0.108	-0.171	0.341	-0.137	-0.520	-0.148	-0.418	-0.814	0.004	-0.361	-0.852	-0.786	-2.288	78.125
-2.525	0.152	-1.182	0.194	0.519	-0.410	1.411	2.314	2.484	1.442	1.505	-2.902	0.348	0.432	-1.903	0.001	-0.072	0.245	-0.005	-0.331	0.210	-0.304	-0.812	0.035	-0.538	-1.234	-1.034	-2.992	82.031
-2.914	0.191	-1.248	0.349	0.772	-0.041	1.732	2.614	2.619	1.532	1.297	-3.666	0.598	0.828	-2.276	0.119	0.027	0.137	0.118	-0.136	0.576	-0.191	-0.795	0.093	-0.731	-1.613	-1.228	-3.648	85.938
-3.277	0.210	-1.310	0.495	1.016	0.358	2.059	2.894	2.724	1.610	1.011	-4.408	0.892	1.230	-2.676	0.234	0.110	0.039	0.214	0.053	0.930	-0.083	-0.763	0.187	-0.913	-1.960	-1.345	-4.219	89.844
-3.622	0.200	-1.373	0.621	1.241	0.762	2.377	3.146	2.794	1.678	0.652	-5.097	1.219	1.621	-3.085	0.333	0.161	-0.031	0.271	0.225	1.254	0.018	-0.717	0.319	-1.063	-2.251	-1.373	-4.681	93.750
-3.956	0.161	-1.439	0.720	1.444	1.149	2.675	3.364	2.826	1.740	0.236	-5.708	1.563	1.985	-3.476	0.406	0.171	-0.066	0.287	0.370	1.531	0.109	-0.665	0.484	-1.169	-2.471	-1.316	-5.019	97.656
-4.280	0.094	-1.512	0.791	1.622	1.501	2.945	3.542	2.816	1.797	-0.211	-6.217	1.907	2.306	-3.823	0.444	0.135	-0.068	0.267	0.485	1.754	0.191	-0.612	0.671	-1.225	-2.613	-1.185	-5.226	101.562
-4.585	0.004	-1.592	0.829	1.774	1.801	3.180	3.674	2.762	1.854	-0.658	-6.604	2.237	2.578	-4.105	0.444	0.058	-0.048	0.227	0.567	1.921	0.269	-0.564	0.870	-1.233	-2.675	-0.995	-5.308	105.469
-4.852	-0.104	-1.680	0.833	1.901	2.036	3.376	3.754	2.663	1.910	-1.073	-6.860	2.542	2.796	-4.308	0.411	-0.051	-0.028	0.187	0.620	2.036	0.348	-0.525	1.074	-1.199	-2.664	-0.763	-5.272	109.375
-5.054	-0.226	-1.770	0.801	1.998	2.194	3.530	3.775	2.515	1.966	-1.426	-6.978	2.815	2.963	-4.427	0.350	-0.175	-0.026	0.164	0.646	2.107	0.432	-0.499	1.277	-1.135	-2.587	-0.505	-5.130	113.281
-5.167	-0.355	-1.859	0.732	2.057	2.267	3.639	3.731	2.320	2.017	-1.695	-6.961	3.052	3.081	-4.465	0.272	-0.296	-0.060	0.174	0.652	2.141	0.524	-0.484	1.475	-1.047	-2.454	-0.232	-4.898	117.188
-5.167	-0.486	-1.939	0.626	2.072	2.247	3.697	3.617	2.082	2.059	-1.863	-6.813	3.249	3.152	-4.431	0.188	-0.396	-0.142	0.223	0.643	2.144	0.620	-0.483	1.666	-0.943	-2.274	0.043	-4.587	121.094
-5.045	-0.608	-2.007	0.488	2.034	2.133	3.698	3.432	1.813	2.086	-1.920	-6.541	3.400	3.176	-4.337	0.107	-0.464	-0.273	0.305	0.619	2.116	0.708	-0.498	1.843	-0.825	-2.053	0.314	-4.208	125.000
-4.807	-0.710	-2.063	0.327	1.942	1.927	3.635	3.179	1.531	2.096	-1.862	-6.151	3.498	3.147	-4.196	0.032	-0.498	-0.449	0.400	0.580	2.054	0.772	-0.535	1.999	-0.689	-1.795	0.574	-3.766	128.906
-4.473	-0.785	-2.112	0.153	1.796	1.636	3.508	2.868	1.263	2.089	-1.687	-5.648	3.538	3.061	-4.017	-0.042	-0.509	-0.652	0.476	0.519	1.950	0.790	-0.606	2.124	-0.532	-1.497	0.820	-3.263	132.812
-4.080	-0.832	-2.159	-0.022	1.606	1.271	3.319	2.517	1.038	2.072	-1.395	-5.032	3.511	2.909	-3.808	-0.125	-0.521	-0.865	0.495	0.425	1.793	0.739	-0.721	2.205	-0.346	-1.157	1.052	-2.702	136.719
-3.670	-0.861	-2.212	-0.194	1.381	0.852	3.079	2.152	0.892	2.055	-0.988	-4.306	3.416	2.688	-3.576	-0.235	-0.563	-1.065	0.418	0.282	1.573	0.598	-0.893	2.233	-0.126	-0.768	1.270	-2.082	140.625
-3.288	-0.892	-2.276	-0.360	1.137	0.401	2.809	1.805	0.853	2.054	-0.467	-3.476	3.253	2.395	-3.327	-0.393	-0.666	-1.235	0.213	0.076	1.284	0.353	-1.128	2.200	0.129	-0.329	1.474	-1.410	144.531
-2.974	-0.946	-2.352	-0.523	0.887	-0.050	2.532	1.511	0.945	2.082	0.162	-2.553	3.027	2.034	-3.067	-0.617	-0.855	-1.367	-0.135	-0.207	0.922	-0.000	-1.427	2.103	0.414	0.157	1.660	-0.695	148.438
-2.750	-1.047	-2.436	-0.691	0.643	-0.471	2.272	1.298	1.180	2.152	0.887	-1.557	2.749	1.616	-2.805	-0.918	-1.143	-1.458	-0.623	-0.570	0.491	-0.453	-1.781	1.947	0.718	0.681	1.826	0.048	152.344
-2.625	-1.205	-2.521	-0.870	0.413	-0.836	2.049	1.187	1.553	2.268	1.692	-0.518	2.433	1.153	-2.550	-1.297	-1.526	-1.517	-1.223	-1.010	0.001	-0.983	-2.173	1.741	1.026	1.226	1.967	0.798	156.250
-2.584	-1.421	-2.592	-1.067	0.199	-1.132	1.875	1.183	2.048	2.428	2.551	0.529	2.092	0.664	-2.311	-1.744	-1.985	-1.558	-1.891	-1.513	-0.533	-1.555	-2.577	1.499	1.318	1.774	2.077	1.533	160.156
-2.594	-1.685	-2.636	-1.285	-0.003	-1.358	1.752	1.276	2.630	2.620	3.434	1.547	1.741	0.165	-2.098	-2.240	-2.488	-1.596	-2.571	-2.059	-1.091	-2.129	-2.965	1.239	1.576	2.306	2.156	2.231	164.062
-2.611	-1.980	-2.641	-1.525	-0.200	-1.529	1.673	1.447	3.259	2.829	4.309	2.498	1.393	-0.323	-1.919	-2.760	-2.998	-1.645	-3.206	-2.620	-1.651	-2.662	-3.308	0.977	1.784	2.806	2.207	2.875	167.969
-2.589	-2.288	-2.599	-1.782	-0.402	-1.668	1.624	1.668	3.891	3.037	5.143	3.353	1.063	-0.785	-1.781	-3.275	-3.478	-1.716	-3.750	-3.169	-2.189	-3.120	-3.583	0.734	1.933	3.261	2.239	3.454	171.875
-2.490	-2.594	-2.508	-2.050	-0.615	-1.803	1.594	1.915	4.488	3.230	5.913	4.090	0.761	-1.204	-1.689	-3.760	-3.903	-1.816	-4.175	-3.681	-2.685	-3.481	-3.779	0.522	2.022	3.664	2.264	3.963	175.781
-2.297	-2.888	-2.373	-2.323	-0.842	-1.956	1.574	2.169	5.023	3.402	6.601	4.700	0.500	-1.569	-1.645	-4.198	-4.260	-1.947	-4.476	-4.138	-3.120	-3.738	-3.897	0.354	2.057	4.012	2.298	4.402	179.688
-2.015	-3.165	-2.204	-2.589	-1.077	-2.136	1.560	2.420	5.482	3.551	7.200	5.184	0.288	-1.870	-1.650	-4.578	-4.553	-2.111	-4.672	-4.529	-3.486	-3.902	-3.951	0.234	2.052	4.305	2.354	4.777	183.594
-1.672	-3.422	-2.020	-2.837	-1.303	-2.335	1.557	2.667	5.866	3.685	7.713	5.550	0.130	-2.104	-1.703	-4.897	-4.797	-2.307	-4.798	-4.851	-3.777	-3.995	-3.961	0.162	2.021	4.544	2.440	5.092	187.500
-1.314	-3.653	-1.843	-3.052	-1.498	-2.528	1.571	2.917	6.186	3.809	8.145	5.812	0.028	-2.272	-1.797	-5.159	-5.013	-2.531	-4.893	-5.109	-3.998	-4.046	-3.952	0.132	1.985	4.729	2.556	5.352	191.406
-0.993	-3.850	-1.696	-3.217	-1.635	-2.680	1.610	3.175	6.456	3.933	8.503	5.985	-0.026	-2.381	-1.922	-5.369	-5.221	-2.777	-4.994	-5.311	-4.156	-4.082	-3.945	0.132	1.959	4.859	2.694	5.556	195.312
-0.756	-3.997	-1.596	-3.319	-1.688	-2.756	1.677	3.445	6.691	4.058	8.792	6.080	-0.043	-2.442	-2.065	-5.536	-5.434	-3.035	-5.126	-5.469	-4.263	-4.125	-3.953	0.148	1.956	4.933	2.834	5.700	199.219
-0.635	-4.080	-1.551	-3.346	-1.640	-2.726	1.771	3.727	6.899	4.180	9.011	6.102	-0.040	-2.467	-2.214	-5.665	-5.652	-3.289	-5.293	-5.591	-4.328	-4.183	-3.979	0.166	1.981	4.950	2.952	5.776	203.125
-0.639	-4.088	-1.557	-3.295	-1.490	-2.578	1.883	4.012	7.082	4.288	9.153	6.053	-0.036	-2.470	-2.353	-5.760	-5.866	-3.518	-5.486	-5.684	-4.361	-4.256	-4.017	0.170	2.031	4.909	3.022	5.774	207.031
-0.758	-4.022	-1.596	-3.175	-1.252	-2.317	1.998	4.287	7.234	4.368	9.211	5.932	-0.046	-2.463	-2.470	-5.824	-6.058	-3.696	-5.679	-5.749	-4.366	-4.328	-4.053	0.151	2.097	4.811	3.019	5.686	210.938
-0.963	-3.892	-1.647	-3.003	-0.957	-1.971	2.099	4.536	7.347	4.405	9.176	5.736	-0.084	-2.450	-2.553	-5.855	-6.206	-3.799	-5.839	-5.785	-4.343	-4.382	-4.068	0.104	2.168	4.659	2.929	5.509	214.844
-1.217	-3.723	-1.684	-2.809	-0.646	-1.586	2.170	4.743	7.408	4.388	9.047	5.467	-0.154	-2.434	-2.596	-5.855	-6.288	-3.810	-5.930	-5.788	-4.292	-4.393	-4.043	0.031	2.229	4.461	2.749	5.249	218.750
-1.478	-3.544	-1.690	-2.623	-0.364	-1.211	2.200	4.892	7.405	4.312	8.825	5.129	-0.253	-2.412	-2.596	-5.822	-6.286	-3.719	-5.926	-5.753	-4.209	-4.343	-3.966	-0.059	2.271	4.228	2.490	4.919	222.656
-1.709	-3.382	-1.657	-2.477	-0.152	-0.899	2.184	4.971	7.332	4.178	8.524	4.736	-0.370	-2.377	-2.556	-5.756	-6.192	-3.528	-5.808	-5.677	-4.092	-4.221	-3.832	-0.153	2.289	3.972	2.177	4.540	226.562
-1.878	-3.261	-1.592	-2.394	-0.037	-0.689	2.123	4.973	7.189	3.999	8.164	4.305	-0.489	-2.323	-2.485	-5.657	-6.010	-3.251	-5.576	-5.559	-3.941	-4.025	-3.645	-0.233	2.285	3.710	1.841	4.142	230.469
-1.970	-3.195	-1.513	-2.386	-0.030	-0.602	2.031	4.902	6.984	3.793	7.771	3.865	-0.589	-2.244	-2.393	-5.531	-5.752	-2.916	-5.245	-5.403	-3.760	-3.766	-3.420	-0.282	2.265	3.458	1.521	3.752	234.375
-1.987	-3.190	-1.450	-2.454	-0.124	-0.640	1.924	4.769	6.736	3.584	7.379	3.444	-0.650	-2.135	-2.297	-5.387	-5.446	-2.558	-4.847	-5.220	-3.556	-3.464	-3.179	-0.285	2.237	3.228	1.255	3.402	238.281
-1.946	-3.244	-1.433	-2.588	-0.294	-0.784	1.826	4.597	6.472	3.400	7.020	3.078	-0.651	-1.997	-2.211	-5.238	-5.126	-2.218	-4.421	-5.023	-3.339	-3.146	-2.950	-0.234	2.211	3.036	1.075	3.119	242.188
-1.872	-3.352	-1.487	-2.768	-0.507	-1.002	1.761	4.415	6.224	3.271	6.728	2.799	-0.578	-1.829	-2.149	-5.101	-4.831	-1.940	-4.016	-4.831	-3.122	-2.842	-2.759	-0.125	2.194	2.891	1.001	2.924	246.094
-1.798	-3.506	-1.627	-2.971	-0.727	-1.255	1.750	4.257	6.024	3.218	6.527	2.633	-0.422	-1.637	-2.124	-4.995	-4.596	-1.759	-3.678	-4.664	-2.919	-2.580	-2.631	0.032	2.189	2.798	1.043	2.828	250.000
-1.750	-3.696	-1.851	-3.176	-0.918	-1.502	1.808	4.155	5.903	3.260	6.434	2.597	-0.187	-1.428	-2.143	-4.935	-4.452	-1.702	-3.443	-4.538	-2.741	-2.380	-2.585	0.225	2.194	2.760	1.195	2.835	253.906
-1.748	-3.908	-2.141	-3.362	-1.057	-1.710	1.940	4.134	5.878	3.401	6.455	2.694	0.115	-1.210	-2.208	-4.931	-4.413	-1.781	-3.335	-4.468	-2.599	-2.258	-2.630	0.433	2.203	2.773	1.437	2.938	257.812
-1.801	-4.128	-2.467	-3.517	-1.127	-1.856	2.143	4.205	5.958	3.638	6.586	2.910	0.461	-0.993	-2.319	-4.986	-4.483	-1.990	-3.360	-4.462	-2.498	-2.215	-2.763	0.634	2.208	2.829	1.739	3.119	261.719
-1.910	-4.341	-2.795	-3.632	-1.124	-1.932	2.405	4.368	6.138	3.954	6.812	3.224	0.826	-0.787	-2.467	-5.097	-4.650	-2.311	-3.507	-4.519	-2.443	-2.247	-2.972	0.811	2.200	2.917	2.068	3.357	265.625
-2.069	-4.531	-3.094	-3.707	-1.055	-1.947	2.708	4.607	6.403	4.327	7.112	3.602	1.185	-0.600	-2.644	-5.252	-4.890	-2.712	-3.750	-4.633	-2.428	-2.339	-3.233	0.949	2.175	3.025	2.390	3.626	269.531
-2.267	-4.681	-3.341	-3.744	-0.932	-1.917	3.028	4.902	6.730	4.728	7.459	4.008	1.513	-0.438	-2.838	-5.439	-5.173	-3.152	-4.053	-4.792	-2.449	-2.471	-3.516	1.043	2.129	3.139	2.673	3.901	273.438
-2.492	-4.781	-3.523	-3.747	-0.773	-1.867	3.347	5.223	7.094	5.128	7.826	4.404	1.796	-0.305	-3.040	-5.642	-5.467	-3.589	-4.376	-4.980	-2.495	-2.623	-3.791	1.096	2.068	3.248	2.897	4.157	277.344
-2.728	-4.823	-3.640	-3.723	-0.596	-1.818	3.644	5.548	7.470	5.501	8.185	4.757	2.026	-0.201	-3.244	-5.846	-5.742	-3.985	-4.681	-5.179	-2.555	-2.773	-4.033	1.114	1.996	3.342	3.048	4.373	281.250
-2.964	-4.807	-3.694	-3.678	-0.422	-1.785	3.909	5.855	7.836	5.827	8.511	5.041	2.200	-0.125	-3.442	-6.039	-5.975	-4.310	-4.940	-5.371	-2.617	-2.903	-4.223	1.110	1.922	3.412	3.120	4.533	285.156
-3.186	-4.744	-3.694	-3.618	-0.265	-1.771	4.134	6.134	8.173	6.091	8.785	5.238	2.324	-0.072	-3.633	-6.210	-6.154	-4.545	-5.135	-5.541	-2.673	-3.001	-4.349	1.096	1.855	3.452	3.118	4.624	289.062
-3.388	-4.647	-3.646	-3.546	-0.137	-1.770	4.319	6.381	8.469	6.291	8.996	5.339	2.408	-0.036	-3.814	-6.355	-6.273	-4.690	-5.260	-5.678	-2.713	-3.059	-4.413	1.081	1.801	3.458	3.051	4.642	292.969
-3.561	-4.540	-3.560	-3.467	-0.044	-1.762	4.471	6.600	8.716	6.431	9.138	5.347	2.463	-0.005	-3.983	-6.471	-6.341	-4.756	-5.319	-5.774	-2.729	-3.078	-4.419	1.075	1.766	3.429	2.934	4.589	296.875
-3.702	-4.446	-3.445	-3.381	0.018	-1.728	4.601	6.795	8.910	6.522	9.213	5.272	2.504	0.033	-4.140	-6.562	-6.368	-4.767	-5.325	-5.827	-2.716	-3.061	-4.380	1.083	1.751	3.369	2.785	4.475	300.781
-3.807	-4.386	-3.316	-3.288	0.060	-1.648	4.721	6.971	9.048	6.578	9.228	5.130	2.543	0.092	-4.287	-6.630	-6.371	-4.748	-5.290	-5.835	-2.665	-3.013	-4.308	1.108	1.757	3.287	2.625	4.315	304.688
-3.876	-4.377	-3.188	-3.187	0.095	-1.515	4.842	7.128	9.132	6.613	9.192	4.940	2.594	0.184	-4.425	-6.679	-6.360	-4.724	-5.230	-5.801	-2.574	-2.939	-4.216	1.151	1.781	3.193	2.472	4.129	308.594
-3.916	-4.421	-3.078	-3.078	0.139	-1.333	4.969	7.260	9.163	6.638	9.112	4.721	2.663	0.317	-4.556	-6.712	-6.342	-4.712	-5.151	-5.728	-2.439	-2.844	-4.113	1.214	1.821	3.100	2.345	3.937	312.500
-3.940	-4.512	-2.997	-2.961	0.201	-1.121	5.103	7.356	9.142	6.657	8.993	4.490	2.752	0.491	-4.678	-6.728	-6.314	-4.716	-5.057	-5.618	-2.264	-2.727	-4.005	1.296	1.870	3.021	2.258	3.757	316.406
-3.969	-4.631	-2.955	-2.842	0.287	-0.910	5.235	7.400	9.071	6.668	8.838	4.257	2.861	0.702	-4.787	-6.724	-6.267	-4.734	-4.946	-5.477	-2.055	-2.587	-3.892	1.397	1.924	2.965	2.222	3.604	320.312
-4.022	-4.753	-2.960	-2.727	0.394	-0.733	5.353	7.378	8.956	6.666	8.649	4.032	2.982	0.937	-4.876	-6.696	-6.190	-4.756	-4.814	-5.310	-1.825	-2.421	-3.772	1.520	1.976	2.940	2.244	3.488	324.219
-4.117	-4.857	-3.011	-2.628	0.510	-0.622	5.445	7.283	8.801	6.644	8.431	3.825	3.108	1.183	-4.940	-6.642	-6.073	-4.767	-4.657	-5.125	-1.589	-2.227	-3.641	1.664	2.021	2.949	2.327	3.417	328.125
-4.257	-4.926	-3.105	-2.554	0.623	-0.598	5.499	7.115	8.616	6.600	8.197	3.646	3.234	1.423	-4.973	-6.564	-5.914	-4.758	-4.476	-4.932	-1.363	-2.008	-3.498	1.830	2.054	2.993	2.470	3.393	332.031
-4.435	-4.958	-3.233	-2.518	0.719	-0.670	5.512	6.885	8.416	6.534	7.963	3.509	3.356	1.640	-4.975	-6.468	-5.722	-4.723	-4.279	-4.741	-1.163	-1.769	-3.344	2.016	2.073	3.066	2.669	3.417	335.938
-4.630	-4.963	-3.382	-2.526	0.786	-0.831	5.485	6.617	8.219	6.455	7.757	3.431	3.472	1.822	-4.949	-6.365	-5.514	-4.666	-4.078	-4.565	-1.000	-1.523	-3.185	2.218	2.075	3.160	2.912	3.488	339.844
-4.817	-4.958	-3.543	-2.584	0.815	-1.064	5.431	6.343	8.047	6.379	7.604	3.430	3.585	1.962	-4.898	-6.268	-5.317	-4.595	-3.889	-4.413	-0.880	-1.285	-3.034	2.428	2.061	3.263	3.185	3.601	343.750
-4.970	-4.965	-3.709	-2.689	0.805	-1.342	5.366	6.098	7.923	6.325	7.534	3.519	3.697	2.056	-4.830	-6.193	-5.158	-4.527	-3.728	-4.295	-0.803	-1.071	-2.905	2.634	2.033	3.362	3.471	3.749	347.656
-5.074	-5.002	-3.877	-2.835	0.754	-1.635	5.308	5.914	7.867	6.311	7.563	3.707	3.811	2.106	-4.749	-6.152	-5.060	-4.476	-3.609	-4.215	-0.766	-0.896	-2.811	2.824	1.999	3.442	3.748	3.922	351.562
-5.122	-5.078	-4.049	-3.012	0.669	-1.916	5.277	5.818	7.891	6.350	7.697	3.987	3.930	2.118	-4.661	-6.153	-5.036	-4.457	-3.541	-4.176	-0.761	-0.771	-2.764	2.986	1.966	3.491	3.996	4.108	355.469
-5.118	-5.192	-4.224	-3.202	0.555	-2.162	5.282	5.820	7.995	6.446	7.924	4.343	4.050	2.103	-4.570	-6.197	-5.087	-4.475	-3.524	-4.176	-0.779	-0.702	-2.766	3.108	1.941	3.498	4.197	4.290	359.375
-5.073	-5.333	-4.396	-3.387	0.423	-2.358	5.330	5.918	8.166	6.591	8.215	4.740	4.169	2.070	-4.484	-6.276	-5.199	-4.527	-3.553	-4.208	-0.808	-0.687	-2.813	3.185	1.929	3.459	4.335	4.450	363.281
-5.003	-5.481	-4.555	-3.547	0.285	-2.495	5.416	6.091	8.380	6.767	8.528	5.135	4.282	2.032	-4.409	-6.374	-5.347	-4.602	-3.614	-4.261	-0.839	-0.717	-2.891	3.211	1.930	3.372	4.401	4.568	367.188
-4.921	-5.614	-4.686	-3.661	0.156	-2.570	5.528	6.312	8.602	6.948	8.813	5.477	4.380	1.998	-4.353	-6.473	-5.500	-4.677	-3.689	-4.321	-0.863	-0.780	-2.982	3.190	1.941	3.238	4.390	4.626	371.094
-4.841	-5.710	-4.776	-3.716	0.053	-2.579	5.648	6.544	8.794	7.105	9.020	5.716	4.457	1.975	-4.323	-6.551	-5.625	-4.727	-3.759	-4.373	-0.873	-0.860	-3.063	3.127	1.955	3.066	4.303	4.607	375.000
-4.772	-5.755	-4.812	-3.707	-0.009	-2.523	5.759	6.753	8.920	7.211	9.110	5.815	4.507	1.965	-4.322	-6.591	-5.696	-4.732	-3.805	-4.401	-0.866	-0.939	-3.114	3.029	1.964	2.866	4.149	4.504	378.906
-4.720	-5.743	-4.790	-3.634	-0.019	-2.403	5.839	6.908	8.953	7.243	9.058	5.751	4.522	1.968	-4.348	-6.579	-5.700	-4.676	-3.817	-4.397	-0.842	-1.005	-3.118	2.907	1.962	2.652	3.942	4.320	382.812
-4.687	-5.675	-4.703	-3.511	0.024	-2.222	5.871	6.989	8.876	7.186	8.856	5.525	4.499	1.978	-4.391	-6.511	-5.637	-4.557	-3.790	-4.356	-0.804	-1.048	-3.068	2.772	1.944	2.443	3.698	4.069	386.719
-4.672	-5.561	-4.552	-3.356	0.117	-1.992	5.845	6.987	8.685	7.033	8.518	5.161	4.434	1.989	-4.437	-6.391	-5.520	-4.382	-3.729	-4.279	-0.760	-1.064	-2.966	2.632	1.906	2.255	3.436	3.775	390.625
-4.668	-5.414	-4.338	-3.189	0.245	-1.725	5.753	6.899	8.390	6.789	8.069	4.700	4.327	1.991	-4.467	-6.229	-5.373	-4.167	-3.645	-4.174	-0.717	-1.053	-2.824	2.497	1.851	2.103	3.174	3.468	394.531
-4.669	-5.252	-4.068	-3.032	0.390	-1.442	5.599	6.735	8.010	6.468	7.550	4.196	4.183	1.976	-4.464	-6.043	-5.224	-3.932	-3.553	-4.053	-0.683	-1.020	-2.661	2.371	1.781	1.996	2.930	3.182	398.438
-4.667	-5.094	-3.756	-2.904	0.531	-1.163	5.394	6.509	7.577	6.091	7.006	3.709	4.010	1.941	-4.414	-5.853	-5.101	-3.701	-3.469	-3.930	-0.662	-0.972	-2.499	2.260	1.703	1.941	2.718	2.949	402.344
-4.652	-4.958	-3.424	-2.817	0.651	-0.911	5.157	6.244	7.125	5.689	6.481	3.292	3.820	1.887	-4.314	-5.680	-5.026	-3.496	-3.405	-3.819	-0.657	-0.915	-2.357	2.169	1.623	1.935	2.550	2.794	406.250
-4.618	-4.861	-3.103	-2.777	0.741	-0.704	4.912	5.963	6.693	5.297	6.019	2.985	3.632	1.821	-4.170	-5.544	-5.010	-3.340	-3.372	-3.731	-0.662	-0.855	-2.251	2.102	1.550	1.973	2.434	2.730	410.156
-4.557	-4.810	-2.823	-2.781	0.799	-0.552	4.687	5.689	6.314	4.949	5.649	2.810	3.464	1.756	-3.999	-5.459	-5.056	-3.253	-3.372	-3.673	-0.669	-0.793	-2.187	2.062	1.489	2.045	2.372	2.756	414.062
-4.467	-4.808	-2.613	-2.821	0.832	-0.456	4.506	5.445	6.012	4.672	5.389	2.762	3.334	1.707	-3.827	-5.431	-5.153	-3.248	-3.402	-3.644	-0.666	-0.728	-2.162	2.051	1.444	2.139	2.359	2.856	417.969
-4.347	-4.845	-2.491	-2.883	0.853	-0.411	4.387	5.244	5.799	4.482	5.240	2.818	3.256	1.691	-3.680	-5.458	-5.281	-3.326	-3.452	-3.638	-0.639	-0.656	-2.168	2.071	1.415	2.242	2.384	3.003	421.875
-4.203	-4.907	-2.460	-2.950	0.875	-0.404	4.340	5.093	5.670	4.384	5.191	2.939	3.237	1.721	-3.582	-5.530	-5.414	-3.478	-3.508	-3.644	-0.576	-0.569	-2.189	2.120	1.399	2.340	2.430	3.160	425.781
-4.044	-4.978	-2.512	-3.005	0.912	-0.422	4.364	4.991	5.611	4.370	5.219	3.081	3.278	1.808	-3.547	-5.628	-5.529	-3.681	-3.556	-3.648	-0.470	-0.460	-2.209	2.195	1.389	2.421	2.479	3.291	429.688
-3.884	-5.041	-2.627	-3.035	0.971	-0.454	4.448	4.931	5.595	4.419	5.298	3.203	3.374	1.954	-3.574	-5.733	-5.603	-3.908	-3.579	-3.635	-0.316	-0.325	-2.214	2.290	1.374	2.474	2.514	3.364	433.594
-3.738	-5.085	-2.781	-3.030	1.053	-0.496	4.575	4.901	5.598	4.510	5.404	3.283	3.511	2.151	-3.651	-5.826	-5.625	-4.127	-3.566	-3.595	-0.119	-0.163	-2.194	2.395	1.346	2.491	2.520	3.363	437.500
-3.620	-5.107	-2.951	-2.987	1.155	-0.548	4.720	4.885	5.596	4.618	5.519	3.313	3.672	2.384	-3.752	-5.892	-5.592	-4.313	-3.510	-3.521	0.110	0.019	-2.144	2.499	1.297	2.469	2.494	3.288	441.406
-3.539	-5.107	-3.116	-2.912	1.265	-0.614	4.860	4.871	5.573	4.722	5.633	3.308	3.837	2.632	-3.845	-5.924	-5.511	-4.447	-3.411	-3.416	0.351	0.212	-2.067	2.593	1.225	2.408	2.438	3.153	445.312
-3.498	-5.090	-3.263	-2.816	1.372	-0.697	4.974	4.847	5.523	4.807	5.743	3.292	3.990	2.870	-3.900	-5.924	-5.401	-4.517	-3.277	-3.290	0.584	0.401	-1.970	2.666	1.136	2.318	2.362	2.988	449.219
-3.496	-5.064	-3.384	-2.718	1.461	-0.803	5.045	4.802	5.449	4.866	5.852	3.298	4.115	3.073	-3.895	-5.898	-5.284	-4.522	-3.120	-3.160	0.785	0.569	-1.867	2.712	1.042	2.211	2.286	2.832	453.125
-3.526	-5.036	-3.476	-2.634	1.519	-0.932	5.065	4.732	5.360	4.896	5.963	3.354	4.206	3.221	-3.821	-5.859	-5.181	-4.470	-2.959	-3.044	0.933	0.705	-1.769	2.731	0.961	2.109	2.229	2.721	457.031
-3.576	-5.013	-3.538	-2.585	1.536	-1.081	5.034	4.635	5.267	4.901	6.077	3.476	4.261	3.305	-3.685	-5.823	-5.111	-4.376	-2.812	-2.962	1.016	0.799	-1.689	2.728	0.911	2.035	2.213	2.687	460.938
-3.630	-5.001	-3.572	-2.583	1.504	-1.244	4.958	4.516	5.183	4.886	6.191	3.666	4.287	3.325	-3.508	-5.801	-5.085	-4.258	-2.695	-2.930	1.027	0.850	-1.633	2.714	0.911	2.011	2.256	2.749	464.844
-3.668	-5.012	-3.584	-2.637	1.421	-1.411	4.851	4.381	5.118	4.861	6.301	3.912	4.295	3.290	-3.320	-5.806	-5.106	-4.138	-2.619	-2.956	0.973	0.864	-1.602	2.705	0.974	2.054	2.367	2.912	468.750
-3.669	-5.053	-3.586	-2.747	1.292	-1.570	4.731	4.240	5.080	4.831	6.400	4.190	4.298	3.220	-3.155	-5.845	-5.171	-4.033	-2.589	-3.040	0.866	0.850	-1.592	2.716	1.107	2.172	2.548	3.166	472.656
-3.617	-5.136	-3.594	-2.903	1.130	-1.709	4.615	4.103	5.070	4.805	6.484	4.473	4.310	3.139	-3.044	-5.921	-5.270	-3.957	-2.601	-3.173	0.728	0.821	-1.595	2.760	1.304	2.359	2.791	3.488	476.562
-3.506	-5.265	-3.626	-3.088	0.955	-1.815	4.522	3.982	5.089	4.787	6.553	4.733	4.339	3.071	-3.005	-6.029	-5.390	-3.915	-2.650	-3.336	0.585	0.790	-1.603	2.842	1.550	2.596	3.076	3.844	480.469
-3.343	-5.440	-3.701	-3.275	0.794	-1.878	4.461	3.886	5.135	4.779	6.609	4.946	4.391	3.036	-3.042	-6.160	-5.516	-3.903	-2.722	-3.506	0.463	0.765	-1.612	2.958	1.816	2.850	3.374	4.196	484.375
-3.151	-5.647	-3.829	-3.436	0.678	-1.891	4.441	3.821	5.205	4.781	6.660	5.098	4.463	3.046	-3.143	-6.296	-5.633	-3.915	-2.803	-3.655	0.385	0.753	-1.619	3.093	2.063	3.077	3.649	4.505	488.281
-2.964	-5.862	-4.009	-3.542	0.636	-1.850	4.462	3.792	5.296	4.792	6.711	5.183	4.545	3.105	-3.282	-6.415	-5.726	-3.943	-2.881	-3.755	0.369	0.753	-1.628	3.223	2.251	3.237	3.863	4.735	492.188
-2.821	-6.053	-4.227	-3.572	0.687	-1.753	4.517	3.800	5.403	4.808	6.767	5.204	4.625	3.209	-3.427	-6.495	-5.789	-3.981	-2.943	-3.785	0.422	0.762	-1.645	3.323	2.347	3.293	3.985	4.860	496.094
-2.756	-6.189	-4.457	-3.511	0.840	-1.601	4.601	3.843	5.520	4.827	6.830	5.166	4.692	3.346	-3.545	-6.517	-5.816	-4.024	-2.980	-3.733	0.543	0.778	-1.675	3.370	2.328	3.225	3.993	4.866	500.000
-2.787	-6.242	-4.666	-3.360	1.088	-1.398	4.700	3.914	5.636	4.845	6.893	5.081	4.735	3.500	-3.611	-6.470	-5.812	-4.073	-2.986	-3.600	0.721	0.798	-1.716	3.351	2.189	3.028	3.878	4.751	503.906
-2.909	-6.196	-4.817	-3.130	1.409	-1.154	4.804	4.000	5.737	4.855	6.944	4.957	4.747	3.654	-3.612	-6.352	-5.783	-4.126	-2.958	-3.396	0.940	0.826	-1.764	3.263	1.947	2.718	3.650	4.529	507.812
-3.094	-6.052	-4.880	-2.843	1.768	-0.885	4.900	4.086	5.806	4.851	6.966	4.800	4.726	3.794	-3.548	-6.169	-5.736	-4.183	-2.894	-3.139	1.181	0.868	-1.807	3.117	1.632	2.325	3.335	4.221	511.719
-3.296	-5.823	-4.831	-2.524	2.130	-0.614	4.977	4.152	5.823	4.826	6.942	4.611	4.679	3.912	-3.436	-5.935	-5.675	-4.244	-2.796	-2.853	1.426	0.934	-1.829	2.934	1.284	1.891	2.970	3.858	515.625
-3.461	-5.536	-4.667	-2.202	2.458	-0.364	5.026	4.178	5.773	4.771	6.855	4.389	4.611	4.003	-3.302	-5.670	-5.599	-4.306	-2.663	-2.556	1.662	1.035	-1.815	2.743	0.945	1.458	2.598	3.471	519.531
-3.538	-5.227	-4.399	-1.901	2.726	-0.159	5.037	4.149	5.645	4.679	6.694	4.132	4.534	4.068	-3.174	-5.392	-5.503	-4.363	-2.498	-2.267	1.879	1.182	-1.751	2.572	0.655	1.070	2.260	3.091	523.438
-3.495	-4.929	-4.056	-1.639	2.918	-0.017	5.004	4.055	5.435	4.544	6.456	3.840	4.453	4.111	-3.077	-5.120	-5.381	-4.407	-2.302	-1.998	2.072	1.378	-1.629	2.445	0.441	0.759	1.989	2.742	527.344
-3.324	-4.670	-3.683	-1.423	3.034	0.055	4.921	3.892	5.146	4.362	6.143	3.513	4.375	4.134	-3.023	-4.868	-5.228	-4.422	-2.081	-1.755	2.239	1.622	-1.447	2.379	0.319	0.547	1.807	2.442	531.250
-3.047	-4.467	-3.326	-1.256	3.079	0.060	4.783	3.665	4.788	4.129	5.766	3.158	4.296	4.139	-3.007	-4.644	-5.041	-4.391	-1.837	-1.540	2.379	1.904	-1.207	2.377	0.295	0.441	1.718	2.202	535.156
-2.709	-4.320	-3.028	-1.128	3.070	0.008	4.586	3.381	4.373	3.844	5.334	2.782	4.211	4.127	-3.008	-4.452	-4.817	-4.294	-1.573	-1.352	2.492	2.210	-0.917	2.433	0.362	0.437	1.708	2.021	539.062
-2.368	-4.217	-2.820	-1.031	3.022	-0.080	4.328	3.054	3.916	3.510	4.862	2.397	4.110	4.094	-2.996	-4.285	-4.559	-4.116	-1.292	-1.186	2.577	2.524	-0.587	2.529	0.504	0.516	1.754	1.893	542.969
-2.083	-4.137	-2.712	-0.950	2.950	-0.185	4.010	2.696	3.429	3.131	4.361	2.011	3.980	4.036	-2.939	-4.137	-4.267	-3.850	-0.993	-1.036	2.633	2.827	-0.230	2.641	0.701	0.651	1.822	1.805	546.875
-1.894	-4.060	-2.693	-0.876	2.863	-0.290	3.638	2.320	2.925	2.713	3.843	1.636	3.814	3.949	-2.809	-3.996	-3.943	-3.499	-0.677	-0.896	2.660	3.108	0.138	2.744	0.928	0.810	1.878	1.742	550.781
-1.819	-3.964	-2.736	-0.804	2.768	-0.385	3.226	1.937	2.415	2.268	3.320	1.278	3.606	3.833	-2.596	-3.851	-3.593	-3.077	-0.345	-0.759	2.661	3.355	0.501	2.814	1.158	0.960	1.892	1.685	554.688
-1.844	-3.840	-2.806	-0.729	2.666	-0.468	2.789	1.556	1.910	1.810	2.803	0.946	3.358	3.689	-2.303	-3.697	-3.225	-2.609	-0.005	-0.625	2.640	3.563	0.844	2.836	1.371	1.074	1.845	1.622	558.594
-1.936	-3.686	-2.866	-0.653	2.560	-0.543	2.350	1.188	1.422	1.356	2.308	0.647	3.079	3.525	-1.951	-3.533	-2.856	-2.127	0.335	-0.495	2.601	3.731	1.156	2.801	1.547	1.132	1.731	1.543	562.500
-2.047	-3.508	-2.889	-0.580	2.451	-0.620	1.933	0.841	0.965	0.928	1.853	0.390	2.786	3.352	-1.573	-3.364	-2.506	-1.667	0.659	-0.373	2.552	3.860	1.426	2.713	1.674	1.129	1.558	1.444	566.406
-2.130	-3.319	-2.860	-0.513	2.341	-0.708	1.561	0.524	0.556	0.546	1.455	0.184	2.501	3.183	-1.204	-3.200	-2.200	-1.260	0.949	-0.265	2.501	3.953	1.646	2.583	1.750	1.066	1.346	1.331	570.312
-2.153	-3.137	-2.783	-0.456	2.234	-0.815	1.255	0.248	0.212	0.230	1.130	0.039	2.246	3.031	-0.881	-3.052	-1.960	-0.932	1.187	-0.178	2.456	4.014	1.814	2.433	1.778	0.961	1.124	1.214	574.219
-2.101	-2.980	-2.673	-0.416	2.133	-0.945	1.028	0.021	-0.052	-0.006	0.891	-0.038	2.045	2.911	-0.629	-2.931	-1.802	-0.698	1.361	-0.116	2.421	4.045	1.927	2.288	1.768	0.836	0.922	1.105	578.125
-1.985	-2.864	-2.555	-0.397	2.041	-1.094	0.884	-0.148	-0.226	-0.150	0.741	-0.045	1.914	2.828	-0.465	-2.849	-1.731	-0.554	1.460	-0.084	2.400	4.050	1.989	2.173	1.737	0.720	0.771	1.020	582.031
-1.830	-2.805	-2.460	-0.404	1.959	-1.256	0.820	-0.258	-0.308	-0.204	0.675	0.017	1.864	2.788	-0.390	-2.808	-1.741	-0.485	1.488	-0.080	2.392	4.033	2.006	2.113	1.703	0.639	0.696	0.972	585.938
-1.675	-2.813	-2.414	-0.442	1.888	-1.420	0.821	-0.313	-0.303	-0.173	0.682	0.138	1.896	2.790	-0.394	-2.810	-1.814	-0.463	1.451	-0.102	2.395	4.001	1.987	2.121	1.683	0.614	0.713	0.967	589.844
-1.559	-2.892	-2.436	-0.515	1.828	-1.577	0.870	-0.321	-0.227	-0.071	0.742	0.305	2.003	2.828	-0.458	-2.851	-1.928	-0.458	1.368	-0.146	2.407	3.964	1.946	2.204	1.690	0.655	0.826	1.008	593.750
-1.512	-3.042	-2.531	-0.623	1.776	-1.721	0.948	-0.298	-0.104	0.080	0.831	0.495	2.174	2.898	-0.557	-2.922	-2.060	-0.442	1.257	-0.205	2.425	3.932	1.897	2.358	1.730	0.761	1.029	1.089	597.656
-1.548	-3.250	-2.685	-0.761	1.732	-1.848	1.034	-0.263	0.038	0.258	0.926	0.689	2.389	2.993	-0.668	-3.011	-2.192	-0.399	1.141	-0.270	2.451	3.915	1.854	2.569	1.801	0.915	1.303	1.200	601.562
-1.660	-3.498	-2.867	-0.918	1.695	-1.960	1.114	-0.233	0.170	0.438	1.003	0.862	2.629	3.107	-0.771	-3.100	-2.308	-0.325	1.040	-0.330	2.488	3.922	1.831	2.814	1.890	1.095	1.617	1.325	605.469
-1.824	-3.754	-3.041	-1.080	1.668	-2.055	1.176	-0.226	0.265	0.597	1.043	0.994	2.871	3.236	-0.850	-3.173	-2.400	-0.228	0.971	-0.373	2.540	3.956	1.838	3.065	1.977	1.268	1.937	1.443	609.375
-2.003	-3.983	-3.168	-1.223	1.653	-2.132	1.212	-0.255	0.303	0.714	1.029	1.066	3.092	3.376	-0.899	-3.207	-2.460	-0.121	0.945	-0.386	2.612	4.016	1.878	3.292	2.037	1.403	2.222	1.531	613.281
-2.161	-4.143	-3.221	-1.326	1.658	-2.185	1.218	-0.325	0.272	0.771	0.948	1.066	3.274	3.520	-0.913	-3.187	-2.484	-0.018	0.971	-0.356	2.709	4.098	1.951	3.465	2.042	1.467	2.435	1.569	617.188
-2.267	-4.199	-3.188	-1.366	1.688	-2.208	1.191	-0.437	0.167	0.759	0.795	0.986	3.402	3.664	-0.892	-3.099	-2.464	0.077	1.048	-0.273	2.834	4.193	2.051	3.562	1.970	1.440	2.546	1.537	621.094
-2.307	-4.129	-3.073	-1.327	1.750	-2.192	1.136	-0.580	-0.005	0.675	0.570	0.828	3.466	3.798	-0.837	-2.935	-2.394	0.162	1.174	-0.135	2.984	4.290	2.165	3.566	1.807	1.310	2.536	1.424	625.000
-2.279	-3.925	-2.898	-1.200	1.848	-2.131	1.056	-0.741	-0.230	0.525	0.282	0.600	3.463	3.914	-0.750	-2.699	-2.270	0.242	1.337	0.059	3.155	4.377	2.280	3.473	1.551	1.079	2.402	1.226	628.906
-2.197	-3.602	-2.689	-0.990	1.979	-2.023	0.959	-0.900	-0.490	0.323	-0.054	0.320	3.398	4.006	-0.636	-2.400	-2.090	0.323	1.526	0.298	3.337	4.446	2.385	3.288	1.213	0.760	2.152	0.953	632.812
-2.078	-3.187	-2.477	-0.714	2.136	-1.872	0.854	-1.041	-0.764	0.088	-0.421	0.009	3.280	4.066	-0.500	-2.057	-1.858	0.408	1.726	0.570	3.522	4.490	2.470	3.025	0.817	0.377	1.809	0.620	636.719
-1.944	-2.723	-2.281	-0.398	2.305	-1.686	0.752	-1.150	-1.030	-0.158	-0.794	-0.306	3.122	4.091	-0.348	-1.693	-1.584	0.494	1.926	0.857	3.696	4.508	2.531	2.708	0.394	-0.039	1.404	0.251	640.625
-1.811	-2.256	-2.113	-0.074	2.467	-1.477	0.660	-1.220	-1.270	-0.393	-1.154	-0.605	2.939	4.082	-0.189	-1.332	-1.284	0.576	2.112	1.139	3.849	4.501	2.570	2.361	-0.025	-0.459	0.971	-0.128	644.531
-1.693	-1.826	-1.974	0.228	2.604	-1.258	0.586	-1.250	-1.469	-0.597	-1.480	-0.868	2.746	4.041	-0.030	-0.996	-0.976	0.646	2.277	1.402	3.975	4.473	2.591	2.012	-0.409	-0.857	0.543	-0.494	648.438
-1.597	-1.467	-1.857	0.482	2.701	-1.045	0.530	-1.247	-1.618	-0.758	-1.759	-1.086	2.554	3.973	0.123	-0.700	-0.679	0.698	2.416	1.630	4.068	4.432	2.601	1.684	-0.738	-1.214	0.145	-0.825	652.344
-1.531	-1.198	-1.757	0.672	2.747	-0.853	0.491	-1.221	-1.713	-0.868	-1.983	-1.257	2.376	3.887	0.264	-0.457	-0.410	0.733	2.529	1.817	4.129	4.386	2.610	1.396	-1.000	-1.517	-0.203	-1.110	656.250
-1.497	-1.025	-1.672	0.790	2.740	-0.695	0.464	-1.187	-1.759	-0.928	-2.150	-1.385	2.218	3.791	0.391	-0.270	-0.182	0.756	2.617	1.959	4.159	4.344	2.625	1.161	-1.188	-1.760	-0.491	-1.340	660.156
-1.498	-0.944	-1.608	0.839	2.683	-0.584	0.439	-1.155	-1.763	-0.944	-2.263	-1.478	2.085	3.690	0.504	-0.140	-0.003	0.782	2.681	2.053	4.162	4.312	2.651	0.989	-1.307	-1.938	-0.713	-1.514	664.062
-1.534	-0.942	-1.578	0.826	2.586	-0.526	0.408	-1.137	-1.739	-0.931	-2.331	-1.545	1.980	3.590	0.606	-0.065	0.122	0.828	2.725	2.102	4.143	4.298	2.692	0.882	-1.360	-2.052	-0.868	-1.633	667.969
-1.599	-1.002	-1.594	0.764	2.458	-0.525	0.359	-1.138	-1.705	-0.907	-2.366	-1.597	1.900	3.494	0.703	-0.037	0.196	0.907	2.752	2.110	4.105	4.304	2.749	0.838	-1.357	-2.103	-0.960	-1.698	671.875
-1.683	-1.106	-1.664	0.667	2.309	-0.576	0.282	-1.162	-1.677	-0.892	-2.384	-1.638	1.843	3.399	0.798	-0.048	0.229	1.033	2.764	2.080	4.051	4.331	2.821	0.851	-1.304	-2.093	-0.992	-1.716	675.781
-1.771	-1.235	-1.788	0.549	2.148	-0.669	0.169	-1.209	-1.672	-0.907	-2.402	-1.676	1.801	3.303	0.894	-0.086	0.235	1.205	2.768	2.022	3.986	4.376	2.905	0.912	-1.210	-2.030	-0.971	-1.692	679.688
-1.841	-1.373	-1.953	0.425	1.984	-0.791	0.014	-1.279	-1.704	-0.969	-2.436	-1.714	1.767	3.201	0.994	-0.136	0.232	1.416	2.771	1.946	3.911	4.434	2.998	1.010	-1.083	-1.925	-0.906	-1.636	683.594
-1.876	-1.503	-2.140	0.307	1.820	-0.927	-0.182	-1.368	-1.781	-1.089	-2.500	-1.756	1.731	3.090	1.095	-0.183	0.242	1.648	2.783	1.866	3.833	4.500	3.096	1.132	-0.933	-1.792	-0.806	-1.559	687.500
-1.859	-1.612	-2.322	0.206	1.664	-1.063	-0.414	-1.477	-1.906	-1.270	-2.601	-1.806	1.687	2.969	1.195	-0.208	0.284	1.879	2.813	1.797	3.756	4.570	3.193	1.264	-0.768	-1.650	-0.684	-1.472	691.406
-1.786	-1.689	-2.475	0.130	1.519	-1.189	-0.673	-1.602	-2.076	-1.505	-2.740	-1.867	1.627	2.842	1.293	-0.200	0.371	2.091	2.868	1.754	3.687	4.642	3.284	1.394	-0.603	-1.516	-0.554	-1.390	695.312
-1.663	-1.722	-2.578	0.082	1.392	-1.299	-0.946	-1.741	-2.282	-1.780	-2.915	-1.941	1.550	2.715	1.388	-0.147	0.512	2.275	2.954	1.748	3.634	4.716	3.367	1.512	-0.449	-1.405	-0.431	-1.327	699.219
-1.509	-1.704	-2.623	0.065	1.286	-1.388	-1.220	-1.893	-2.514	-2.078	-3.115	-2.034	1.453	2.598	1.481	-0.046	0.704	2.434	3.072	1.784	3.601	4.794	3.440	1.611	-0.318	-1.332	-0.330	-1.293	703.125
-1.350	-1.631	-2.610	0.077	1.206	-1.457	-1.480	-2.054	-2.760	-2.377	-3.329	-2.147	1.342	2.499	1.576	0.099	0.937	2.579	3.218	1.862	3.591	4.876	3.502	1.684	-0.220	-1.304	-0.261	-1.300	707.031
-1.219	-1.503	-2.548	0.116	1.157	-1.502	-1.713	-2.221	-3.010	-2.660	-3.545	-2.282	1.224	2.429	1.673	0.280	1.191	2.726	3.385	1.975	3.604	4.964	3.556	1.731	-0.162	-1.321	-0.234	-1.351	710.938
-1.140	-1.327	-2.455	0.177	1.140	-1.525	-1.909	-2.385	-3.252	-2.910	-3.751	-2.440	1.109	2.395	1.773	0.480	1.444	2.881	3.559	2.109	3.639	5.054	3.605	1.754	-0.144	-1.381	-0.248	-1.446	714.844
-1.128	-1.118	-2.357	0.257	1.155	-1.523	-2.060	-2.539	-3.476	-3.117	-3.939	-2.615	1.010	2.402	1.872	0.681	1.670	3.045	3.723	2.248	3.693	5.143	3.651	1.759	-0.165	-1.471	-0.301	-1.578	718.750
-1.184	-0.901	-2.279	0.348	1.200	-1.496	-2.158	-2.669	-3.673	-3.274	-4.102	-2.802	0.940	2.452	1.961	0.862	1.844	3.207	3.857	2.377	3.762	5.222	3.695	1.754	-0.219	-1.578	-0.383	-1.737	722.656
-1.288	-0.707	-2.244	0.445	1.270	-1.443	-2.199	-2.765	-3.834	-3.376	-4.237	-2.991	0.910	2.543	2.031	1.006	1.946	3.353	3.945	2.480	3.842	5.284	3.734	1.746	-0.300	-1.689	-0.481	-1.908	726.562
-1.411	-0.563	-2.266	0.538	1.357	-1.364	-2.184	-2.814	-3.952	-3.423	-4.343	-3.172	0.924	2.671	2.068	1.097	1.965	3.469	3.975	2.548	3.930	5.320	3.761	1.741	-0.400	-1.793	-0.582	-2.079	730.469
-1.516	-0.491	-2.344	0.621	1.459	-1.259	-2.113	-2.808	-4.025	-3.420	-4.424	-3.337	0.982	2.827	2.063	1.128	1.903	3.546	3.942	2.576	4.021	5.325	3.770	1.742	-0.516	-1.883	-0.674	-2.237	734.375
-1.571	-0.501	-2.461	0.686	1.568	-1.130	-1.993	-2.750	-4.051	-3.373	-4.484	-3.480	1.075	3.002	2.009	1.100	1.774	3.584	3.855	2.567	4.112	5.298	3.756	1.747	-0.647	-1.963	-0.752	-2.377	738.281
-1.560	-0.584	-2.587	0.729	1.681	-0.984	-1.834	-2.645	-4.037	-3.289	-4.528	-3.597	1.191	3.183	1.906	1.022	1.604	3.592	3.731	2.530	4.198	5.243	3.718	1.751	-0.792	-2.038	-0.815	-2.499	742.188
-1.486	-0.723	-2.687	0.745	1.792	-0.833	-1.648	-2.511	-3.989	-3.178	-4.561	-3.689	1.316	3.357	1.764	0.911	1.424	3.581	3.595	2.477	4.274	5.171	3.659	1.748	-0.951	-2.118	-0.865	-2.603	746.094
-1.372	-0.891	-2.730	0.733	1.891	-0.696	-1.450	-2.368	-3.919	-3.049	-4.584	-3.753	1.437	3.512	1.601	0.786	1.267	3.561	3.474	2.421	4.335	5.098	3.588	1.734	-1.123	-2.211	-0.904	-2.692	750.000
-1.257	-1.061	-2.702	0.693	1.968	-0.595	-1.252	-2.238	-3.835	-2.908	-4.595	-3.789	1.545	3.640	1.439	0.666	1.157	3.536	3.391	2.374	4.378	5.041	3.515	1.710	-1.302	-2.318	-0.933	-2.764	753.906
-1.179	-1.209	-2.606	0.628	2.009	-0.551	-1.067	-2.140	-3.747	-2.762	-4.592	-3.794	1.635	3.737	1.301	0.569	1.108	3.504	3.363	2.347	4.401	5.012	3.452	1.680	-1.478	-2.436	-0.949	-2.814	757.812
-1.173	-1.319	-2.467	0.545	2.007	-0.580	-0.905	-2.086	-3.661	-2.615	-4.567	-3.765	1.711	3.803	1.206	0.505	1.119	3.458	3.394	2.340	4.403	5.021	3.408	1.656	-1.634	-2.551	-0.944	-2.831	761.719
-1.256	-1.382	-2.325	0.451	1.957	-0.689	-0.774	-2.081	-3.583	-2.471	-4.515	-3.699	1.778	3.841	1.166	0.477	1.178	3.390	3.475	2.353	4.386	5.068	3.389	1.648	-1.751	-2.646	-0.908	-2.807	765.625
-1.432	-1.396	-2.224	0.356	1.860	-0.869	-0.678	-2.119	-3.516	-2.334	-4.434	-3.598	1.846	3.856	1.184	0.483	1.263	3.296	3.588	2.376	4.354	5.146	3.394	1.668	-1.812	-2.702	-0.828	-2.732	769.531
-1.685	-1.369	-2.205	0.265	1.723	-1.102	-0.622	-2.189	-3.461	-2.205	-4.323	-3.466	1.921	3.852	1.255	0.515	1.349	3.180	3.710	2.399	4.309	5.241	3.419	1.724	-1.802	-2.704	-0.693	-2.602	773.438
-1.989	-1.309	-2.295	0.181	1.555	-1.361	-0.606	-2.272	-3.415	-2.087	-4.185	-3.311	2.011	3.834	1.371	0.560	1.414	3.049	3.819	2.411	4.255	5.337	3.456	1.819	-1.714	-2.642	-0.494	-2.420	777.344
-2.312	-1.232	-2.505	0.104	1.366	-1.619	-0.629	-2.351	-3.376	-1.980	-4.027	-3.142	2.118	3.804	1.517	0.605	1.441	2.914	3.897	2.401	4.196	5.418	3.499	1.948	-1.549	-2.515	-0.229	-2.195	781.250
-2.626	-1.149	-2.831	0.031	1.164	-1.854	-0.685	-2.412	-3.339	-1.882	-3.855	-2.970	2.241	3.764	1.682	0.643	1.418	2.784	3.935	2.364	4.135	5.476	3.541	2.106	-1.319	-2.333	0.098	-1.939	785.156
-2.914	-1.071	-3.252	-0.042	0.957	-2.053	-0.767	-2.446	-3.300	-1.790	-3.677	-2.801	2.380	3.717	1.854	0.666	1.349	2.665	3.934	2.300	4.073	5.507	3.578	2.283	-1.038	-2.107	0.479	-1.663	789.062
-3.171	-1.002	-3.740	-0.117	0.748	-2.218	-0.865	-2.455	-3.256	-1.700	-3.497	-2.639	2.530	3.665	2.025	0.675	1.241	2.557	3.901	2.214	4.013	5.516	3.609	2.471	-0.725	-1.853	0.897	-1.378	792.969
-3.402	-0.943	-4.259	-0.195	0.542	-2.359	-0.968	-2.445	-3.209	-1.610	-3.318	-2.481	2.687	3.612	2.191	0.673	1.111	2.457	3.849	2.115	3.953	5.510	3.635	2.663	-0.399	-1.588	1.334	-1.091	796.875
