FP1	F3	F7	FC3	C3	C5	P3	P7	PO7	PO3	O1	Oz	Pz	CPz	FP2	Fz	F4	F8	FC4	FCz	Cz	C4	C6	P4	P8	PO8	PO4	O2	time
1.721	-0.342	-1.081	0.091	0.026	-1.039	-1.171	-1.602	-1.977	-1.256	-1.779	-0.916	-0.506	0.462	0.510	0.651	1.248	0.883	1.372	0.927	1.034	0.775	1.808	0.042	0.633	0.085	-0.572	-0.183	-199.219
1.480	-0.019	-1.065	0.111	-0.208	-1.085	-1.372	-1.771	-1.966	-1.404	-1.836	-0.981	-0.576	0.361	0.798	0.758	1.326	1.034	1.477	1.045	1.050	0.880	1.721	-0.010	0.538	0.063	-0.535	-0.193	-195.312
1.259	0.255	-1.008	0.115	-0.434	-1.137	-1.551	-1.909	-1.946	-1.527	-1.865	-1.020	-0.650	0.246	1.060	0.841	1.373	1.175	1.556	1.129	1.036	0.969	1.633	-0.063	0.458	0.054	-0.493	-0.187	-191.406
1.081	0.442	-0.888	0.090	-0.640	-1.191	-1.686	-1.987	-1.907	-1.600	-1.840	-1.011	-0.726	0.109	1.273	0.879	1.365	1.289	1.580	1.151	0.970	1.023	1.542	-0.116	0.406	0.067	-0.439	-0.155	-187.500
0.959	0.523	-0.703	0.034	-0.815	-1.237	-1.757	-1.982	-1.836	-1.608	-1.743	-0.940	-0.802	-0.054	1.417	0.856	1.283	1.360	1.532	1.093	0.839	1.032	1.446	-0.169	0.392	0.107	-0.370	-0.091	-183.594
0.895	0.494	-0.477	-0.048	-0.947	-1.262	-1.754	-1.886	-1.723	-1.543	-1.566	-0.805	-0.873	-0.236	1.482	0.768	1.123	1.376	1.407	0.951	0.645	0.994	1.341	-0.217	0.417	0.171	-0.287	0.001	-179.688
0.884	0.370	-0.248	-0.144	-1.025	-1.251	-1.675	-1.702	-1.562	-1.406	-1.312	-0.614	-0.931	-0.426	1.466	0.619	0.896	1.329	1.210	0.735	0.401	0.913	1.226	-0.258	0.478	0.251	-0.195	0.111	-175.781
0.914	0.182	-0.059	-0.237	-1.037	-1.191	-1.524	-1.444	-1.349	-1.210	-0.998	-0.386	-0.967	-0.604	1.373	0.422	0.620	1.214	0.960	0.470	0.135	0.799	1.099	-0.288	0.562	0.333	-0.102	0.223	-171.875
0.967	-0.031	0.056	-0.309	-0.978	-1.071	-1.310	-1.136	-1.089	-0.970	-0.647	-0.143	-0.972	-0.751	1.212	0.199	0.321	1.032	0.679	0.188	-0.120	0.666	0.959	-0.307	0.650	0.402	-0.018	0.320	-167.969
1.025	-0.230	0.078	-0.343	-0.844	-0.887	-1.046	-0.804	-0.791	-0.706	-0.289	0.091	-0.938	-0.844	0.998	-0.026	0.027	0.790	0.396	-0.075	-0.329	0.525	0.804	-0.315	0.718	0.445	0.046	0.384	-164.062
1.066	-0.380	0.012	-0.327	-0.636	-0.645	-0.747	-0.473	-0.468	-0.435	0.048	0.294	-0.859	-0.866	0.748	-0.227	-0.238	0.502	0.132	-0.284	-0.462	0.388	0.633	-0.315	0.744	0.448	0.081	0.403	-160.156
1.069	-0.457	-0.118	-0.256	-0.364	-0.357	-0.427	-0.165	-0.137	-0.172	0.338	0.452	-0.734	-0.807	0.478	-0.385	-0.457	0.184	-0.095	-0.413	-0.499	0.262	0.446	-0.313	0.706	0.404	0.080	0.372	-156.250
1.015	-0.452	-0.272	-0.132	-0.042	-0.046	-0.102	0.105	0.184	0.071	0.563	0.555	-0.568	-0.666	0.209	-0.483	-0.622	-0.144	-0.274	-0.449	-0.434	0.152	0.243	-0.312	0.591	0.310	0.039	0.292	-152.344
0.889	-0.370	-0.405	0.033	0.307	0.258	0.214	0.329	0.479	0.287	0.714	0.601	-0.370	-0.454	-0.044	-0.514	-0.730	-0.461	-0.401	-0.391	-0.274	0.062	0.031	-0.318	0.395	0.170	-0.039	0.170	-148.438
0.688	-0.232	-0.482	0.222	0.658	0.525	0.507	0.505	0.731	0.472	0.788	0.592	-0.154	-0.190	-0.265	-0.479	-0.783	-0.746	-0.476	-0.252	-0.041	-0.007	-0.184	-0.330	0.129	-0.009	-0.150	0.021	-144.531
0.421	-0.064	-0.482	0.411	0.978	0.727	0.761	0.637	0.930	0.620	0.792	0.537	0.060	0.101	-0.442	-0.386	-0.786	-0.983	-0.504	-0.056	0.234	-0.052	-0.387	-0.347	-0.185	-0.212	-0.282	-0.138	-140.625
0.112	0.101	-0.408	0.576	1.237	0.842	0.963	0.729	1.069	0.729	0.738	0.448	0.256	0.390	-0.569	-0.251	-0.742	-1.160	-0.491	0.166	0.517	-0.073	-0.567	-0.362	-0.515	-0.418	-0.417	-0.287	-136.719
-0.204	0.238	-0.283	0.695	1.407	0.860	1.102	0.786	1.145	0.797	0.641	0.341	0.420	0.653	-0.644	-0.092	-0.661	-1.277	-0.445	0.383	0.775	-0.068	-0.710	-0.367	-0.822	-0.605	-0.536	-0.405	-132.812
-0.488	0.325	-0.145	0.751	1.469	0.781	1.170	0.810	1.161	0.824	0.519	0.233	0.543	0.870	-0.670	0.067	-0.553	-1.340	-0.378	0.565	0.980	-0.038	-0.803	-0.349	-1.068	-0.750	-0.616	-0.475	-128.906
-0.704	0.352	-0.031	0.735	1.414	0.618	1.170	0.804	1.125	0.812	0.389	0.141	0.623	1.030	-0.656	0.205	-0.431	-1.359	-0.298	0.691	1.114	0.015	-0.842	-0.298	-1.222	-0.834	-0.638	-0.483	-125.000
-0.828	0.315	0.027	0.644	1.247	0.391	1.107	0.765	1.046	0.766	0.266	0.080	0.669	1.131	-0.614	0.302	-0.312	-1.349	-0.218	0.747	1.173	0.088	-0.824	-0.205	-1.264	-0.845	-0.588	-0.424	-121.094
-0.851	0.216	0.015	0.484	0.987	0.124	0.996	0.695	0.938	0.695	0.160	0.059	0.692	1.179	-0.558	0.340	-0.212	-1.323	-0.145	0.728	1.157	0.176	-0.754	-0.068	-1.188	-0.777	-0.462	-0.300	-117.188
-0.786	0.063	-0.064	0.268	0.662	-0.153	0.855	0.596	0.815	0.610	0.077	0.081	0.707	1.184	-0.502	0.312	-0.142	-1.290	-0.085	0.639	1.079	0.273	-0.642	0.112	-1.003	-0.638	-0.263	-0.120	-113.281
-0.661	-0.130	-0.193	0.014	0.308	-0.415	0.706	0.473	0.691	0.526	0.018	0.141	0.727	1.159	-0.458	0.218	-0.106	-1.252	-0.042	0.491	0.955	0.369	-0.499	0.323	-0.734	-0.440	-0.008	0.096	-109.375
-0.518	-0.348	-0.346	-0.256	-0.036	-0.638	0.568	0.335	0.576	0.451	-0.021	0.225	0.760	1.118	-0.433	0.068	-0.100	-1.206	-0.013	0.304	0.805	0.456	-0.342	0.548	-0.414	-0.205	0.278	0.325	-105.469
-0.398	-0.569	-0.493	-0.517	-0.337	-0.805	0.456	0.194	0.476	0.395	-0.048	0.316	0.808	1.071	-0.427	-0.115	-0.113	-1.141	0.002	0.100	0.646	0.522	-0.186	0.765	-0.081	0.045	0.568	0.541	-101.562
-0.337	-0.771	-0.609	-0.744	-0.567	-0.902	0.379	0.064	0.393	0.360	-0.069	0.395	0.864	1.022	-0.436	-0.303	-0.127	-1.048	0.007	-0.098	0.494	0.559	-0.044	0.952	0.228	0.285	0.829	0.721	-97.656
-0.356	-0.927	-0.673	-0.915	-0.708	-0.923	0.339	-0.044	0.324	0.342	-0.090	0.445	0.915	0.971	-0.450	-0.466	-0.130	-0.918	0.003	-0.268	0.357	0.557	0.071	1.085	0.482	0.493	1.037	0.845	-93.750
-0.456	-1.013	-0.676	-1.009	-0.754	-0.867	0.330	-0.119	0.263	0.335	-0.111	0.453	0.946	0.909	-0.457	-0.579	-0.112	-0.747	-0.007	-0.394	0.240	0.511	0.151	1.148	0.659	0.651	1.168	0.902	-89.844
-0.619	-1.012	-0.616	-1.016	-0.709	-0.740	0.343	-0.152	0.206	0.332	-0.130	0.414	0.939	0.827	-0.450	-0.623	-0.073	-0.539	-0.024	-0.467	0.137	0.421	0.189	1.132	0.750	0.747	1.213	0.886	-85.938
-0.810	-0.915	-0.498	-0.936	-0.588	-0.553	0.365	-0.143	0.150	0.324	-0.140	0.333	0.881	0.713	-0.421	-0.592	-0.017	-0.306	-0.048	-0.488	0.042	0.291	0.187	1.036	0.756	0.773	1.167	0.802	-82.031
-0.992	-0.728	-0.333	-0.779	-0.413	-0.326	0.383	-0.094	0.095	0.308	-0.133	0.219	0.765	0.556	-0.369	-0.493	0.046	-0.067	-0.077	-0.464	-0.054	0.131	0.147	0.867	0.688	0.730	1.038	0.660	-78.125
-1.124	-0.469	-0.136	-0.566	-0.213	-0.078	0.387	-0.013	0.042	0.283	-0.104	0.087	0.594	0.354	-0.297	-0.343	0.107	0.160	-0.106	-0.409	-0.161	-0.044	0.080	0.641	0.563	0.626	0.840	0.474	-74.219
-1.179	-0.169	0.080	-0.323	-0.016	0.169	0.369	0.088	-0.005	0.249	-0.051	-0.047	0.376	0.110	-0.209	-0.165	0.163	0.356	-0.127	-0.340	-0.282	-0.217	-0.001	0.378	0.401	0.470	0.592	0.259	-70.312
-1.143	0.138	0.303	-0.081	0.153	0.394	0.326	0.197	-0.043	0.211	0.022	-0.169	0.129	-0.163	-0.114	0.016	0.212	0.511	-0.134	-0.271	-0.417	-0.371	-0.082	0.102	0.222	0.279	0.318	0.030	-66.406
-1.021	0.415	0.523	0.135	0.277	0.582	0.260	0.299	-0.068	0.173	0.111	-0.268	-0.125	-0.446	-0.022	0.177	0.256	0.620	-0.124	-0.216	-0.561	-0.493	-0.153	-0.164	0.042	0.068	0.040	-0.199	-62.500
-0.830	0.633	0.732	0.308	0.347	0.725	0.178	0.387	-0.080	0.138	0.205	-0.339	-0.362	-0.714	0.058	0.300	0.296	0.685	-0.095	-0.183	-0.703	-0.575	-0.208	-0.399	-0.122	-0.146	-0.219	-0.414	-58.594
-0.600	0.772	0.920	0.426	0.362	0.818	0.087	0.453	-0.077	0.108	0.297	-0.377	-0.560	-0.945	0.118	0.374	0.332	0.715	-0.055	-0.177	-0.833	-0.618	-0.244	-0.587	-0.262	-0.346	-0.439	-0.602	-54.688
-0.361	0.826	1.077	0.488	0.330	0.862	-0.003	0.498	-0.058	0.085	0.378	-0.384	-0.699	-1.116	0.149	0.393	0.358	0.719	-0.015	-0.200	-0.940	-0.630	-0.266	-0.716	-0.367	-0.515	-0.606	-0.751	-50.781
-0.143	0.801	1.192	0.498	0.262	0.866	-0.081	0.525	-0.024	0.066	0.445	-0.363	-0.769	-1.216	0.149	0.361	0.366	0.706	0.011	-0.248	-1.020	-0.623	-0.282	-0.780	-0.435	-0.640	-0.707	-0.851	-46.875
0.031	0.712	1.258	0.465	0.172	0.839	-0.140	0.542	0.024	0.052	0.497	-0.316	-0.765	-1.239	0.115	0.284	0.345	0.681	0.008	-0.318	-1.068	-0.614	-0.301	-0.781	-0.464	-0.709	-0.740	-0.894	-42.969
0.152	0.579	1.268	0.401	0.076	0.796	-0.171	0.554	0.086	0.045	0.538	-0.247	-0.692	-1.192	0.049	0.173	0.285	0.648	-0.038	-0.403	-1.088	-0.619	-0.331	-0.723	-0.457	-0.716	-0.705	-0.877	-39.062
0.219	0.423	1.227	0.316	-0.012	0.752	-0.169	0.569	0.158	0.048	0.572	-0.158	-0.561	-1.087	-0.046	0.038	0.180	0.600	-0.135	-0.496	-1.083	-0.649	-0.378	-0.618	-0.420	-0.656	-0.608	-0.797	-35.156
0.237	0.264	1.141	0.223	-0.082	0.721	-0.129	0.592	0.239	0.065	0.605	-0.054	-0.386	-0.939	-0.162	-0.105	0.027	0.528	-0.283	-0.585	-1.058	-0.712	-0.448	-0.475	-0.365	-0.534	-0.460	-0.661	-31.250
0.215	0.118	1.026	0.131	-0.123	0.715	-0.050	0.623	0.323	0.104	0.640	0.063	-0.186	-0.768	-0.293	-0.244	-0.166	0.421	-0.476	-0.660	-1.016	-0.805	-0.542	-0.308	-0.301	-0.357	-0.274	-0.477	-27.344
0.161	-0.004	0.895	0.049	-0.133	0.742	0.065	0.663	0.407	0.167	0.678	0.186	0.024	-0.587	-0.427	-0.365	-0.385	0.271	-0.696	-0.713	-0.962	-0.921	-0.657	-0.130	-0.240	-0.143	-0.065	-0.260	-23.438
0.078	-0.097	0.763	-0.019	-0.112	0.802	0.208	0.707	0.485	0.254	0.718	0.306	0.228	-0.410	-0.556	-0.457	-0.611	0.078	-0.923	-0.738	-0.899	-1.047	-0.786	0.047	-0.186	0.091	0.151	-0.027	-19.531
-0.028	-0.160	0.639	-0.072	-0.066	0.891	0.368	0.750	0.551	0.359	0.754	0.412	0.414	-0.245	-0.669	-0.513	-0.821	-0.147	-1.131	-0.734	-0.829	-1.163	-0.919	0.213	-0.143	0.324	0.358	0.201	-15.625
-0.156	-0.201	0.525	-0.109	-0.007	0.994	0.529	0.785	0.597	0.471	0.781	0.494	0.572	-0.097	-0.758	-0.531	-0.992	-0.384	-1.296	-0.706	-0.757	-1.251	-1.044	0.360	-0.106	0.536	0.545	0.404	-11.719
-0.300	-0.226	0.417	-0.134	0.055	1.093	0.675	0.804	0.617	0.573	0.792	0.541	0.698	0.033	-0.816	-0.516	-1.110	-0.604	-1.399	-0.661	-0.688	-1.296	-1.143	0.482	-0.066	0.713	0.699	0.565	-7.812
-0.452	-0.245	0.309	-0.148	0.106	1.166	0.787	0.801	0.606	0.651	0.781	0.546	0.787	0.145	-0.841	-0.476	-1.164	-0.782	-1.428	-0.611	-0.625	-1.285	-1.202	0.577	-0.016	0.846	0.815	0.673	-3.906
-0.602	-0.263	0.194	-0.150	0.138	1.194	0.855	0.773	0.563	0.692	0.746	0.506	0.840	0.240	-0.833	-0.423	-1.154	-0.896	-1.381	-0.564	-0.572	-1.215	-1.211	0.644	0.047	0.932	0.888	0.722	0.000
-0.735	-0.280	0.072	-0.140	0.145	1.164	0.873	0.719	0.486	0.688	0.687	0.425	0.861	0.321	-0.798	-0.367	-1.085	-0.938	-1.267	-0.527	-0.527	-1.093	-1.164	0.685	0.123	0.971	0.921	0.714	3.906
-0.839	-0.296	-0.059	-0.118	0.126	1.073	0.841	0.644	0.382	0.641	0.608	0.311	0.857	0.393	-0.744	-0.320	-0.971	-0.907	-1.102	-0.500	-0.489	-0.931	-1.065	0.701	0.201	0.969	0.915	0.656	7.812
-0.899	-0.306	-0.192	-0.085	0.084	0.932	0.770	0.553	0.257	0.561	0.515	0.178	0.834	0.459	-0.679	-0.286	-0.824	-0.816	-0.911	-0.483	-0.456	-0.749	-0.925	0.697	0.271	0.935	0.880	0.563	11.719
-0.908	-0.309	-0.325	-0.046	0.022	0.759	0.671	0.455	0.124	0.462	0.419	0.045	0.803	0.519	-0.611	-0.268	-0.661	-0.685	-0.716	-0.470	-0.423	-0.570	-0.760	0.678	0.319	0.880	0.825	0.456	15.625
-0.866	-0.304	-0.455	-0.008	-0.054	0.581	0.562	0.357	-0.006	0.360	0.330	-0.069	0.771	0.573	-0.546	-0.266	-0.496	-0.536	-0.540	-0.457	-0.389	-0.418	-0.592	0.646	0.335	0.817	0.761	0.354	19.531
-0.782	-0.290	-0.578	0.021	-0.137	0.420	0.456	0.265	-0.122	0.269	0.258	-0.145	0.742	0.619	-0.483	-0.274	-0.340	-0.389	-0.398	-0.438	-0.353	-0.312	-0.443	0.605	0.314	0.761	0.700	0.277	23.438
-0.672	-0.266	-0.691	0.036	-0.220	0.295	0.363	0.182	-0.215	0.197	0.208	-0.171	0.715	0.649	-0.417	-0.284	-0.198	-0.255	-0.299	-0.410	-0.317	-0.264	-0.332	0.556	0.258	0.719	0.649	0.239	27.344
-0.557	-0.229	-0.786	0.033	-0.295	0.214	0.286	0.107	-0.284	0.144	0.182	-0.144	0.685	0.655	-0.343	-0.287	-0.073	-0.138	-0.241	-0.369	-0.286	-0.278	-0.276	0.497	0.174	0.698	0.610	0.244	31.250
-0.453	-0.175	-0.849	0.017	-0.359	0.178	0.221	0.039	-0.331	0.101	0.178	-0.074	0.640	0.624	-0.255	-0.274	0.038	-0.036	-0.217	-0.317	-0.265	-0.348	-0.281	0.423	0.074	0.697	0.582	0.287	35.156
-0.372	-0.100	-0.860	-0.004	-0.408	0.181	0.157	-0.023	-0.361	0.054	0.188	0.019	0.569	0.546	-0.151	-0.238	0.141	0.063	-0.212	-0.254	-0.261	-0.463	-0.347	0.328	-0.026	0.706	0.553	0.348	39.062
-0.312	-0.004	-0.800	-0.022	-0.442	0.214	0.080	-0.078	-0.382	-0.010	0.201	0.103	0.454	0.413	-0.032	-0.174	0.241	0.175	-0.213	-0.186	-0.282	-0.604	-0.463	0.205	-0.112	0.710	0.506	0.399	42.969
-0.271	0.109	-0.654	-0.026	-0.464	0.270	-0.020	-0.121	-0.396	-0.103	0.206	0.141	0.286	0.218	0.093	-0.082	0.343	0.315	-0.207	-0.117	-0.333	-0.753	-0.611	0.047	-0.175	0.693	0.421	0.403	46.875
-0.239	0.235	-0.421	-0.005	-0.477	0.344	-0.151	-0.144	-0.402	-0.232	0.193	0.096	0.057	-0.035	0.211	0.035	0.450	0.497	-0.184	-0.053	-0.417	-0.890	-0.765	-0.147	-0.211	0.633	0.278	0.322	50.781
-0.216	0.370	-0.113	0.050	-0.484	0.434	-0.312	-0.134	-0.396	-0.394	0.154	-0.064	-0.228	-0.337	0.308	0.171	0.562	0.724	-0.143	0.001	-0.531	-1.003	-0.900	-0.375	-0.221	0.515	0.061	0.120	54.688
-0.204	0.512	0.240	0.143	-0.483	0.544	-0.493	-0.082	-0.367	-0.576	0.087	-0.362	-0.558	-0.668	0.365	0.317	0.674	0.989	-0.085	0.040	-0.670	-1.082	-0.994	-0.630	-0.214	0.329	-0.234	-0.224	58.594
-0.214	0.662	0.601	0.275	-0.470	0.677	-0.674	0.026	-0.302	-0.760	-0.007	-0.806	-0.907	-1.002	0.366	0.460	0.782	1.270	-0.018	0.062	-0.819	-1.128	-1.032	-0.896	-0.201	0.074	-0.603	-0.718	62.500
-0.263	0.821	0.926	0.443	-0.441	0.837	-0.826	0.198	-0.190	-0.920	-0.123	-1.390	-1.245	-1.305	0.294	0.591	0.879	1.537	0.052	0.071	-0.961	-1.141	-1.010	-1.150	-0.197	-0.242	-1.024	-1.349	66.406
-0.369	0.985	1.178	0.637	-0.387	1.025	-0.917	0.441	-0.021	-1.030	-0.253	-2.097	-1.532	-1.542	0.134	0.700	0.957	1.753	0.114	0.069	-1.075	-1.127	-0.933	-1.368	-0.211	-0.604	-1.466	-2.088	70.312
-0.547	1.146	1.327	0.841	-0.304	1.240	-0.916	0.757	0.211	-1.068	-0.389	-2.900	-1.730	-1.678	-0.126	0.779	1.011	1.888	0.160	0.065	-1.138	-1.092	-0.818	-1.525	-0.255	-0.992	-1.889	-2.894	74.219
-0.810	1.287	1.364	1.036	-0.192	1.472	-0.799	1.143	0.504	-1.017	-0.527	-3.766	-1.803	-1.687	-0.490	0.824	1.031	1.922	0.185	0.067	-1.132	-1.040	-0.683	-1.598	-0.334	-1.387	-2.253	-3.720	78.125
-1.159	1.393	1.294	1.204	-0.052	1.712	-0.553	1.592	0.845	-0.872	-0.667	-4.657	-1.729	-1.551	-0.952	0.832	1.012	1.853	0.183	0.083	-1.043	-0.974	-0.549	-1.576	-0.449	-1.771	-2.522	-4.518	82.031
-1.590	1.446	1.140	1.328	0.110	1.948	-0.180	2.088	1.213	-0.638	-0.813	-5.537	-1.496	-1.270	-1.495	0.806	0.948	1.695	0.154	0.117	-0.867	-0.896	-0.434	-1.453	-0.594	-2.131	-2.674	-5.248	85.938
-2.088	1.436	0.936	1.400	0.287	2.171	0.302	2.607	1.578	-0.333	-0.975	-6.369	-1.112	-0.854	-2.089	0.749	0.836	1.478	0.103	0.173	-0.607	-0.807	-0.350	-1.238	-0.762	-2.460	-2.703	-5.876	89.844
-2.628	1.357	0.716	1.419	0.473	2.372	0.861	3.120	1.903	0.019	-1.166	-7.122	-0.599	-0.326	-2.698	0.668	0.679	1.234	0.038	0.253	-0.274	-0.703	-0.298	-0.946	-0.939	-2.753	-2.615	-6.383	93.750
-3.180	1.215	0.512	1.395	0.664	2.547	1.458	3.587	2.150	0.385	-1.400	-7.771	0.012	0.284	-3.280	0.574	0.487	0.994	-0.021	0.357	0.118	-0.578	-0.270	-0.598	-1.110	-3.005	-2.431	-6.759	97.656
-3.710	1.016	0.345	1.341	0.856	2.691	2.049	3.968	2.284	0.733	-1.685	-8.296	0.680	0.943	-3.797	0.476	0.275	0.782	-0.054	0.487	0.549	-0.425	-0.251	-0.217	-1.260	-3.208	-2.176	-7.002	101.562
-4.184	0.775	0.221	1.275	1.046	2.797	2.592	4.226	2.281	1.036	-2.024	-8.686	1.365	1.620	-4.216	0.386	0.066	0.605	-0.041	0.640	1.000	-0.238	-0.223	0.181	-1.378	-3.353	-1.871	-7.115	105.469
-4.578	0.507	0.133	1.211	1.230	2.859	3.055	4.330	2.131	1.274	-2.405	-8.933	2.032	2.283	-4.519	0.312	-0.120	0.460	0.032	0.812	1.450	-0.014	-0.170	0.580	-1.454	-3.422	-1.537	-7.102	109.375
-4.872	0.229	0.060	1.159	1.402	2.869	3.415	4.268	1.846	1.439	-2.805	-9.030	2.651	2.906	-4.697	0.255	-0.265	0.333	0.165	0.994	1.877	0.239	-0.088	0.969	-1.482	-3.398	-1.184	-6.966	113.281
-5.055	-0.044	-0.026	1.122	1.552	2.819	3.661	4.042	1.452	1.534	-3.187	-8.972	3.197	3.460	-4.757	0.214	-0.357	0.204	0.345	1.171	2.258	0.504	0.020	1.342	-1.458	-3.263	-0.815	-6.710	117.188
-5.120	-0.294	-0.152	1.092	1.667	2.704	3.792	3.673	0.997	1.572	-3.507	-8.754	3.653	3.923	-4.716	0.178	-0.398	0.056	0.544	1.324	2.569	0.754	0.139	1.688	-1.378	-3.007	-0.434	-6.333	121.094
-5.066	-0.512	-0.340	1.056	1.734	2.524	3.817	3.199	0.535	1.573	-3.714	-8.369	4.007	4.270	-4.594	0.131	-0.397	-0.121	0.724	1.428	2.786	0.956	0.244	1.998	-1.242	-2.626	-0.040	-5.838	125.000
-4.897	-0.688	-0.596	0.995	1.736	2.280	3.745	2.664	0.121	1.559	-3.765	-7.815	4.248	4.480	-4.414	0.058	-0.373	-0.332	0.846	1.462	2.888	1.076	0.308	2.257	-1.046	-2.127	0.360	-5.229	128.906
-4.625	-0.821	-0.914	0.890	1.661	1.978	3.592	2.116	-0.193	1.550	-3.626	-7.092	4.367	4.537	-4.191	-0.058	-0.353	-0.572	0.875	1.406	2.858	1.083	0.303	2.448	-0.790	-1.525	0.756	-4.512	132.812
-4.269	-0.913	-1.267	0.726	1.501	1.629	3.369	1.600	-0.372	1.560	-3.278	-6.209	4.357	4.430	-3.936	-0.225	-0.362	-0.835	0.787	1.249	2.687	0.954	0.209	2.555	-0.478	-0.847	1.136	-3.701	136.719
-3.848	-0.972	-1.617	0.497	1.253	1.245	3.089	1.152	-0.393	1.596	-2.722	-5.183	4.213	4.159	-3.651	-0.445	-0.426	-1.110	0.570	0.989	2.374	0.679	0.013	2.563	-0.117	-0.123	1.482	-2.814	140.625
-3.386	-1.011	-1.923	0.206	0.924	0.840	2.763	0.797	-0.253	1.660	-1.979	-4.041	3.936	3.730	-3.337	-0.715	-0.564	-1.388	0.226	0.633	1.925	0.260	-0.285	2.465	0.279	0.614	1.779	-1.876	144.531
-2.899	-1.047	-2.145	-0.138	0.528	0.429	2.404	0.551	0.037	1.749	-1.085	-2.816	3.535	3.160	-2.996	-1.023	-0.786	-1.660	-0.229	0.195	1.358	-0.288	-0.672	2.261	0.691	1.336	2.015	-0.913	148.438
-2.400	-1.098	-2.258	-0.516	0.084	0.024	2.025	0.418	0.453	1.856	-0.084	-1.551	3.022	2.473	-2.634	-1.358	-1.094	-1.918	-0.773	-0.304	0.694	-0.939	-1.125	1.960	1.099	2.017	2.183	0.047	152.344
-1.895	-1.181	-2.258	-0.912	-0.385	-0.361	1.641	0.393	0.967	1.975	0.971	-0.289	2.420	1.695	-2.261	-1.711	-1.476	-2.154	-1.374	-0.846	-0.039	-1.655	-1.613	1.581	1.482	2.641	2.284	0.978	156.250
-1.392	-1.310	-2.163	-1.308	-0.854	-0.715	1.266	0.467	1.548	2.100	2.033	0.926	1.755	0.860	-1.892	-2.074	-1.915	-2.357	-2.000	-1.411	-0.813	-2.395	-2.100	1.152	1.827	3.202	2.325	1.855	160.156
-0.901	-1.495	-2.008	-1.688	-1.298	-1.027	0.918	0.628	2.166	2.228	3.060	2.056	1.058	-0.001	-1.543	-2.444	-2.385	-2.518	-2.618	-1.982	-1.599	-3.116	-2.553	0.702	2.121	3.698	2.319	2.658	164.062
-0.442	-1.732	-1.840	-2.043	-1.697	-1.286	0.612	0.863	2.798	2.361	4.018	3.066	0.362	-0.855	-1.227	-2.820	-2.861	-2.629	-3.197	-2.545	-2.371	-3.777	-2.943	0.261	2.364	4.130	2.280	3.371	167.969
-0.040	-2.010	-1.703	-2.363	-2.035	-1.482	0.360	1.156	3.423	2.498	4.885	3.932	-0.301	-1.670	-0.956	-3.200	-3.317	-2.686	-3.713	-3.087	-3.102	-4.344	-3.249	-0.145	2.558	4.501	2.223	3.981	171.875
0.276	-2.308	-1.629	-2.642	-2.302	-1.602	0.172	1.494	4.024	2.645	5.645	4.636	-0.905	-2.419	-0.734	-3.579	-3.731	-2.694	-4.148	-3.597	-3.772	-4.794	-3.461	-0.495	2.713	4.809	2.160	4.477	175.781
0.484	-2.598	-1.628	-2.876	-2.493	-1.637	0.056	1.865	4.589	2.803	6.291	5.168	-1.425	-3.077	-0.566	-3.949	-4.086	-2.663	-4.493	-4.063	-4.363	-5.117	-3.577	-0.777	2.838	5.050	2.098	4.850	179.688
0.568	-2.854	-1.689	-3.063	-2.612	-1.581	0.011	2.256	5.108	2.971	6.820	5.525	-1.848	-3.625	-0.454	-4.298	-4.371	-2.610	-4.742	-4.478	-4.860	-5.312	-3.603	-0.984	2.942	5.215	2.040	5.093	183.594
0.531	-3.056	-1.788	-3.206	-2.667	-1.436	0.033	2.657	5.570	3.146	7.229	5.713	-2.165	-4.050	-0.396	-4.612	-4.579	-2.555	-4.900	-4.832	-5.255	-5.391	-3.553	-1.119	3.033	5.297	1.985	5.205	187.500
0.388	-3.193	-1.894	-3.309	-2.672	-1.214	0.110	3.054	5.968	3.321	7.520	5.743	-2.378	-4.349	-0.391	-4.877	-4.709	-2.516	-4.973	-5.122	-5.544	-5.369	-3.441	-1.186	3.114	5.292	1.931	5.190	191.406
0.165	-3.260	-1.978	-3.382	-2.645	-0.935	0.227	3.437	6.296	3.486	7.695	5.632	-2.493	-4.521	-0.434	-5.083	-4.766	-2.507	-4.972	-5.347	-5.729	-5.264	-3.280	-1.190	3.187	5.204	1.877	5.060	195.312
-0.103	-3.266	-2.028	-3.434	-2.606	-0.627	0.367	3.792	6.548	3.631	7.757	5.403	-2.518	-4.573	-0.521	-5.228	-4.761	-2.533	-4.911	-5.509	-5.817	-5.095	-3.079	-1.137	3.253	5.047	1.825	4.835	199.219
-0.383	-3.226	-2.047	-3.475	-2.571	-0.321	0.515	4.105	6.722	3.747	7.713	5.082	-2.464	-4.511	-0.643	-5.316	-4.709	-2.589	-4.804	-5.615	-5.814	-4.873	-2.844	-1.030	3.313	4.844	1.784	4.544	203.125
-0.643	-3.158	-2.053	-3.512	-2.551	-0.050	0.662	4.364	6.820	3.830	7.578	4.702	-2.339	-4.344	-0.794	-5.362	-4.632	-2.667	-4.668	-5.675	-5.732	-4.610	-2.580	-0.871	3.368	4.625	1.764	4.220	207.031
-0.863	-3.088	-2.076	-3.551	-2.548	0.163	0.804	4.562	6.846	3.885	7.370	4.296	-2.147	-4.080	-0.970	-5.384	-4.559	-2.754	-4.521	-5.701	-5.578	-4.316	-2.295	-0.658	3.420	4.419	1.778	3.900	210.938
-1.035	-3.040	-2.148	-3.596	-2.556	0.301	0.946	4.694	6.813	3.921	7.113	3.898	-1.889	-3.728	-1.163	-5.405	-4.514	-2.841	-4.382	-5.703	-5.363	-4.000	-1.998	-0.394	3.469	4.254	1.838	3.619	214.844
-1.168	-3.038	-2.291	-3.646	-2.561	0.362	1.098	4.765	6.734	3.951	6.837	3.541	-1.567	-3.296	-1.370	-5.444	-4.524	-2.922	-4.266	-5.693	-5.093	-3.676	-1.705	-0.084	3.514	4.147	1.952	3.402	218.750
-1.279	-3.096	-2.511	-3.699	-2.544	0.357	1.270	4.780	6.624	3.990	6.566	3.249	-1.183	-2.798	-1.583	-5.514	-4.601	-2.996	-4.183	-5.676	-4.778	-3.355	-1.436	0.261	3.550	4.106	2.121	3.267	222.656
-1.392	-3.217	-2.796	-3.751	-2.489	0.307	1.470	4.750	6.496	4.049	6.322	3.037	-0.743	-2.250	-1.794	-5.619	-4.748	-3.069	-4.137	-5.654	-4.427	-3.051	-1.209	0.627	3.569	4.124	2.336	3.215	226.562
-1.527	-3.394	-3.118	-3.795	-2.383	0.241	1.700	4.688	6.363	4.133	6.119	2.910	-0.263	-1.673	-1.996	-5.755	-4.949	-3.148	-4.124	-5.625	-4.052	-2.776	-1.040	0.992	3.562	4.185	2.582	3.236	230.469
-1.694	-3.609	-3.440	-3.827	-2.225	0.185	1.954	4.607	6.233	4.242	5.963	2.862	0.238	-1.093	-2.184	-5.908	-5.179	-3.244	-4.132	-5.583	-3.664	-2.539	-0.940	1.334	3.521	4.268	2.837	3.310	234.375
-1.891	-3.839	-3.724	-3.841	-2.020	0.162	2.220	4.523	6.115	4.367	5.853	2.876	0.735	-0.533	-2.352	-6.059	-5.402	-3.362	-4.149	-5.523	-3.279	-2.345	-0.913	1.633	3.438	4.348	3.076	3.410	238.281
-2.106	-4.056	-3.942	-3.835	-1.783	0.184	2.484	4.449	6.015	4.501	5.785	2.934	1.201	-0.016	-2.499	-6.192	-5.584	-3.506	-4.161	-5.439	-2.912	-2.196	-0.956	1.872	3.312	4.404	3.278	3.508	242.188
-2.318	-4.240	-4.075	-3.810	-1.534	0.251	2.729	4.400	5.941	4.631	5.750	3.012	1.611	0.437	-2.628	-6.289	-5.695	-3.675	-4.160	-5.328	-2.574	-2.090	-1.061	2.041	3.143	4.418	3.422	3.579	246.094
-2.505	-4.372	-4.122	-3.767	-1.294	0.354	2.945	4.387	5.900	4.752	5.745	3.090	1.946	0.816	-2.742	-6.342	-5.720	-3.862	-4.139	-5.193	-2.279	-2.022	-1.215	2.135	2.935	4.381	3.496	3.605	250.000
-2.646	-4.445	-4.095	-3.711	-1.079	0.479	3.126	4.422	5.901	4.860	5.764	3.153	2.195	1.114	-2.847	-6.349	-5.657	-4.059	-4.098	-5.041	-2.035	-1.985	-1.403	2.159	2.697	4.288	3.495	3.577	253.906
-2.730	-4.458	-4.014	-3.646	-0.900	0.610	3.270	4.512	5.951	4.955	5.808	3.192	2.354	1.331	-2.948	-6.317	-5.519	-4.255	-4.042	-4.884	-1.846	-1.974	-1.609	2.122	2.438	4.143	3.422	3.496	257.812
-2.756	-4.417	-3.908	-3.574	-0.758	0.739	3.384	4.661	6.054	5.041	5.879	3.207	2.428	1.471	-3.050	-6.258	-5.333	-4.442	-3.978	-4.737	-1.716	-1.981	-1.814	2.036	2.173	3.955	3.284	3.370	261.719
-2.736	-4.333	-3.801	-3.498	-0.649	0.859	3.476	4.868	6.212	5.124	5.979	3.203	2.429	1.541	-3.152	-6.191	-5.131	-4.611	-3.915	-4.615	-1.645	-2.001	-2.002	1.916	1.913	3.740	3.097	3.214	265.625
-2.693	-4.219	-3.712	-3.422	-0.564	0.973	3.554	5.125	6.422	5.209	6.110	3.191	2.371	1.551	-3.251	-6.133	-4.945	-4.759	-3.862	-4.534	-1.631	-2.030	-2.159	1.781	1.675	3.514	2.878	3.045	269.531
-2.656	-4.088	-3.651	-3.346	-0.493	1.081	3.626	5.420	6.673	5.299	6.271	3.183	2.271	1.509	-3.342	-6.100	-4.801	-4.883	-3.828	-4.502	-1.671	-2.064	-2.272	1.643	1.470	3.299	2.648	2.886	273.438
-2.651	-3.952	-3.622	-3.275	-0.430	1.188	3.696	5.734	6.954	5.395	6.457	3.191	2.145	1.422	-3.419	-6.101	-4.715	-4.982	-3.819	-4.523	-1.757	-2.099	-2.333	1.518	1.310	3.115	2.429	2.753	277.344
-2.691	-3.825	-3.617	-3.212	-0.370	1.293	3.767	6.044	7.247	5.493	6.662	3.221	2.009	1.302	-3.480	-6.139	-4.691	-5.060	-3.835	-4.596	-1.881	-2.135	-2.340	1.416	1.202	2.978	2.242	2.661	281.250
-2.777	-3.719	-3.628	-3.162	-0.312	1.393	3.839	6.329	7.534	5.589	6.874	3.278	1.874	1.157	-3.526	-6.211	-4.723	-5.120	-3.877	-4.709	-2.031	-2.168	-2.299	1.344	1.150	2.902	2.102	2.621	285.156
-2.893	-3.648	-3.646	-3.129	-0.256	1.483	3.912	6.570	7.796	5.677	7.081	3.357	1.753	1.003	-3.566	-6.303	-4.794	-5.169	-3.936	-4.844	-2.189	-2.196	-2.219	1.305	1.154	2.894	2.021	2.636	289.062
-3.016	-3.623	-3.663	-3.116	-0.204	1.553	3.985	6.754	8.019	5.749	7.270	3.451	1.653	0.851	-3.606	-6.401	-4.883	-5.215	-4.003	-4.980	-2.339	-2.219	-2.116	1.300	1.209	2.955	2.002	2.703	292.969
-3.125	-3.650	-3.681	-3.124	-0.155	1.596	4.056	6.873	8.188	5.802	7.426	3.546	1.580	0.719	-3.656	-6.485	-4.965	-5.257	-4.064	-5.092	-2.463	-2.231	-2.008	1.328	1.307	3.074	2.042	2.813	296.875
-3.206	-3.726	-3.703	-3.149	-0.109	1.604	4.126	6.927	8.295	5.830	7.536	3.626	1.541	0.619	-3.722	-6.536	-5.015	-5.294	-4.104	-5.156	-2.546	-2.230	-1.907	1.386	1.438	3.238	2.131	2.950	300.781
-3.261	-3.839	-3.737	-3.187	-0.064	1.572	4.192	6.918	8.333	5.833	7.590	3.673	1.538	0.563	-3.803	-6.537	-5.012	-5.315	-4.105	-5.152	-2.577	-2.209	-1.821	1.471	1.591	3.425	2.257	3.094	304.688
-3.301	-3.967	-3.790	-3.228	-0.016	1.501	4.253	6.853	8.301	5.812	7.581	3.671	1.576	0.558	-3.898	-6.477	-4.942	-5.311	-4.055	-5.070	-2.548	-2.159	-1.751	1.582	1.754	3.612	2.404	3.226	308.594
-3.352	-4.085	-3.869	-3.262	0.037	1.395	4.310	6.742	8.200	5.769	7.505	3.610	1.657	0.610	-3.998	-6.353	-4.800	-5.274	-3.945	-4.907	-2.459	-2.073	-1.689	1.720	1.915	3.778	2.560	3.326	312.500
-3.439	-4.168	-3.977	-3.283	0.097	1.262	4.365	6.595	8.038	5.714	7.368	3.487	1.787	0.720	-4.099	-6.172	-4.595	-5.202	-3.775	-4.673	-2.314	-1.944	-1.624	1.887	2.067	3.905	2.715	3.381	316.406
-3.586	-4.201	-4.113	-3.284	0.164	1.114	4.422	6.426	7.829	5.658	7.184	3.308	1.967	0.887	-4.192	-5.949	-4.347	-5.104	-3.556	-4.388	-2.120	-1.771	-1.545	2.085	2.204	3.982	2.867	3.387	320.312
-3.810	-4.180	-4.274	-3.265	0.238	0.963	4.486	6.249	7.593	5.616	6.973	3.094	2.201	1.108	-4.277	-5.707	-4.084	-4.995	-3.308	-4.078	-1.888	-1.561	-1.446	2.317	2.321	4.007	3.017	3.347	324.219
-4.109	-4.114	-4.451	-3.230	0.315	0.819	4.566	6.083	7.356	5.603	6.763	2.869	2.488	1.377	-4.353	-5.475	-3.839	-4.895	-3.063	-3.771	-1.632	-1.327	-1.325	2.578	2.416	3.986	3.170	3.276	328.125
-4.469	-4.027	-4.635	-3.188	0.392	0.695	4.667	5.945	7.146	5.633	6.586	2.669	2.820	1.685	-4.427	-5.279	-3.645	-4.826	-2.855	-3.497	-1.367	-1.093	-1.191	2.860	2.488	3.932	3.332	3.191	332.031
-4.863	-3.948	-4.812	-3.151	0.464	0.593	4.794	5.853	6.990	5.717	6.474	2.529	3.186	2.017	-4.502	-5.145	-3.527	-4.808	-2.715	-3.280	-1.109	-0.882	-1.059	3.150	2.534	3.860	3.508	3.119	335.938
-5.253	-3.906	-4.967	-3.129	0.528	0.515	4.948	5.820	6.911	5.859	6.454	2.482	3.568	2.355	-4.583	-5.086	-3.498	-4.854	-2.668	-3.135	-0.874	-0.719	-0.948	3.430	2.549	3.786	3.698	3.081	339.844
-5.600	-3.923	-5.090	-3.131	0.578	0.454	5.122	5.854	6.925	6.055	6.545	2.554	3.944	2.677	-4.671	-5.110	-3.562	-4.967	-2.724	-3.070	-0.675	-0.623	-0.876	3.678	2.529	3.722	3.898	3.097	343.750
-5.866	-4.008	-5.169	-3.162	0.612	0.402	5.307	5.952	7.035	6.292	6.749	2.755	4.286	2.960	-4.759	-5.211	-3.706	-5.136	-2.878	-3.083	-0.523	-0.605	-0.855	3.876	2.470	3.674	4.097	3.174	347.656
-6.024	-4.156	-5.201	-3.221	0.629	0.350	5.487	6.104	7.230	6.553	7.056	3.079	4.570	3.182	-4.839	-5.371	-3.910	-5.343	-3.111	-3.161	-0.427	-0.662	-0.892	4.006	2.372	3.642	4.281	3.311	351.562
-6.062	-4.348	-5.183	-3.297	0.631	0.296	5.643	6.290	7.490	6.811	7.438	3.503	4.770	3.324	-4.896	-5.569	-4.142	-5.557	-3.388	-3.283	-0.387	-0.782	-0.980	4.056	2.235	3.618	4.430	3.490	355.469
-5.987	-4.557	-5.116	-3.379	0.624	0.239	5.758	6.485	7.783	7.039	7.852	3.984	4.869	3.378	-4.917	-5.773	-4.369	-5.744	-3.669	-3.426	-0.400	-0.943	-1.106	4.023	2.065	3.588	4.525	3.685	359.375
-5.830	-4.748	-5.006	-3.450	0.617	0.185	5.817	6.663	8.071	7.211	8.250	4.466	4.859	3.341	-4.889	-5.955	-4.558	-5.870	-3.911	-3.563	-0.457	-1.119	-1.245	3.907	1.871	3.539	4.548	3.860	363.281
-5.631	-4.888	-4.862	-3.495	0.618	0.142	5.809	6.801	8.317	7.304	8.577	4.886	4.743	3.225	-4.805	-6.088	-4.677	-5.907	-4.076	-3.671	-0.545	-1.277	-1.370	3.720	1.664	3.458	4.486	3.977	367.188
-5.441	-4.953	-4.696	-3.503	0.637	0.115	5.733	6.883	8.487	7.303	8.786	5.183	4.534	3.048	-4.668	-6.157	-4.707	-5.840	-4.132	-3.730	-0.646	-1.388	-1.450	3.479	1.456	3.337	4.334	4.005	371.094
-5.303	-4.927	-4.526	-3.466	0.679	0.109	5.593	6.903	8.559	7.203	8.839	5.307	4.259	2.837	-4.489	-6.153	-4.638	-5.671	-4.063	-3.732	-0.742	-1.428	-1.461	3.206	1.261	3.175	4.096	3.919	375.000
-5.243	-4.812	-4.369	-3.386	0.744	0.124	5.403	6.865	8.522	7.007	8.715	5.227	3.946	2.620	-4.287	-6.082	-4.478	-5.416	-3.869	-3.675	-0.818	-1.382	-1.386	2.926	1.094	2.979	3.786	3.713	378.906
-5.266	-4.627	-4.240	-3.271	0.826	0.159	5.180	6.782	8.377	6.731	8.411	4.940	3.630	2.424	-4.088	-5.960	-4.245	-5.107	-3.566	-3.568	-0.860	-1.246	-1.219	2.665	0.965	2.764	3.428	3.396	382.812
-5.353	-4.401	-4.144	-3.137	0.914	0.213	4.945	6.670	8.137	6.396	7.946	4.468	3.343	2.268	-3.914	-5.810	-3.971	-4.781	-3.187	-3.431	-0.865	-1.028	-0.969	2.443	0.887	2.549	3.052	2.999	386.719
-5.469	-4.174	-4.079	-3.003	0.997	0.287	4.715	6.545	7.824	6.028	7.355	3.863	3.109	2.164	-3.788	-5.661	-3.695	-4.476	-2.774	-3.284	-0.832	-0.748	-0.652	2.278	0.866	2.356	2.694	2.564	390.625
-5.575	-3.985	-4.030	-2.887	1.061	0.379	4.508	6.421	7.464	5.657	6.683	3.195	2.945	2.115	-3.721	-5.539	-3.456	-4.219	-2.372	-3.152	-0.770	-0.437	-0.300	2.177	0.904	2.205	2.389	2.146	394.531
-5.635	-3.870	-3.980	-2.806	1.099	0.490	4.335	6.303	7.085	5.310	5.987	2.544	2.858	2.114	-3.711	-5.468	-3.289	-4.028	-2.028	-3.058	-0.692	-0.129	0.054	2.140	0.998	2.111	2.167	1.800	398.438
-5.625	-3.848	-3.912	-2.771	1.110	0.618	4.200	6.192	6.714	5.011	5.318	1.986	2.845	2.152	-3.751	-5.462	-3.215	-3.903	-1.777	-3.016	-0.610	0.142	0.373	2.162	1.139	2.083	2.050	1.570	402.344
-5.541	-3.924	-3.818	-2.783	1.097	0.758	4.105	6.082	6.373	4.776	4.725	1.586	2.896	2.214	-3.823	-5.525	-3.238	-3.838	-1.640	-3.032	-0.538	0.346	0.622	2.231	1.310	2.118	2.044	1.488	406.250
-5.393	-4.085	-3.702	-2.834	1.073	0.901	4.047	5.968	6.080	4.617	4.245	1.379	2.994	2.290	-3.906	-5.650	-3.348	-3.816	-1.623	-3.102	-0.482	0.466	0.778	2.332	1.494	2.209	2.144	1.561	410.156
-5.202	-4.297	-3.583	-2.909	1.052	1.041	4.020	5.845	5.845	4.533	3.898	1.372	3.124	2.371	-3.984	-5.818	-3.518	-3.823	-1.714	-3.211	-0.446	0.497	0.829	2.451	1.670	2.339	2.330	1.773	414.062
-5.000	-4.518	-3.485	-2.988	1.049	1.165	4.019	5.711	5.669	4.521	3.692	1.538	3.268	2.452	-4.042	-6.004	-3.716	-3.847	-1.886	-3.337	-0.423	0.447	0.778	2.573	1.817	2.488	2.572	2.085	417.969
-4.821	-4.705	-3.436	-3.051	1.075	1.267	4.040	5.570	5.550	4.568	3.617	1.828	3.416	2.534	-4.072	-6.180	-3.906	-3.886	-2.104	-3.455	-0.405	0.336	0.640	2.689	1.918	2.634	2.837	2.448	421.875
-4.696	-4.824	-3.451	-3.083	1.136	1.340	4.081	5.428	5.478	4.661	3.655	2.179	3.563	2.622	-4.072	-6.322	-4.063	-3.939	-2.332	-3.545	-0.378	0.188	0.441	2.791	1.961	2.758	3.093	2.805	425.781
-4.646	-4.860	-3.532	-3.078	1.228	1.382	4.138	5.295	5.443	4.786	3.779	2.531	3.706	2.723	-4.047	-6.416	-4.173	-4.010	-2.534	-3.592	-0.331	0.031	0.213	2.877	1.943	2.845	3.314	3.107	429.688
-4.681	-4.822	-3.664	-3.039	1.343	1.395	4.213	5.177	5.434	4.930	3.962	2.834	3.850	2.843	-4.002	-6.459	-4.238	-4.105	-2.686	-3.592	-0.257	-0.110	-0.013	2.947	1.867	2.887	3.485	3.319	433.594
-4.792	-4.734	-3.814	-2.975	1.467	1.388	4.301	5.078	5.441	5.081	4.178	3.059	3.999	2.985	-3.947	-6.458	-4.271	-4.222	-2.774	-3.551	-0.153	-0.215	-0.212	3.000	1.742	2.879	3.599	3.425	437.500
-4.953	-4.633	-3.945	-2.901	1.588	1.372	4.398	4.994	5.453	5.226	4.403	3.199	4.153	3.148	-3.891	-6.429	-4.289	-4.354	-2.799	-3.482	-0.024	-0.274	-0.365	3.036	1.581	2.824	3.658	3.423	441.406
-5.125	-4.552	-4.021	-2.830	1.696	1.359	4.495	4.915	5.459	5.354	4.618	3.261	4.311	3.327	-3.841	-6.388	-4.311	-4.487	-2.767	-3.402	0.120	-0.280	-0.461	3.055	1.401	2.727	3.667	3.331	445.312
-5.264	-4.510	-4.017	-2.768	1.783	1.362	4.579	4.823	5.446	5.450	4.806	3.264	4.462	3.509	-3.802	-6.349	-4.344	-4.605	-2.693	-3.326	0.268	-0.237	-0.497	3.057	1.217	2.597	3.637	3.172	449.219
-5.330	-4.509	-3.925	-2.717	1.850	1.388	4.635	4.700	5.401	5.498	4.953	3.230	4.593	3.679	-3.775	-6.318	-4.389	-4.686	-2.592	-3.263	0.405	-0.152	-0.472	3.043	1.048	2.447	3.577	2.974	453.125
-5.293	-4.532	-3.756	-2.671	1.899	1.441	4.648	4.531	5.313	5.481	5.044	3.174	4.687	3.822	-3.756	-6.294	-4.435	-4.716	-2.478	-3.218	0.522	-0.034	-0.391	3.013	0.910	2.291	3.498	2.768	457.031
-5.149	-4.552	-3.535	-2.621	1.938	1.516	4.605	4.306	5.171	5.390	5.069	3.109	4.727	3.923	-3.738	-6.269	-4.465	-4.686	-2.362	-3.188	0.609	0.107	-0.262	2.975	0.820	2.148	3.408	2.577	460.938
-4.911	-4.540	-3.293	-2.559	1.972	1.605	4.501	4.026	4.971	5.217	5.021	3.038	4.700	3.971	-3.710	-6.234	-4.463	-4.596	-2.249	-3.167	0.664	0.260	-0.094	2.934	0.793	2.037	3.319	2.424	464.844
-4.614	-4.477	-3.065	-2.482	2.008	1.694	4.335	3.701	4.717	4.968	4.899	2.965	4.601	3.958	-3.660	-6.180	-4.418	-4.453	-2.139	-3.148	0.684	0.416	0.102	2.898	0.835	1.974	3.243	2.326	468.750
-4.302	-4.360	-2.880	-2.394	2.044	1.766	4.116	3.353	4.420	4.656	4.712	2.891	4.433	3.884	-3.578	-6.105	-4.326	-4.274	-2.033	-3.125	0.671	0.568	0.312	2.875	0.949	1.974	3.193	2.297	472.656
-4.017	-4.202	-2.755	-2.305	2.075	1.809	3.859	3.008	4.104	4.303	4.479	2.827	4.208	3.753	-3.456	-6.012	-4.195	-4.075	-1.931	-3.098	0.627	0.705	0.522	2.868	1.124	2.043	3.178	2.345	476.562
-3.789	-4.032	-2.694	-2.234	2.091	1.814	3.580	2.697	3.795	3.939	4.229	2.782	3.941	3.571	-3.293	-5.915	-4.041	-3.872	-1.834	-3.072	0.552	0.821	0.716	2.878	1.340	2.178	3.206	2.472	480.469
-3.624	-3.888	-2.685	-2.199	2.079	1.778	3.299	2.447	3.528	3.595	3.994	2.774	3.652	3.347	-3.093	-5.829	-3.888	-3.679	-1.745	-3.055	0.448	0.909	0.882	2.898	1.568	2.365	3.273	2.672	484.375
-3.509	-3.807	-2.709	-2.216	2.029	1.707	3.035	2.281	3.332	3.300	3.809	2.816	3.357	3.094	-2.869	-5.771	-3.760	-3.504	-1.670	-3.055	0.317	0.961	1.007	2.918	1.775	2.580	3.369	2.927	488.281
-3.409	-3.815	-2.738	-2.290	1.936	1.617	2.801	2.212	3.231	3.078	3.703	2.918	3.070	2.822	-2.634	-5.753	-3.680	-3.350	-1.616	-3.080	0.163	0.975	1.082	2.923	1.925	2.791	3.474	3.212	492.188
-3.285	-3.920	-2.746	-2.417	1.803	1.529	2.609	2.241	3.237	2.943	3.692	3.080	2.799	2.546	-2.406	-5.781	-3.662	-3.220	-1.587	-3.131	-0.006	0.949	1.103	2.896	1.991	2.964	3.561	3.492	496.094
-3.107	-4.109	-2.716	-2.579	1.645	1.465	2.461	2.359	3.347	2.897	3.780	3.292	2.548	2.276	-2.196	-5.848	-3.708	-3.114	-1.585	-3.201	-0.177	0.885	1.069	2.819	1.953	3.065	3.597	3.728	500.000
-2.860	-4.347	-2.638	-2.746	1.481	1.447	2.356	2.545	3.542	2.929	3.950	3.531	2.319	2.028	-2.010	-5.937	-3.808	-3.029	-1.605	-3.276	-0.335	0.789	0.984	2.681	1.809	3.066	3.557	3.883	503.906
-2.552	-4.583	-2.520	-2.885	1.336	1.492	2.288	2.770	3.791	3.016	4.175	3.765	2.112	1.815	-1.847	-6.022	-3.939	-2.964	-1.638	-3.336	-0.460	0.675	0.858	2.478	1.567	2.954	3.420	3.927	507.812
-2.213	-4.762	-2.379	-2.963	1.231	1.605	2.247	2.999	4.052	3.129	4.413	3.958	1.929	1.649	-1.700	-6.074	-4.072	-2.917	-1.666	-3.357	-0.535	0.558	0.706	2.216	1.253	2.729	3.182	3.844	511.719
-1.885	-4.835	-2.239	-2.952	1.185	1.780	2.222	3.195	4.280	3.235	4.622	4.075	1.772	1.542	-1.561	-6.066	-4.175	-2.882	-1.673	-3.317	-0.542	0.459	0.549	1.915	0.900	2.405	2.852	3.631	515.625
-1.614	-4.768	-2.126	-2.838	1.207	1.999	2.203	3.328	4.432	3.302	4.759	4.084	1.649	1.505	-1.426	-5.975	-4.217	-2.853	-1.640	-3.199	-0.470	0.401	0.413	1.602	0.546	2.009	2.457	3.303	519.531
-1.439	-4.553	-2.058	-2.622	1.298	2.239	2.181	3.372	4.476	3.309	4.787	3.967	1.568	1.545	-1.296	-5.793	-4.178	-2.824	-1.550	-2.997	-0.315	0.403	0.322	1.314	0.228	1.579	2.031	2.887	523.438
-1.383	-4.205	-2.046	-2.319	1.450	2.471	2.152	3.312	4.392	3.242	4.683	3.718	1.537	1.664	-1.175	-5.522	-4.048	-2.787	-1.396	-2.714	-0.080	0.481	0.298	1.086	-0.022	1.151	1.619	2.421	527.344
-1.452	-3.763	-2.085	-1.956	1.651	2.671	2.114	3.144	4.174	3.098	4.439	3.347	1.564	1.860	-1.076	-5.179	-3.830	-2.736	-1.177	-2.364	0.223	0.641	0.355	0.950	-0.184	0.762	1.261	1.947	531.250
-1.631	-3.284	-2.163	-1.568	1.884	2.825	2.070	2.876	3.833	2.889	4.063	2.877	1.652	2.123	-1.013	-4.792	-3.542	-2.666	-0.902	-1.972	0.576	0.881	0.499	0.925	-0.248	0.443	0.993	1.506	535.156
-1.887	-2.831	-2.258	-1.194	2.134	2.928	2.024	2.527	3.393	2.633	3.578	2.345	1.798	2.437	-0.996	-4.397	-3.213	-2.573	-0.591	-1.569	0.952	1.187	0.721	1.018	-0.214	0.217	0.840	1.135	539.062
-2.174	-2.466	-2.346	-0.870	2.382	2.984	1.981	2.122	2.888	2.352	3.022	1.797	1.993	2.781	-1.034	-4.033	-2.881	-2.456	-0.270	-1.187	1.325	1.535	1.003	1.219	-0.092	0.095	0.813	0.860	542.969
-2.446	-2.233	-2.404	-0.624	2.614	3.001	1.943	1.688	2.354	2.071	2.439	1.279	2.222	3.128	-1.125	-3.736	-2.584	-2.317	0.029	-0.859	1.668	1.896	1.318	1.508	0.102	0.080	0.909	0.700	546.875
-2.656	-2.151	-2.419	-0.471	2.817	2.992	1.911	1.254	1.831	1.811	1.877	0.835	2.466	3.453	-1.265	-3.533	-2.355	-2.162	0.279	-0.610	1.955	2.239	1.633	1.851	0.347	0.166	1.111	0.661	550.781
-2.771	-2.218	-2.384	-0.416	2.981	2.964	1.883	0.847	1.353	1.590	1.379	0.498	2.704	3.732	-1.439	-3.442	-2.218	-2.000	0.455	-0.457	2.171	2.534	1.919	2.213	0.625	0.336	1.393	0.737	554.688
-2.777	-2.404	-2.307	-0.453	3.100	2.921	1.854	0.488	0.947	1.419	0.979	0.290	2.918	3.948	-1.630	-3.464	-2.180	-1.846	0.548	-0.407	2.305	2.760	2.151	2.558	0.917	0.569	1.723	0.916	558.594
-2.678	-2.666	-2.204	-0.565	3.170	2.863	1.822	0.194	0.634	1.303	0.700	0.216	3.089	4.092	-1.819	-3.591	-2.237	-1.713	0.556	-0.453	2.355	2.903	2.313	2.857	1.206	0.842	2.067	1.176	562.500
-2.498	-2.957	-2.097	-0.733	3.188	2.787	1.783	-0.028	0.421	1.239	0.549	0.268	3.208	4.161	-1.984	-3.800	-2.369	-1.611	0.492	-0.584	2.326	2.962	2.404	3.089	1.480	1.128	2.396	1.489	566.406
-2.273	-3.230	-2.009	-0.938	3.155	2.691	1.736	-0.174	0.308	1.224	0.520	0.422	3.270	4.161	-2.108	-4.061	-2.549	-1.544	0.377	-0.775	2.230	2.945	2.431	3.243	1.730	1.405	2.684	1.825	570.312
-2.044	-3.450	-1.962	-1.160	3.072	2.576	1.679	-0.252	0.285	1.244	0.593	0.648	3.275	4.103	-2.176	-4.340	-2.746	-1.504	0.239	-1.002	2.082	2.870	2.414	3.319	1.945	1.654	2.913	2.153	574.219
-1.851	-3.597	-1.967	-1.381	2.946	2.445	1.609	-0.276	0.332	1.285	0.735	0.906	3.227	3.999	-2.176	-4.605	-2.926	-1.474	0.104	-1.235	1.901	2.761	2.379	3.325	2.120	1.859	3.075	2.445	578.125
-1.726	-3.663	-2.022	-1.585	2.789	2.309	1.523	-0.265	0.418	1.326	0.909	1.157	3.132	3.863	-2.103	-4.824	-3.063	-1.433	-0.001	-1.448	1.709	2.643	2.354	3.275	2.247	2.013	3.163	2.674	582.031
-1.686	-3.652	-2.116	-1.756	2.612	2.179	1.415	-0.244	0.512	1.345	1.072	1.362	2.996	3.710	-1.956	-4.972	-3.133	-1.356	-0.055	-1.614	1.524	2.542	2.366	3.186	2.322	2.110	3.178	2.820	585.938
-1.732	-3.574	-2.223	-1.879	2.432	2.065	1.279	-0.238	0.581	1.321	1.184	1.487	2.824	3.550	-1.742	-5.031	-3.122	-1.225	-0.044	-1.716	1.367	2.477	2.432	3.071	2.341	2.148	3.121	2.867	589.844
-1.844	-3.443	-2.314	-1.942	2.260	1.979	1.110	-0.269	0.596	1.235	1.213	1.508	2.622	3.391	-1.472	-4.992	-3.025	-1.030	0.039	-1.739	1.250	2.463	2.563	2.943	2.304	2.126	2.995	2.807	593.750
-1.982	-3.269	-2.360	-1.935	2.108	1.927	0.906	-0.352	0.536	1.075	1.136	1.410	2.393	3.240	-1.168	-4.854	-2.844	-0.776	0.192	-1.677	1.186	2.508	2.756	2.806	2.211	2.044	2.803	2.639	597.656
-2.095	-3.059	-2.336	-1.852	1.982	1.913	0.668	-0.491	0.393	0.837	0.947	1.189	2.142	3.102	-0.855	-4.622	-2.589	-0.479	0.406	-1.531	1.179	2.609	2.997	2.664	2.066	1.905	2.551	2.371	601.562
-2.128	-2.821	-2.233	-1.695	1.887	1.938	0.406	-0.681	0.170	0.528	0.650	0.856	1.878	2.982	-0.562	-4.308	-2.277	-0.164	0.665	-1.306	1.229	2.759	3.262	2.515	1.876	1.712	2.246	2.016	605.469
-2.037	-2.561	-2.053	-1.470	1.826	2.002	0.133	-0.909	-0.118	0.166	0.264	0.433	1.608	2.884	-0.313	-3.927	-1.925	0.139	0.950	-1.014	1.336	2.944	3.522	2.354	1.648	1.469	1.900	1.594	609.375
-1.798	-2.284	-1.812	-1.191	1.800	2.101	-0.135	-1.152	-0.450	-0.226	-0.182	-0.051	1.345	2.813	-0.127	-3.498	-1.552	0.404	1.242	-0.669	1.492	3.146	3.748	2.179	1.387	1.184	1.525	1.131	613.281
-1.414	-1.999	-1.533	-0.879	1.813	2.229	-0.380	-1.388	-0.802	-0.620	-0.655	-0.561	1.102	2.774	-0.011	-3.040	-1.175	0.610	1.526	-0.289	1.693	3.349	3.916	1.989	1.100	0.866	1.137	0.650	617.188
-0.922	-1.712	-1.246	-0.555	1.864	2.379	-0.586	-1.597	-1.150	-0.989	-1.124	-1.063	0.892	2.770	0.039	-2.574	-0.808	0.749	1.787	0.109	1.927	3.536	4.013	1.788	0.794	0.528	0.757	0.178	621.094
-0.381	-1.435	-0.977	-0.242	1.955	2.540	-0.746	-1.765	-1.473	-1.312	-1.558	-1.525	0.724	2.797	0.040	-2.120	-0.461	0.824	2.019	0.505	2.183	3.693	4.037	1.584	0.475	0.184	0.404	-0.262	625.000
0.137	-1.175	-0.749	0.041	2.078	2.699	-0.855	-1.886	-1.758	-1.572	-1.934	-1.923	0.604	2.852	0.014	-1.695	-0.144	0.851	2.215	0.882	2.446	3.811	3.998	1.388	0.153	-0.147	0.096	-0.651	628.906
0.562	-0.942	-0.578	0.277	2.223	2.841	-0.918	-1.965	-1.997	-1.764	-2.235	-2.238	0.535	2.924	-0.013	-1.318	0.134	0.849	2.373	1.223	2.698	3.889	3.915	1.214	-0.160	-0.444	-0.148	-0.970	632.812
0.839	-0.749	-0.473	0.456	2.375	2.952	-0.941	-2.008	-2.189	-1.889	-2.453	-2.459	0.517	3.002	-0.019	-1.003	0.364	0.836	2.495	1.513	2.925	3.931	3.811	1.076	-0.445	-0.687	-0.315	-1.207	636.719
0.944	-0.605	-0.437	0.574	2.513	3.019	-0.935	-2.030	-2.335	-1.955	-2.589	-2.585	0.544	3.076	0.010	-0.761	0.537	0.827	2.583	1.742	3.112	3.947	3.715	0.987	-0.684	-0.858	-0.396	-1.352	640.625
0.878	-0.518	-0.464	0.631	2.618	3.032	-0.911	-2.043	-2.442	-1.975	-2.652	-2.620	0.613	3.138	0.079	-0.598	0.646	0.827	2.641	1.905	3.251	3.951	3.647	0.956	-0.858	-0.946	-0.392	-1.405	644.531
0.673	-0.493	-0.543	0.635	2.675	2.991	-0.878	-2.055	-2.516	-1.963	-2.657	-2.578	0.717	3.186	0.181	-0.516	0.688	0.833	2.675	2.002	3.339	3.957	3.626	0.985	-0.953	-0.950	-0.308	-1.372	648.438
0.370	-0.523	-0.660	0.598	2.679	2.900	-0.842	-2.074	-2.564	-1.935	-2.626	-2.479	0.850	3.223	0.301	-0.508	0.665	0.839	2.692	2.038	3.381	3.978	3.657	1.072	-0.964	-0.881	-0.159	-1.268	652.344
0.020	-0.596	-0.800	0.537	2.633	2.772	-0.805	-2.100	-2.595	-1.901	-2.584	-2.346	1.007	3.256	0.418	-0.561	0.589	0.837	2.697	2.025	3.385	4.018	3.739	1.208	-0.898	-0.761	0.034	-1.116	656.250
-0.334	-0.695	-0.946	0.466	2.549	2.625	-0.769	-2.129	-2.612	-1.872	-2.553	-2.206	1.181	3.295	0.515	-0.661	0.476	0.826	2.695	1.979	3.365	4.078	3.861	1.379	-0.770	-0.618	0.245	-0.946	660.156
-0.657	-0.797	-1.089	0.401	2.445	2.480	-0.730	-2.155	-2.622	-1.850	-2.553	-2.084	1.364	3.349	0.575	-0.786	0.347	0.809	2.686	1.916	3.337	4.150	4.002	1.567	-0.608	-0.483	0.446	-0.786	664.062
-0.924	-0.883	-1.221	0.350	2.340	2.357	-0.689	-2.170	-2.628	-1.838	-2.593	-2.001	1.549	3.424	0.591	-0.917	0.223	0.795	2.671	1.851	3.315	4.223	4.138	1.752	-0.440	-0.385	0.613	-0.663	667.969
-1.116	-0.938	-1.341	0.320	2.248	2.276	-0.643	-2.168	-2.630	-1.834	-2.675	-1.970	1.725	3.522	0.560	-1.038	0.124	0.791	2.649	1.797	3.311	4.282	4.247	1.917	-0.295	-0.345	0.726	-0.596	671.875
-1.222	-0.956	-1.449	0.310	2.182	2.247	-0.593	-2.144	-2.629	-1.834	-2.788	-1.995	1.883	3.637	0.488	-1.135	0.059	0.805	2.619	1.762	3.332	4.316	4.307	2.047	-0.193	-0.371	0.775	-0.592	675.781
-1.235	-0.939	-1.547	0.315	2.142	2.277	-0.540	-2.096	-2.623	-1.836	-2.918	-2.072	2.013	3.760	0.385	-1.202	0.034	0.837	2.580	1.750	3.376	4.315	4.310	2.129	-0.146	-0.461	0.759	-0.649	679.688
-1.156	-0.898	-1.633	0.331	2.127	2.364	-0.486	-2.024	-2.611	-1.836	-3.043	-2.191	2.107	3.877	0.266	-1.236	0.042	0.880	2.534	1.758	3.439	4.277	4.253	2.158	-0.154	-0.602	0.685	-0.759	683.594
-0.995	-0.846	-1.697	0.348	2.129	2.496	-0.436	-1.930	-2.589	-1.835	-3.143	-2.336	2.158	3.973	0.146	-1.239	0.074	0.927	2.485	1.783	3.511	4.204	4.146	2.133	-0.213	-0.777	0.565	-0.906	687.500
-0.769	-0.800	-1.727	0.362	2.141	2.655	-0.391	-1.820	-2.556	-1.832	-3.202	-2.493	2.160	4.033	0.038	-1.213	0.117	0.968	2.440	1.819	3.579	4.103	4.007	2.055	-0.312	-0.966	0.413	-1.073	691.406
-0.506	-0.772	-1.706	0.367	2.154	2.822	-0.357	-1.695	-2.509	-1.829	-3.212	-2.649	2.111	4.048	-0.043	-1.162	0.159	0.996	2.405	1.860	3.631	3.984	3.854	1.932	-0.440	-1.152	0.242	-1.249	695.312
-0.242	-0.766	-1.623	0.367	2.167	2.974	-0.336	-1.563	-2.448	-1.829	-3.173	-2.796	2.008	4.013	-0.089	-1.088	0.193	1.008	2.390	1.903	3.660	3.859	3.707	1.771	-0.590	-1.326	0.060	-1.424	699.219
-0.016	-0.777	-1.476	0.369	2.182	3.098	-0.331	-1.430	-2.376	-1.833	-3.095	-2.929	1.856	3.930	-0.089	-0.992	0.221	1.007	2.402	1.950	3.662	3.739	3.578	1.583	-0.753	-1.486	-0.126	-1.594	703.125
0.133	-0.791	-1.276	0.384	2.203	3.182	-0.342	-1.305	-2.301	-1.848	-2.995	-3.050	1.662	3.808	-0.039	-0.875	0.250	0.997	2.449	2.002	3.640	3.637	3.475	1.380	-0.926	-1.634	-0.314	-1.759	707.031
0.180	-0.788	-1.049	0.423	2.238	3.226	-0.372	-1.204	-2.234	-1.879	-2.897	-3.160	1.440	3.661	0.063	-0.734	0.291	0.985	2.538	2.065	3.603	3.563	3.401	1.173	-1.103	-1.772	-0.501	-1.919	710.938
0.113	-0.751	-0.824	0.494	2.291	3.230	-0.424	-1.143	-2.192	-1.931	-2.823	-3.261	1.210	3.509	0.214	-0.572	0.362	0.978	2.673	2.141	3.562	3.526	3.355	0.979	-1.279	-1.901	-0.682	-2.072	714.844
-0.059	-0.666	-0.632	0.596	2.357	3.200	-0.500	-1.143	-2.192	-2.011	-2.795	-3.353	0.991	3.372	0.406	-0.389	0.477	0.985	2.852	2.235	3.531	3.534	3.336	0.812	-1.445	-2.018	-0.849	-2.211	718.750
-0.309	-0.532	-0.496	0.718	2.427	3.138	-0.605	-1.221	-2.252	-2.126	-2.829	-3.436	0.805	3.266	0.627	-0.190	0.644	1.012	3.072	2.345	3.519	3.592	3.344	0.686	-1.592	-2.113	-0.989	-2.327	722.656
-0.593	-0.359	-0.425	0.841	2.480	3.045	-0.743	-1.389	-2.385	-2.278	-2.932	-3.508	0.669	3.205	0.862	0.019	0.863	1.069	3.322	2.469	3.535	3.701	3.381	0.614	-1.704	-2.173	-1.090	-2.409	726.562
-0.863	-0.168	-0.419	0.943	2.496	2.922	-0.914	-1.649	-2.595	-2.465	-3.103	-3.566	0.594	3.192	1.096	0.229	1.126	1.164	3.586	2.601	3.580	3.857	3.452	0.602	-1.769	-2.186	-1.140	-2.444	730.469
-1.072	0.015	-0.464	1.002	2.458	2.767	-1.116	-1.990	-2.873	-2.679	-3.330	-3.609	0.580	3.226	1.314	0.432	1.412	1.298	3.849	2.735	3.652	4.050	3.558	0.649	-1.777	-2.146	-1.134	-2.427	734.375
-1.186	0.164	-0.545	1.006	2.356	2.584	-1.338	-2.386	-3.199	-2.905	-3.594	-3.638	0.622	3.297	1.502	0.621	1.700	1.467	4.091	2.864	3.745	4.267	3.695	0.746	-1.726	-2.053	-1.073	-2.357	738.281
-1.192	0.259	-0.647	0.952	2.195	2.378	-1.566	-2.803	-3.541	-3.126	-3.871	-3.654	0.706	3.392	1.651	0.790	1.963	1.657	4.295	2.983	3.853	4.489	3.858	0.878	-1.620	-1.921	-0.969	-2.243	742.188
-1.096	0.292	-0.761	0.848	1.990	2.158	-1.780	-3.195	-3.861	-3.318	-4.131	-3.658	0.815	3.495	1.753	0.934	2.182	1.844	4.451	3.090	3.967	4.694	4.030	1.024	-1.472	-1.767	-0.836	-2.099	746.094
-0.924	0.266	-0.883	0.710	1.769	1.939	-1.959	-3.521	-4.118	-3.461	-4.346	-3.652	0.932	3.592	1.806	1.049	2.340	2.000	4.549	3.182	4.079	4.863	4.194	1.164	-1.301	-1.614	-0.695	-1.943	750.000
-0.710	0.192	-1.018	0.559	1.561	1.736	-2.084	-3.742	-4.281	-3.540	-4.493	-3.634	1.042	3.672	1.809	1.131	2.432	2.100	4.587	3.257	4.182	4.980	4.327	1.279	-1.130	-1.481	-0.562	-1.794	753.906
-0.496	0.087	-1.168	0.416	1.391	1.564	-2.140	-3.834	-4.327	-3.546	-4.554	-3.601	1.137	3.729	1.766	1.179	2.456	2.125	4.566	3.312	4.267	5.034	4.411	1.358	-0.978	-1.382	-0.449	-1.665	757.812
-0.314	-0.028	-1.330	0.298	1.280	1.437	-2.123	-3.790	-4.253	-3.480	-4.526	-3.552	1.213	3.757	1.681	1.190	2.420	2.067	4.492	3.342	4.325	5.022	4.432	1.398	-0.861	-1.321	-0.360	-1.564	761.719
-0.189	-0.132	-1.491	0.216	1.231	1.361	-2.038	-3.621	-4.073	-3.353	-4.417	-3.483	1.269	3.756	1.562	1.164	2.333	1.929	4.372	3.342	4.349	4.949	4.388	1.407	-0.785	-1.289	-0.289	-1.491	765.625
-0.129	-0.207	-1.628	0.174	1.238	1.336	-1.899	-3.353	-3.813	-3.184	-4.248	-3.395	1.308	3.724	1.417	1.100	2.205	1.719	4.215	3.304	4.330	4.825	4.283	1.398	-0.744	-1.272	-0.225	-1.434	769.531
-0.132	-0.239	-1.709	0.171	1.285	1.356	-1.728	-3.026	-3.509	-2.995	-4.045	-3.288	1.331	3.664	1.255	1.002	2.044	1.451	4.031	3.224	4.263	4.665	4.131	1.388	-0.724	-1.248	-0.152	-1.378	773.438
-0.184	-0.217	-1.701	0.197	1.350	1.410	-1.548	-2.679	-3.201	-2.812	-3.837	-3.165	1.342	3.577	1.081	0.873	1.859	1.139	3.830	3.096	4.146	4.481	3.951	1.395	-0.706	-1.197	-0.053	-1.306	777.344
-0.264	-0.141	-1.575	0.244	1.410	1.484	-1.382	-2.351	-2.919	-2.654	-3.649	-3.031	1.341	3.465	0.901	0.717	1.655	0.791	3.617	2.921	3.978	4.290	3.760	1.434	-0.669	-1.101	0.085	-1.202	781.250
-0.355	-0.013	-1.318	0.300	1.447	1.567	-1.244	-2.065	-2.685	-2.534	-3.497	-2.889	1.328	3.332	0.720	0.542	1.436	0.416	3.400	2.701	3.764	4.099	3.575	1.514	-0.596	-0.950	0.272	-1.054	785.156
-0.441	0.158	-0.935	0.356	1.453	1.651	-1.140	-1.832	-2.505	-2.453	-3.385	-2.743	1.306	3.182	0.538	0.351	1.205	0.019	3.180	2.445	3.513	3.915	3.402	1.635	-0.480	-0.746	0.507	-0.861	789.062
-0.514	0.356	-0.454	0.408	1.428	1.730	-1.066	-1.645	-2.372	-2.406	-3.309	-2.596	1.276	3.021	0.356	0.151	0.966	-0.394	2.959	2.162	3.237	3.739	3.246	1.790	-0.325	-0.497	0.782	-0.629	792.969
-0.571	0.565	0.080	0.453	1.381	1.801	-1.012	-1.490	-2.268	-2.378	-3.255	-2.448	1.245	2.855	0.174	-0.052	0.723	-0.812	2.737	1.868	2.950	3.569	3.103	1.965	-0.143	-0.222	1.082	-0.374	796.875
