FP1	F3	F7	FC3	C3	C5	P3	P7	PO7	PO3	O1	Oz	Pz	CPz	FP2	Fz	F4	F8	FC4	FCz	Cz	C4	C6	P4	P8	PO8	PO4	O2	time
0.324	-0.358	-0.322	-0.090	-0.353	-0.235	0.206	-0.304	0.191	-0.290	-0.197	0.323	0.236	0.421	-0.353	1.105	0.323	-0.382	0.040	-0.247	0.054	0.364	0.088	0.604	0.460	0.163	-0.068	0.691	-199.219
0.334	-0.417	-0.258	-0.046	-0.308	-0.081	0.265	-0.363	0.298	-0.157	-0.184	0.257	0.231	0.417	-0.448	0.844	0.276	-0.310	0.102	-0.230	0.081	0.282	0.158	0.540	0.457	0.166	-0.022	0.631	-195.312
0.347	-0.460	-0.196	0.006	-0.254	0.058	0.315	-0.428	0.377	-0.038	-0.175	0.190	0.224	0.421	-0.528	0.606	0.233	-0.242	0.169	-0.202	0.117	0.210	0.227	0.479	0.445	0.158	0.017	0.563	-191.406
0.362	-0.474	-0.138	0.072	-0.183	0.170	0.350	-0.497	0.410	0.056	-0.172	0.123	0.214	0.436	-0.583	0.411	0.197	-0.181	0.242	-0.157	0.162	0.155	0.293	0.422	0.419	0.131	0.045	0.481	-187.500
0.380	-0.451	-0.088	0.152	-0.093	0.247	0.364	-0.572	0.387	0.117	-0.178	0.059	0.202	0.464	-0.608	0.272	0.170	-0.130	0.323	-0.091	0.218	0.124	0.353	0.373	0.377	0.084	0.058	0.384	-183.594
0.399	-0.391	-0.049	0.242	0.013	0.282	0.354	-0.647	0.313	0.140	-0.196	-0.003	0.188	0.504	-0.602	0.202	0.155	-0.091	0.410	-0.007	0.281	0.116	0.405	0.335	0.321	0.019	0.055	0.276	-179.688
0.421	-0.299	-0.022	0.334	0.124	0.278	0.320	-0.716	0.202	0.126	-0.230	-0.060	0.172	0.551	-0.570	0.199	0.151	-0.063	0.498	0.090	0.344	0.132	0.447	0.310	0.254	-0.055	0.037	0.164	-175.781
0.442	-0.186	-0.009	0.415	0.228	0.242	0.267	-0.770	0.076	0.082	-0.278	-0.112	0.156	0.596	-0.521	0.255	0.158	-0.046	0.578	0.187	0.399	0.166	0.478	0.299	0.187	-0.126	0.006	0.057	-171.875
0.461	-0.067	-0.013	0.472	0.311	0.185	0.202	-0.798	-0.040	0.018	-0.336	-0.154	0.142	0.629	-0.464	0.350	0.171	-0.036	0.642	0.271	0.432	0.211	0.495	0.302	0.128	-0.181	-0.034	-0.032	-167.969
0.472	0.044	-0.031	0.492	0.362	0.124	0.133	-0.792	-0.121	-0.051	-0.396	-0.180	0.131	0.638	-0.410	0.456	0.184	-0.032	0.681	0.329	0.435	0.261	0.495	0.314	0.089	-0.209	-0.076	-0.094	-164.062
0.471	0.133	-0.062	0.465	0.371	0.073	0.071	-0.748	-0.150	-0.111	-0.447	-0.185	0.125	0.616	-0.365	0.544	0.190	-0.033	0.689	0.351	0.401	0.307	0.476	0.331	0.077	-0.202	-0.115	-0.123	-160.156
0.453	0.190	-0.103	0.389	0.337	0.042	0.023	-0.667	-0.119	-0.149	-0.477	-0.163	0.122	0.558	-0.330	0.585	0.186	-0.037	0.661	0.335	0.329	0.344	0.439	0.347	0.096	-0.161	-0.144	-0.119	-156.250
0.417	0.209	-0.152	0.266	0.260	0.037	-0.007	-0.559	-0.033	-0.159	-0.477	-0.114	0.118	0.467	-0.302	0.560	0.170	-0.041	0.600	0.282	0.225	0.369	0.385	0.359	0.144	-0.091	-0.156	-0.086	-152.344
0.365	0.191	-0.206	0.107	0.146	0.052	-0.020	-0.436	0.097	-0.138	-0.442	-0.041	0.110	0.352	-0.274	0.464	0.144	-0.044	0.510	0.203	0.103	0.382	0.320	0.362	0.213	-0.003	-0.146	-0.034	-148.438
0.300	0.138	-0.262	-0.074	0.005	0.080	-0.019	-0.317	0.248	-0.093	-0.372	0.050	0.094	0.227	-0.238	0.304	0.114	-0.045	0.403	0.111	-0.023	0.384	0.249	0.355	0.293	0.091	-0.112	0.029	-144.531
0.228	0.060	-0.321	-0.257	-0.152	0.109	-0.011	-0.219	0.395	-0.030	-0.272	0.145	0.070	0.108	-0.189	0.102	0.089	-0.041	0.289	0.022	-0.137	0.379	0.181	0.342	0.371	0.177	-0.053	0.089	-140.625
0.156	-0.032	-0.381	-0.425	-0.309	0.125	-0.002	-0.154	0.513	0.037	-0.154	0.231	0.039	0.010	-0.126	-0.113	0.078	-0.032	0.181	-0.052	-0.226	0.372	0.122	0.325	0.435	0.246	0.029	0.139	-136.719
0.091	-0.126	-0.438	-0.561	-0.451	0.120	0.002	-0.132	0.585	0.100	-0.030	0.294	0.008	-0.054	-0.052	-0.311	0.088	-0.021	0.091	-0.100	-0.284	0.366	0.076	0.310	0.477	0.290	0.127	0.172	-132.812
0.038	-0.210	-0.489	-0.654	-0.564	0.090	-0.004	-0.153	0.600	0.150	0.085	0.325	-0.015	-0.077	0.024	-0.462	0.123	-0.008	0.026	-0.120	-0.310	0.363	0.047	0.299	0.490	0.308	0.236	0.185	-128.906
-0.001	-0.275	-0.528	-0.694	-0.635	0.036	-0.020	-0.209	0.562	0.184	0.182	0.318	-0.023	-0.063	0.091	-0.547	0.180	0.004	-0.012	-0.112	-0.310	0.366	0.033	0.294	0.474	0.298	0.344	0.176	-125.000
-0.027	-0.314	-0.548	-0.681	-0.655	-0.035	-0.043	-0.286	0.483	0.199	0.253	0.275	-0.013	-0.020	0.139	-0.556	0.253	0.011	-0.025	-0.084	-0.293	0.371	0.031	0.294	0.431	0.264	0.441	0.149	-121.094
-0.041	-0.325	-0.545	-0.619	-0.621	-0.113	-0.070	-0.368	0.386	0.200	0.296	0.204	0.014	0.039	0.161	-0.494	0.327	0.010	-0.019	-0.045	-0.267	0.377	0.036	0.293	0.366	0.209	0.515	0.108	-117.188
-0.048	-0.311	-0.518	-0.518	-0.536	-0.190	-0.094	-0.435	0.296	0.191	0.313	0.115	0.053	0.096	0.154	-0.374	0.389	0.000	-0.006	-0.004	-0.240	0.376	0.042	0.288	0.285	0.139	0.559	0.058	-113.281
-0.052	-0.277	-0.469	-0.393	-0.410	-0.255	-0.110	-0.472	0.236	0.177	0.311	0.021	0.096	0.138	0.119	-0.219	0.424	-0.018	0.005	0.027	-0.215	0.364	0.043	0.272	0.196	0.062	0.566	0.007	-109.375
-0.059	-0.229	-0.404	-0.260	-0.255	-0.304	-0.113	-0.467	0.220	0.163	0.298	-0.065	0.134	0.152	0.064	-0.054	0.422	-0.044	0.003	0.042	-0.192	0.333	0.035	0.243	0.106	-0.016	0.538	-0.042	-105.469
-0.071	-0.176	-0.333	-0.132	-0.091	-0.335	-0.101	-0.418	0.255	0.153	0.279	-0.134	0.160	0.135	-0.003	0.098	0.377	-0.074	-0.018	0.038	-0.169	0.279	0.015	0.200	0.022	-0.086	0.480	-0.081	-101.562
-0.090	-0.124	-0.263	-0.023	0.066	-0.350	-0.076	-0.329	0.332	0.149	0.262	-0.179	0.168	0.086	-0.072	0.218	0.292	-0.104	-0.064	0.015	-0.140	0.202	-0.019	0.144	-0.050	-0.138	0.404	-0.109	-97.656
-0.117	-0.075	-0.203	0.062	0.200	-0.352	-0.040	-0.208	0.432	0.153	0.248	-0.197	0.159	0.014	-0.135	0.295	0.173	-0.129	-0.134	-0.022	-0.104	0.103	-0.064	0.080	-0.105	-0.167	0.321	-0.125	-93.750
-0.148	-0.030	-0.154	0.123	0.302	-0.342	0.003	-0.069	0.528	0.163	0.238	-0.186	0.135	-0.073	-0.186	0.328	0.030	-0.148	-0.228	-0.067	-0.059	-0.011	-0.119	0.012	-0.142	-0.170	0.243	-0.128	-89.844
-0.180	0.012	-0.114	0.162	0.370	-0.323	0.050	0.073	0.591	0.179	0.230	-0.153	0.103	-0.162	-0.219	0.317	-0.124	-0.156	-0.337	-0.113	-0.007	-0.129	-0.180	-0.056	-0.164	-0.146	0.174	-0.121	-85.938
-0.208	0.056	-0.077	0.188	0.408	-0.291	0.096	0.208	0.595	0.198	0.224	-0.105	0.068	-0.245	-0.234	0.270	-0.280	-0.153	-0.454	-0.154	0.045	-0.241	-0.242	-0.122	-0.174	-0.101	0.116	-0.108	-82.031
-0.229	0.105	-0.038	0.205	0.425	-0.244	0.139	0.327	0.525	0.216	0.218	-0.052	0.037	-0.312	-0.230	0.193	-0.427	-0.140	-0.567	-0.184	0.093	-0.335	-0.298	-0.184	-0.179	-0.044	0.066	-0.093	-78.125
-0.241	0.161	0.010	0.220	0.430	-0.180	0.178	0.427	0.378	0.229	0.212	-0.002	0.013	-0.358	-0.206	0.090	-0.554	-0.118	-0.662	-0.201	0.128	-0.404	-0.342	-0.241	-0.184	0.014	0.015	-0.082	-74.219
-0.245	0.225	0.070	0.233	0.430	-0.098	0.209	0.507	0.169	0.235	0.208	0.036	-0.003	-0.383	-0.163	-0.034	-0.653	-0.090	-0.728	-0.204	0.146	-0.441	-0.370	-0.294	-0.197	0.064	-0.042	-0.079	-70.312
-0.242	0.292	0.142	0.245	0.429	-0.003	0.231	0.570	-0.077	0.230	0.206	0.055	-0.010	-0.388	-0.103	-0.173	-0.716	-0.057	-0.753	-0.194	0.142	-0.449	-0.378	-0.342	-0.219	0.096	-0.109	-0.087	-66.406
-0.236	0.356	0.221	0.250	0.427	0.098	0.240	0.618	-0.324	0.211	0.207	0.055	-0.011	-0.378	-0.029	-0.321	-0.737	-0.022	-0.733	-0.176	0.117	-0.433	-0.365	-0.387	-0.251	0.107	-0.184	-0.108	-62.500
-0.233	0.408	0.302	0.245	0.422	0.191	0.232	0.654	-0.541	0.177	0.211	0.036	-0.009	-0.359	0.057	-0.466	-0.713	0.012	-0.666	-0.154	0.073	-0.400	-0.335	-0.428	-0.293	0.094	-0.262	-0.141	-58.594
-0.234	0.443	0.380	0.229	0.409	0.267	0.207	0.680	-0.699	0.130	0.215	0.005	-0.008	-0.336	0.147	-0.594	-0.647	0.045	-0.560	-0.133	0.016	-0.363	-0.292	-0.464	-0.340	0.060	-0.334	-0.183	-54.688
-0.242	0.453	0.449	0.202	0.384	0.315	0.164	0.700	-0.785	0.071	0.217	-0.031	-0.012	-0.315	0.235	-0.690	-0.547	0.073	-0.429	-0.115	-0.047	-0.331	-0.244	-0.494	-0.388	0.013	-0.390	-0.228	-50.781
-0.255	0.438	0.506	0.166	0.346	0.330	0.103	0.713	-0.799	0.005	0.214	-0.062	-0.024	-0.301	0.315	-0.740	-0.427	0.097	-0.291	-0.102	-0.108	-0.310	-0.199	-0.517	-0.434	-0.041	-0.423	-0.270	-46.875
-0.271	0.402	0.549	0.128	0.294	0.313	0.028	0.721	-0.755	-0.064	0.203	-0.082	-0.049	-0.297	0.385	-0.735	-0.302	0.117	-0.164	-0.092	-0.161	-0.305	-0.164	-0.532	-0.474	-0.094	-0.428	-0.303	-42.969
-0.286	0.350	0.579	0.090	0.229	0.268	-0.058	0.724	-0.679	-0.132	0.182	-0.088	-0.089	-0.302	0.443	-0.676	-0.186	0.134	-0.062	-0.081	-0.201	-0.313	-0.144	-0.541	-0.504	-0.141	-0.406	-0.322	-39.062
-0.295	0.291	0.598	0.058	0.156	0.204	-0.150	0.718	-0.599	-0.195	0.147	-0.080	-0.143	-0.317	0.493	-0.572	-0.091	0.154	0.006	-0.065	-0.222	-0.328	-0.138	-0.545	-0.522	-0.176	-0.365	-0.323	-35.156
-0.296	0.232	0.606	0.032	0.076	0.128	-0.243	0.704	-0.545	-0.251	0.099	-0.066	-0.209	-0.338	0.542	-0.438	-0.021	0.179	0.040	-0.037	-0.222	-0.346	-0.147	-0.544	-0.526	-0.197	-0.314	-0.306	-31.250
-0.289	0.180	0.603	0.010	-0.007	0.049	-0.332	0.678	-0.537	-0.299	0.038	-0.051	-0.281	-0.363	0.596	-0.297	0.022	0.212	0.045	0.007	-0.201	-0.359	-0.165	-0.538	-0.513	-0.203	-0.263	-0.271	-27.344
-0.277	0.138	0.589	-0.010	-0.089	-0.026	-0.415	0.642	-0.582	-0.338	-0.030	-0.044	-0.349	-0.386	0.660	-0.171	0.042	0.252	0.031	0.067	-0.160	-0.365	-0.189	-0.528	-0.481	-0.192	-0.223	-0.221	-23.438
-0.268	0.107	0.560	-0.032	-0.169	-0.091	-0.488	0.598	-0.671	-0.367	-0.097	-0.047	-0.407	-0.404	0.732	-0.081	0.044	0.296	0.007	0.141	-0.105	-0.366	-0.217	-0.513	-0.429	-0.165	-0.199	-0.158	-19.531
-0.267	0.084	0.514	-0.061	-0.244	-0.139	-0.546	0.552	-0.780	-0.383	-0.152	-0.059	-0.447	-0.414	0.806	-0.042	0.034	0.335	-0.020	0.220	-0.043	-0.365	-0.246	-0.493	-0.361	-0.123	-0.192	-0.087	-15.625
-0.281	0.064	0.449	-0.102	-0.311	-0.165	-0.587	0.512	-0.879	-0.385	-0.182	-0.071	-0.468	-0.416	0.871	-0.064	0.017	0.361	-0.048	0.295	0.013	-0.369	-0.278	-0.468	-0.281	-0.067	-0.199	-0.009	-11.719
-0.316	0.043	0.365	-0.157	-0.369	-0.166	-0.605	0.487	-0.935	-0.369	-0.173	-0.075	-0.467	-0.411	0.913	-0.145	-0.003	0.364	-0.077	0.351	0.053	-0.385	-0.314	-0.441	-0.197	-0.001	-0.208	0.070	-7.812
-0.373	0.016	0.267	-0.229	-0.417	-0.138	-0.599	0.488	-0.921	-0.334	-0.116	-0.059	-0.449	-0.401	0.917	-0.279	-0.027	0.340	-0.112	0.376	0.064	-0.419	-0.358	-0.411	-0.117	0.071	-0.208	0.150	-3.906
-0.451	-0.020	0.160	-0.318	-0.451	-0.081	-0.565	0.520	-0.828	-0.278	-0.005	-0.016	-0.416	-0.390	0.873	-0.449	-0.057	0.284	-0.157	0.361	0.038	-0.474	-0.411	-0.377	-0.048	0.145	-0.187	0.230	0.000
-0.545	-0.064	0.054	-0.422	-0.472	0.002	-0.505	0.586	-0.657	-0.203	0.158	0.058	-0.371	-0.380	0.778	-0.638	-0.099	0.198	-0.215	0.300	-0.028	-0.550	-0.473	-0.337	0.005	0.219	-0.133	0.310	3.906
-0.651	-0.116	-0.040	-0.538	-0.480	0.105	-0.423	0.682	-0.430	-0.114	0.366	0.162	-0.317	-0.371	0.638	-0.826	-0.158	0.088	-0.289	0.197	-0.131	-0.642	-0.542	-0.290	0.041	0.288	-0.044	0.393	7.812
-0.758	-0.172	-0.112	-0.659	-0.476	0.221	-0.326	0.800	-0.176	-0.015	0.602	0.288	-0.252	-0.361	0.464	-0.995	-0.239	-0.037	-0.376	0.059	-0.261	-0.744	-0.614	-0.234	0.062	0.354	0.079	0.484	11.719
-0.859	-0.230	-0.152	-0.775	-0.462	0.339	-0.225	0.926	0.070	0.085	0.846	0.430	-0.176	-0.346	0.274	-1.137	-0.342	-0.166	-0.473	-0.100	-0.406	-0.847	-0.686	-0.166	0.075	0.415	0.228	0.586	15.625
-0.946	-0.285	-0.154	-0.879	-0.441	0.449	-0.132	1.047	0.277	0.181	1.075	0.577	-0.090	-0.326	0.087	-1.244	-0.466	-0.288	-0.573	-0.263	-0.554	-0.939	-0.754	-0.090	0.083	0.472	0.388	0.701	19.531
-1.014	-0.336	-0.115	-0.962	-0.418	0.543	-0.060	1.151	0.424	0.266	1.269	0.718	0.004	-0.301	-0.079	-1.317	-0.599	-0.391	-0.669	-0.417	-0.695	-1.012	-0.813	-0.011	0.093	0.524	0.540	0.827	23.438
-1.057	-0.377	-0.036	-1.017	-0.399	0.613	-0.017	1.230	0.498	0.333	1.410	0.843	0.098	-0.277	-0.210	-1.358	-0.731	-0.466	-0.755	-0.549	-0.823	-1.059	-0.860	0.059	0.106	0.573	0.667	0.960	27.344
-1.077	-0.406	0.079	-1.040	-0.389	0.653	-0.012	1.280	0.503	0.376	1.490	0.944	0.184	-0.263	-0.300	-1.368	-0.846	-0.505	-0.824	-0.653	-0.936	-1.077	-0.893	0.110	0.122	0.618	0.750	1.089	31.250
-1.073	-0.418	0.219	-1.030	-0.393	0.661	-0.045	1.302	0.446	0.392	1.508	1.011	0.247	-0.268	-0.348	-1.343	-0.930	-0.505	-0.874	-0.727	-1.037	-1.069	-0.909	0.132	0.144	0.659	0.778	1.203	35.156
-1.050	-0.411	0.371	-0.991	-0.411	0.638	-0.110	1.302	0.345	0.378	1.471	1.039	0.276	-0.301	-0.358	-1.279	-0.975	-0.468	-0.904	-0.775	-1.129	-1.039	-0.906	0.117	0.171	0.699	0.743	1.289	39.062
-1.014	-0.381	0.517	-0.926	-0.440	0.592	-0.197	1.288	0.218	0.334	1.392	1.025	0.259	-0.363	-0.342	-1.172	-0.981	-0.400	-0.914	-0.804	-1.216	-0.993	-0.886	0.067	0.204	0.736	0.648	1.335	42.969
-0.970	-0.325	0.641	-0.842	-0.472	0.532	-0.292	1.268	0.081	0.263	1.286	0.970	0.196	-0.454	-0.313	-1.021	-0.953	-0.312	-0.912	-0.821	-1.296	-0.939	-0.849	-0.011	0.246	0.768	0.500	1.333	46.875
-0.924	-0.245	0.730	-0.746	-0.494	0.474	-0.376	1.250	-0.048	0.173	1.171	0.873	0.089	-0.563	-0.283	-0.830	-0.902	-0.219	-0.902	-0.830	-1.367	-0.883	-0.800	-0.105	0.296	0.792	0.312	1.276	50.781
-0.881	-0.143	0.778	-0.645	-0.493	0.432	-0.434	1.240	-0.156	0.071	1.058	0.736	-0.050	-0.676	-0.265	-0.613	-0.843	-0.135	-0.891	-0.836	-1.423	-0.830	-0.745	-0.202	0.350	0.800	0.098	1.163	54.688
-0.845	-0.024	0.782	-0.543	-0.457	0.419	-0.454	1.244	-0.229	-0.032	0.956	0.564	-0.205	-0.778	-0.267	-0.386	-0.789	-0.074	-0.885	-0.837	-1.457	-0.782	-0.692	-0.288	0.401	0.784	-0.121	0.994	58.594
-0.819	0.102	0.749	-0.448	-0.380	0.446	-0.430	1.264	-0.255	-0.126	0.870	0.362	-0.357	-0.855	-0.295	-0.170	-0.748	-0.045	-0.885	-0.831	-1.466	-0.742	-0.648	-0.358	0.441	0.736	-0.330	0.777	62.500
-0.805	0.227	0.686	-0.366	-0.264	0.512	-0.365	1.304	-0.222	-0.202	0.806	0.141	-0.490	-0.898	-0.349	0.017	-0.728	-0.052	-0.894	-0.812	-1.450	-0.708	-0.623	-0.411	0.459	0.655	-0.511	0.521	66.406
-0.803	0.339	0.599	-0.305	-0.122	0.611	-0.267	1.366	-0.119	-0.249	0.768	-0.080	-0.590	-0.905	-0.430	0.161	-0.732	-0.094	-0.911	-0.779	-1.412	-0.686	-0.623	-0.451	0.449	0.544	-0.647	0.248	70.312
-0.817	0.430	0.496	-0.275	0.025	0.727	-0.149	1.453	0.062	-0.257	0.767	-0.278	-0.649	-0.882	-0.537	0.254	-0.762	-0.170	-0.938	-0.731	-1.362	-0.680	-0.651	-0.487	0.410	0.418	-0.725	-0.020	74.219
-0.847	0.489	0.377	-0.287	0.153	0.840	-0.023	1.567	0.326	-0.214	0.814	-0.422	-0.666	-0.839	-0.667	0.291	-0.821	-0.275	-0.979	-0.675	-1.315	-0.698	-0.711	-0.527	0.347	0.295	-0.734	-0.251	78.125
-0.898	0.511	0.240	-0.353	0.237	0.928	0.101	1.710	0.672	-0.111	0.925	-0.481	-0.640	-0.791	-0.823	0.271	-0.913	-0.408	-1.041	-0.623	-1.284	-0.751	-0.800	-0.575	0.274	0.201	-0.666	-0.415	82.031
-0.973	0.488	0.081	-0.481	0.258	0.971	0.218	1.881	1.093	0.061	1.113	-0.426	-0.577	-0.751	-1.007	0.194	-1.040	-0.567	-1.133	-0.594	-1.287	-0.845	-0.913	-0.629	0.215	0.163	-0.517	-0.480	85.938
-1.074	0.414	-0.104	-0.675	0.204	0.957	0.328	2.074	1.576	0.305	1.388	-0.235	-0.481	-0.728	-1.220	0.060	-1.205	-0.753	-1.264	-0.607	-1.334	-0.986	-1.044	-0.681	0.194	0.204	-0.286	-0.424	89.844
-1.201	0.287	-0.317	-0.931	0.076	0.880	0.432	2.275	2.099	0.614	1.750	0.098	-0.361	-0.730	-1.464	-0.128	-1.406	-0.965	-1.439	-0.682	-1.433	-1.170	-1.181	-0.716	0.234	0.341	0.025	-0.234	93.750
-1.353	0.106	-0.556	-1.241	-0.119	0.742	0.531	2.468	2.633	0.975	2.188	0.563	-0.223	-0.757	-1.733	-0.362	-1.637	-1.199	-1.659	-0.829	-1.583	-1.384	-1.314	-0.718	0.352	0.581	0.408	0.091	97.656
-1.522	-0.124	-0.809	-1.586	-0.365	0.551	0.624	2.627	3.145	1.364	2.674	1.130	-0.075	-0.803	-2.017	-0.627	-1.888	-1.444	-1.915	-1.050	-1.775	-1.611	-1.432	-0.672	0.552	0.920	0.851	0.536	101.562
-1.697	-0.392	-1.063	-1.945	-0.643	0.316	0.704	2.727	3.594	1.748	3.174	1.754	0.076	-0.858	-2.295	-0.902	-2.141	-1.686	-2.190	-1.331	-1.990	-1.826	-1.524	-0.566	0.824	1.338	1.338	1.071	105.469
-1.864	-0.678	-1.299	-2.290	-0.928	0.053	0.763	2.745	3.940	2.092	3.641	2.379	0.227	-0.909	-2.538	-1.161	-2.376	-1.904	-2.460	-1.644	-2.200	-2.001	-1.585	-0.399	1.143	1.806	1.845	1.656	109.375
-2.008	-0.956	-1.495	-2.592	-1.197	-0.224	0.789	2.664	4.149	2.361	4.026	2.942	0.371	-0.938	-2.718	-1.375	-2.569	-2.079	-2.696	-1.949	-2.374	-2.114	-1.609	-0.175	1.474	2.283	2.343	2.239	113.281
-2.113	-1.196	-1.631	-2.822	-1.425	-0.493	0.772	2.481	4.191	2.527	4.285	3.385	0.506	-0.930	-2.805	-1.518	-2.697	-2.189	-2.872	-2.200	-2.479	-2.148	-1.600	0.091	1.776	2.723	2.798	2.766	117.188
-2.166	-1.365	-1.688	-2.954	-1.591	-0.733	0.707	2.202	4.051	2.569	4.385	3.657	0.628	-0.872	-2.776	-1.570	-2.738	-2.220	-2.964	-2.355	-2.487	-2.096	-1.561	0.375	2.006	3.078	3.173	3.183	121.094
-2.155	-1.435	-1.653	-2.971	-1.678	-0.922	0.593	1.849	3.730	2.480	4.307	3.724	0.731	-0.755	-2.624	-1.519	-2.678	-2.160	-2.958	-2.380	-2.381	-1.959	-1.499	0.650	2.130	3.302	3.433	3.445	125.000
-2.072	-1.389	-1.519	-2.865	-1.674	-1.039	0.437	1.450	3.244	2.269	4.050	3.573	0.811	-0.577	-2.351	-1.363	-2.511	-2.009	-2.852	-2.257	-2.157	-1.749	-1.423	0.890	2.123	3.363	3.548	3.520	128.906
-1.915	-1.219	-1.290	-2.643	-1.579	-1.072	0.254	1.038	2.624	1.954	3.634	3.216	0.863	-0.345	-1.975	-1.110	-2.239	-1.772	-2.654	-1.991	-1.828	-1.482	-1.339	1.073	1.981	3.247	3.503	3.400	132.812
-1.687	-0.937	-0.983	-2.325	-1.401	-1.014	0.061	0.643	1.910	1.568	3.093	2.685	0.882	-0.069	-1.525	-0.776	-1.880	-1.464	-2.379	-1.602	-1.418	-1.178	-1.248	1.187	1.717	2.961	3.299	3.095	136.719
-1.397	-0.568	-0.624	-1.943	-1.157	-0.874	-0.122	0.288	1.149	1.148	2.476	2.033	0.867	0.231	-1.037	-0.385	-1.459	-1.107	-2.052	-1.129	-0.963	-0.854	-1.151	1.232	1.359	2.532	2.959	2.642	140.625
-1.061	-0.147	-0.247	-1.536	-0.868	-0.668	-0.276	-0.012	0.388	0.737	1.837	1.326	0.822	0.537	-0.548	0.033	-1.010	-0.729	-1.700	-0.618	-0.499	-0.530	-1.046	1.216	0.950	2.006	2.521	2.088	144.531
-0.700	0.280	0.107	-1.143	-0.563	-0.421	-0.382	-0.252	-0.326	0.372	1.233	0.635	0.756	0.829	-0.093	0.449	-0.571	-0.360	-1.351	-0.115	-0.063	-0.219	-0.930	1.158	0.533	1.442	2.036	1.496	148.438
-0.338	0.671	0.403	-0.799	-0.266	-0.165	-0.431	-0.435	-0.953	0.087	0.714	0.025	0.682	1.093	0.297	0.832	-0.179	-0.034	-1.030	0.338	0.318	0.065	-0.803	1.075	0.151	0.897	1.561	0.926	152.344
-0.000	0.987	0.609	-0.529	0.001	0.071	-0.417	-0.566	-1.457	-0.095	0.321	-0.445	0.617	1.319	0.598	1.155	0.133	0.220	-0.760	0.712	0.625	0.309	-0.668	0.990	-0.162	0.423	1.149	0.433	156.250
0.289	1.199	0.707	-0.347	0.224	0.263	-0.340	-0.652	-1.815	-0.160	0.084	-0.734	0.575	1.501	0.793	1.395	0.344	0.380	-0.559	0.987	0.847	0.502	-0.533	0.916	-0.386	0.059	0.845	0.061	160.156
0.512	1.293	0.691	-0.254	0.395	0.401	-0.208	-0.698	-2.013	-0.108	0.017	-0.821	0.571	1.640	0.871	1.532	0.439	0.432	-0.439	1.157	0.983	0.634	-0.407	0.864	-0.515	-0.173	0.674	-0.162	164.062
0.657	1.269	0.568	-0.244	0.513	0.483	-0.032	-0.704	-2.052	0.051	0.117	-0.707	0.610	1.740	0.831	1.554	0.420	0.374	-0.403	1.223	1.037	0.698	-0.304	0.836	-0.558	-0.268	0.646	-0.229	167.969
0.718	1.139	0.358	-0.303	0.583	0.520	0.173	-0.669	-1.942	0.300	0.368	-0.410	0.692	1.806	0.682	1.457	0.296	0.215	-0.451	1.193	1.014	0.688	-0.236	0.829	-0.530	-0.237	0.748	-0.144	171.875
0.697	0.924	0.087	-0.415	0.610	0.529	0.391	-0.588	-1.702	0.611	0.741	0.031	0.810	1.840	0.438	1.245	0.084	-0.025	-0.576	1.078	0.921	0.605	-0.212	0.837	-0.452	-0.102	0.956	0.073	175.781
0.601	0.651	-0.214	-0.564	0.603	0.531	0.608	-0.457	-1.355	0.956	1.201	0.571	0.951	1.845	0.123	0.928	-0.193	-0.319	-0.766	0.888	0.765	0.453	-0.238	0.849	-0.343	0.112	1.233	0.395	179.688
0.441	0.346	-0.516	-0.737	0.566	0.541	0.813	-0.273	-0.926	1.307	1.707	1.157	1.099	1.818	-0.236	0.525	-0.513	-0.638	-1.006	0.633	0.550	0.242	-0.313	0.855	-0.217	0.376	1.541	0.792	183.594
0.228	0.031	-0.795	-0.924	0.505	0.572	0.996	-0.035	-0.437	1.641	2.221	1.740	1.239	1.753	-0.614	0.056	-0.856	-0.953	-1.283	0.319	0.281	-0.016	-0.431	0.848	-0.082	0.669	1.844	1.230	187.500
-0.023	-0.277	-1.035	-1.119	0.420	0.625	1.151	0.253	0.090	1.936	2.712	2.278	1.356	1.644	-0.986	-0.458	-1.203	-1.241	-1.578	-0.045	-0.035	-0.305	-0.581	0.822	0.060	0.971	2.115	1.679	191.406
-0.300	-0.568	-1.229	-1.321	0.312	0.696	1.274	0.584	0.635	2.181	3.154	2.740	1.439	1.486	-1.332	-0.996	-1.540	-1.486	-1.880	-0.451	-0.391	-0.610	-0.748	0.778	0.212	1.273	2.337	2.112	195.312
-0.589	-0.837	-1.378	-1.529	0.181	0.776	1.363	0.947	1.178	2.367	3.531	3.109	1.481	1.279	-1.639	-1.537	-1.857	-1.680	-2.174	-0.889	-0.778	-0.912	-0.918	0.719	0.382	1.568	2.501	2.505	199.219
-0.878	-1.085	-1.490	-1.745	0.027	0.855	1.417	1.329	1.702	2.494	3.838	3.380	1.480	1.028	-1.900	-2.064	-2.146	-1.821	-2.453	-1.344	-1.182	-1.198	-1.077	0.652	0.575	1.856	2.609	2.844	203.125
-1.153	-1.316	-1.574	-1.970	-0.145	0.922	1.438	1.714	2.189	2.567	4.075	3.559	1.440	0.745	-2.114	-2.562	-2.406	-1.915	-2.710	-1.801	-1.591	-1.455	-1.212	0.587	0.794	2.138	2.670	3.119	207.031
-1.407	-1.534	-1.643	-2.203	-0.329	0.972	1.431	2.089	2.626	2.593	4.251	3.660	1.369	0.446	-2.286	-3.017	-2.639	-1.969	-2.942	-2.246	-1.988	-1.674	-1.318	0.532	1.040	2.414	2.697	3.328	210.938
-1.629	-1.746	-1.704	-2.446	-0.519	1.000	1.400	2.440	3.007	2.584	4.379	3.703	1.278	0.151	-2.422	-3.422	-2.850	-1.994	-3.150	-2.667	-2.363	-1.853	-1.392	0.494	1.306	2.682	2.702	3.477	214.844
-1.818	-1.959	-1.764	-2.695	-0.704	1.004	1.356	2.760	3.330	2.554	4.474	3.709	1.183	-0.121	-2.529	-3.773	-3.047	-2.003	-3.337	-3.055	-2.704	-1.992	-1.435	0.477	1.584	2.940	2.700	3.576	218.750
-1.970	-2.178	-1.825	-2.948	-0.877	0.982	1.306	3.042	3.602	2.516	4.553	3.697	1.099	-0.352	-2.616	-4.072	-3.238	-2.005	-3.505	-3.408	-3.004	-2.094	-1.452	0.481	1.862	3.184	2.703	3.642	222.656
-2.089	-2.410	-1.887	-3.203	-1.035	0.933	1.260	3.283	3.833	2.484	4.632	3.687	1.038	-0.532	-2.687	-4.323	-3.428	-2.010	-3.659	-3.726	-3.260	-2.162	-1.446	0.504	2.127	3.410	2.723	3.692	226.562
-2.175	-2.656	-1.949	-3.458	-1.176	0.858	1.227	3.479	4.036	2.469	4.723	3.692	1.010	-0.655	-2.748	-4.535	-3.619	-2.025	-3.801	-4.013	-3.473	-2.202	-1.423	0.545	2.370	3.615	2.769	3.741	230.469
-2.232	-2.915	-2.010	-3.708	-1.304	0.760	1.212	3.629	4.219	2.477	4.833	3.722	1.020	-0.723	-2.800	-4.714	-3.810	-2.052	-3.932	-4.273	-3.644	-2.213	-1.386	0.601	2.584	3.800	2.849	3.804	234.375
-2.261	-3.182	-2.070	-3.951	-1.423	0.644	1.218	3.732	4.389	2.511	4.961	3.781	1.066	-0.740	-2.846	-4.864	-3.994	-2.093	-4.049	-4.505	-3.774	-2.197	-1.337	0.674	2.767	3.966	2.969	3.888	238.281
-2.263	-3.445	-2.133	-4.181	-1.540	0.515	1.245	3.787	4.544	2.569	5.098	3.870	1.144	-0.715	-2.886	-4.988	-4.162	-2.144	-4.151	-4.707	-3.864	-2.154	-1.276	0.763	2.917	4.116	3.131	3.996	242.188
-2.234	-3.688	-2.201	-4.391	-1.657	0.382	1.288	3.796	4.677	2.643	5.231	3.983	1.247	-0.655	-2.920	-5.083	-4.306	-2.201	-4.230	-4.874	-3.911	-2.081	-1.207	0.869	3.037	4.250	3.332	4.124	246.094
-2.172	-3.896	-2.279	-4.575	-1.771	0.251	1.342	3.760	4.775	2.727	5.341	4.109	1.366	-0.563	-2.945	-5.142	-4.415	-2.258	-4.282	-4.995	-3.906	-1.981	-1.128	0.995	3.130	4.368	3.565	4.266	250.000
-2.077	-4.052	-2.372	-4.727	-1.877	0.129	1.400	3.682	4.824	2.810	5.412	4.234	1.493	-0.441	-2.957	-5.158	-4.485	-2.309	-4.299	-5.061	-3.840	-1.855	-1.044	1.137	3.196	4.467	3.819	4.408	253.906
-1.949	-4.148	-2.485	-4.843	-1.963	0.021	1.456	3.566	4.813	2.883	5.429	4.338	1.625	-0.288	-2.952	-5.123	-4.509	-2.349	-4.275	-5.062	-3.701	-1.708	-0.957	1.291	3.235	4.538	4.080	4.536	257.812
-1.791	-4.181	-2.619	-4.921	-2.017	-0.069	1.505	3.418	4.734	2.937	5.384	4.402	1.757	-0.100	-2.921	-5.032	-4.488	-2.372	-4.205	-4.989	-3.480	-1.547	-0.874	1.451	3.246	4.571	4.331	4.634	261.719
-1.613	-4.157	-2.772	-4.963	-2.030	-0.136	1.542	3.244	4.587	2.969	5.275	4.409	1.891	0.121	-2.862	-4.882	-4.423	-2.379	-4.085	-4.840	-3.173	-1.377	-0.800	1.607	3.226	4.558	4.556	4.690	265.625
-1.425	-4.087	-2.939	-4.973	-1.992	-0.172	1.569	3.053	4.382	2.974	5.112	4.348	2.029	0.373	-2.772	-4.678	-4.315	-2.370	-3.918	-4.618	-2.789	-1.204	-0.742	1.748	3.171	4.491	4.739	4.696	269.531
-1.240	-3.988	-3.109	-4.955	-1.901	-0.173	1.586	2.856	4.136	2.956	4.909	4.216	2.175	0.647	-2.656	-4.430	-4.169	-2.350	-3.711	-4.334	-2.344	-1.036	-0.708	1.862	3.082	4.368	4.868	4.647	273.438
-1.072	-3.874	-3.271	-4.912	-1.759	-0.131	1.601	2.664	3.871	2.919	4.683	4.020	2.332	0.932	-2.523	-4.154	-3.988	-2.326	-3.478	-4.003	-1.865	-0.879	-0.703	1.939	2.957	4.193	4.936	4.548	277.344
-0.929	-3.758	-3.409	-4.847	-1.572	-0.043	1.620	2.490	3.613	2.869	4.454	3.774	2.499	1.214	-2.388	-3.871	-3.777	-2.305	-3.236	-3.646	-1.383	-0.738	-0.733	1.973	2.799	3.974	4.939	4.405	281.250
-0.819	-3.646	-3.511	-4.757	-1.349	0.090	1.649	2.345	3.386	2.816	4.237	3.500	2.674	1.481	-2.267	-3.601	-3.540	-2.294	-3.004	-3.282	-0.927	-0.620	-0.796	1.962	2.612	3.723	4.884	4.230	285.156
-0.745	-3.536	-3.568	-4.640	-1.103	0.262	1.694	2.233	3.210	2.767	4.044	3.218	2.852	1.723	-2.177	-3.359	-3.284	-2.299	-2.801	-2.930	-0.524	-0.529	-0.891	1.910	2.403	3.457	4.779	4.035	289.062
-0.704	-3.424	-3.578	-4.494	-0.847	0.461	1.756	2.158	3.098	2.727	3.880	2.947	3.024	1.932	-2.128	-3.158	-3.016	-2.322	-2.639	-2.605	-0.188	-0.466	-1.010	1.825	2.180	3.188	4.642	3.833	292.969
-0.690	-3.302	-3.545	-4.319	-0.593	0.671	1.832	2.115	3.054	2.698	3.745	2.702	3.181	2.108	-2.125	-2.999	-2.744	-2.365	-2.522	-2.317	0.076	-0.432	-1.140	1.721	1.951	2.928	4.492	3.637	296.875
-0.693	-3.165	-3.482	-4.118	-0.357	0.871	1.914	2.099	3.076	2.679	3.638	2.496	3.314	2.250	-2.163	-2.881	-2.476	-2.423	-2.447	-2.069	0.272	-0.421	-1.268	1.614	1.729	2.687	4.349	3.457	300.781
-0.705	-3.012	-3.403	-3.901	-0.152	1.044	1.994	2.097	3.149	2.667	3.555	2.332	3.414	2.362	-2.231	-2.794	-2.222	-2.492	-2.404	-1.864	0.410	-0.425	-1.378	1.521	1.525	2.471	4.229	3.299	304.688
-0.715	-2.846	-3.326	-3.684	0.008	1.174	2.059	2.101	3.253	2.657	3.493	2.211	3.477	2.448	-2.317	-2.730	-1.990	-2.563	-2.378	-1.700	0.503	-0.437	-1.457	1.458	1.352	2.284	4.146	3.167	308.594
-0.717	-2.675	-3.264	-3.484	0.113	1.250	2.100	2.099	3.367	2.643	3.449	2.131	3.501	2.509	-2.404	-2.676	-1.785	-2.629	-2.353	-1.575	0.563	-0.446	-1.492	1.434	1.223	2.129	4.104	3.063	312.500
-0.707	-2.509	-3.227	-3.318	0.154	1.267	2.110	2.084	3.471	2.622	3.425	2.087	3.489	2.549	-2.481	-2.627	-1.612	-2.684	-2.316	-1.488	0.599	-0.446	-1.481	1.456	1.146	2.010	4.103	2.987	316.406
-0.686	-2.360	-3.220	-3.202	0.132	1.230	2.088	2.052	3.550	2.595	3.423	2.072	3.445	2.566	-2.542	-2.576	-1.473	-2.725	-2.261	-1.436	0.615	-0.430	-1.423	1.521	1.127	1.929	4.135	2.938	320.312
-0.658	-2.242	-3.244	-3.143	0.051	1.148	2.036	2.004	3.598	2.564	3.450	2.084	3.379	2.560	-2.586	-2.522	-1.371	-2.756	-2.188	-1.415	0.614	-0.398	-1.328	1.621	1.164	1.886	4.193	2.917	324.219
-0.630	-2.165	-3.295	-3.142	-0.076	1.036	1.967	1.946	3.622	2.535	3.509	2.120	3.305	2.532	-2.619	-2.467	-1.304	-2.783	-2.106	-1.424	0.597	-0.349	-1.209	1.745	1.252	1.883	4.266	2.921	328.125
-0.608	-2.135	-3.368	-3.193	-0.232	0.913	1.892	1.887	3.632	2.518	3.603	2.180	3.238	2.483	-2.649	-2.414	-1.272	-2.816	-2.026	-1.459	0.565	-0.289	-1.082	1.880	1.379	1.918	4.348	2.949	332.031
-0.599	-2.155	-3.458	-3.284	-0.395	0.797	1.828	1.835	3.644	2.520	3.732	2.264	3.190	2.420	-2.687	-2.370	-1.273	-2.868	-1.963	-1.517	0.523	-0.223	-0.963	2.012	1.528	1.987	4.437	3.000	335.938
-0.603	-2.221	-3.557	-3.399	-0.544	0.706	1.788	1.802	3.670	2.547	3.889	2.372	3.173	2.352	-2.742	-2.340	-1.303	-2.945	-1.929	-1.593	0.475	-0.157	-0.866	2.132	1.684	2.083	4.530	3.069	339.844
-0.620	-2.323	-3.658	-3.521	-0.663	0.653	1.781	1.794	3.718	2.600	4.062	2.499	3.194	2.289	-2.819	-2.328	-1.357	-3.052	-1.929	-1.682	0.431	-0.097	-0.798	2.235	1.832	2.196	4.630	3.151	343.750
-0.644	-2.448	-3.751	-3.636	-0.738	0.643	1.811	1.814	3.786	2.675	4.237	2.637	3.251	2.241	-2.920	-2.336	-1.427	-3.184	-1.964	-1.778	0.396	-0.046	-0.762	2.321	1.957	2.313	4.736	3.240	347.656
-0.670	-2.580	-3.830	-3.733	-0.765	0.675	1.875	1.860	3.863	2.762	4.393	2.777	3.337	2.215	-3.038	-2.361	-1.502	-3.334	-2.024	-1.874	0.377	-0.006	-0.754	2.391	2.053	2.421	4.845	3.330	351.562
-0.689	-2.703	-3.887	-3.805	-0.748	0.740	1.964	1.924	3.932	2.847	4.513	2.907	3.439	2.212	-3.159	-2.397	-1.571	-3.487	-2.096	-1.961	0.378	0.028	-0.766	2.450	2.118	2.510	4.953	3.412	355.469
-0.694	-2.804	-3.918	-3.852	-0.697	0.824	2.061	1.996	3.976	2.913	4.583	3.014	3.538	2.230	-3.267	-2.436	-1.623	-3.624	-2.163	-2.032	0.398	0.060	-0.785	2.502	2.155	2.572	5.049	3.480	359.375
-0.683	-2.875	-3.925	-3.875	-0.629	0.909	2.148	2.064	3.979	2.946	4.594	3.087	3.617	2.259	-3.345	-2.468	-1.650	-3.731	-2.211	-2.080	0.432	0.097	-0.798	2.553	2.175	2.606	5.125	3.532	363.281
-0.654	-2.910	-3.909	-3.881	-0.562	0.978	2.209	2.117	3.934	2.938	4.551	3.121	3.661	2.289	-3.380	-2.486	-1.652	-3.793	-2.227	-2.103	0.473	0.143	-0.793	2.602	2.187	2.615	5.171	3.566	367.188
-0.612	-2.914	-3.878	-3.876	-0.511	1.016	2.231	2.152	3.847	2.887	4.469	3.114	3.660	2.309	-3.366	-2.484	-1.635	-3.805	-2.210	-2.103	0.509	0.198	-0.765	2.647	2.202	2.605	5.179	3.585	371.094
-0.565	-2.891	-3.836	-3.864	-0.487	1.016	2.211	2.170	3.735	2.800	4.371	3.072	3.612	2.310	-3.307	-2.460	-1.613	-3.771	-2.166	-2.084	0.530	0.258	-0.711	2.680	2.227	2.586	5.145	3.590	375.000
-0.523	-2.850	-3.788	-3.846	-0.493	0.982	2.156	2.179	3.623	2.691	4.285	3.002	3.523	2.287	-3.216	-2.419	-1.603	-3.705	-2.110	-2.055	0.528	0.312	-0.639	2.694	2.262	2.562	5.069	3.585	378.906
-0.496	-2.802	-3.736	-3.821	-0.523	0.923	2.081	2.194	3.535	2.581	4.238	2.916	3.405	2.239	-3.115	-2.366	-1.619	-3.625	-2.061	-2.026	0.499	0.347	-0.560	2.678	2.302	2.536	4.951	3.570	382.812
-0.492	-2.754	-3.676	-3.786	-0.564	0.855	2.004	2.229	3.492	2.488	4.248	2.825	3.272	2.174	-3.027	-2.308	-1.670	-3.553	-2.041	-2.002	0.444	0.351	-0.490	2.627	2.338	2.505	4.796	3.544	386.719
-0.515	-2.712	-3.605	-3.736	-0.600	0.795	1.944	2.293	3.506	2.427	4.319	2.737	3.141	2.099	-2.973	-2.252	-1.757	-3.508	-2.062	-1.990	0.371	0.315	-0.442	2.538	2.360	2.465	4.609	3.502	390.625
-0.564	-2.682	-3.518	-3.670	-0.617	0.756	1.914	2.387	3.572	2.406	4.442	2.658	3.024	2.027	-2.965	-2.202	-1.872	-3.501	-2.131	-1.991	0.290	0.237	-0.427	2.414	2.360	2.411	4.396	3.442	394.531
-0.634	-2.666	-3.412	-3.591	-0.602	0.746	1.917	2.506	3.678	2.422	4.595	2.587	2.930	1.966	-3.004	-2.158	-2.000	-3.534	-2.242	-2.004	0.210	0.125	-0.449	2.265	2.336	2.341	4.165	3.364	398.438
-0.715	-2.667	-3.285	-3.503	-0.551	0.764	1.947	2.633	3.800	2.462	4.748	2.521	2.859	1.922	-3.080	-2.116	-2.122	-3.598	-2.379	-2.026	0.139	-0.009	-0.507	2.103	2.288	2.255	3.924	3.269	402.344
-0.798	-2.685	-3.142	-3.413	-0.465	0.805	1.990	2.750	3.911	2.509	4.866	2.451	2.807	1.899	-3.173	-2.074	-2.220	-3.675	-2.522	-2.051	0.083	-0.148	-0.591	1.943	2.223	2.158	3.682	3.161	406.250
-0.870	-2.718	-2.987	-3.327	-0.354	0.862	2.029	2.833	3.983	2.539	4.918	2.367	2.766	1.895	-3.258	-2.024	-2.277	-3.741	-2.644	-2.070	0.048	-0.272	-0.690	1.799	2.147	2.056	3.447	3.046	410.156
-0.921	-2.761	-2.825	-3.244	-0.228	0.923	2.045	2.861	3.993	2.530	4.879	2.258	2.728	1.907	-3.308	-1.965	-2.281	-3.772	-2.722	-2.075	0.034	-0.362	-0.787	1.683	2.066	1.957	3.224	2.926	414.062
-0.942	-2.806	-2.661	-3.165	-0.100	0.981	2.023	2.820	3.923	2.465	4.739	2.116	2.685	1.932	-3.304	-1.892	-2.225	-3.750	-2.738	-2.054	0.046	-0.402	-0.867	1.600	1.981	1.864	3.019	2.801	417.969
-0.927	-2.843	-2.499	-3.086	0.018	1.031	1.957	2.700	3.766	2.335	4.502	1.938	2.632	1.965	-3.234	-1.804	-2.107	-3.664	-2.682	-2.001	0.084	-0.381	-0.919	1.551	1.893	1.781	2.837	2.667	421.875
-0.872	-2.867	-2.343	-3.001	0.118	1.068	1.847	2.501	3.525	2.144	4.187	1.728	2.568	2.006	-3.100	-1.702	-1.933	-3.514	-2.555	-1.913	0.149	-0.294	-0.933	1.536	1.801	1.709	2.681	2.524	425.781
-0.780	-2.876	-2.194	-2.910	0.194	1.088	1.700	2.232	3.213	1.901	3.822	1.501	2.497	2.054	-2.913	-1.589	-1.716	-3.310	-2.366	-1.794	0.237	-0.146	-0.907	1.548	1.707	1.648	2.552	2.372	429.688
-0.657	-2.871	-2.054	-2.814	0.246	1.090	1.528	1.909	2.853	1.628	3.440	1.274	2.421	2.109	-2.695	-1.468	-1.473	-3.070	-2.135	-1.655	0.341	0.050	-0.844	1.581	1.614	1.601	2.453	2.216	433.594
-0.511	-2.860	-1.922	-2.718	0.274	1.071	1.342	1.550	2.469	1.346	3.076	1.069	2.345	2.169	-2.471	-1.344	-1.223	-2.813	-1.885	-1.510	0.453	0.276	-0.753	1.626	1.527	1.569	2.383	2.066	437.500
-0.355	-2.850	-1.799	-2.629	0.280	1.032	1.156	1.178	2.089	1.076	2.753	0.906	2.271	2.231	-2.264	-1.222	-0.985	-2.556	-1.639	-1.375	0.562	0.508	-0.645	1.676	1.451	1.553	2.341	1.931	441.406
-0.200	-2.848	-1.684	-2.551	0.266	0.972	0.977	0.816	1.737	0.835	2.487	0.794	2.196	2.288	-2.089	-1.107	-0.773	-2.312	-1.417	-1.260	0.656	0.723	-0.536	1.722	1.391	1.549	2.321	1.821	445.312
-0.056	-2.856	-1.573	-2.487	0.238	0.895	0.810	0.483	1.433	0.632	2.281	0.739	2.119	2.333	-1.953	-1.004	-0.599	-2.087	-1.231	-1.172	0.728	0.903	-0.438	1.756	1.346	1.553	2.314	1.742	449.219
0.068	-2.872	-1.462	-2.438	0.197	0.809	0.656	0.197	1.190	0.467	2.128	0.733	2.033	2.362	-1.855	-0.918	-0.465	-1.883	-1.089	-1.114	0.772	1.033	-0.363	1.772	1.312	1.554	2.310	1.691	453.125
0.168	-2.890	-1.346	-2.401	0.149	0.723	0.514	-0.029	1.017	0.335	2.014	0.762	1.934	2.367	-1.787	-0.849	-0.373	-1.699	-0.990	-1.081	0.789	1.109	-0.318	1.765	1.281	1.542	2.295	1.661	457.031
0.240	-2.900	-1.223	-2.372	0.095	0.646	0.384	-0.189	0.914	0.226	1.925	0.809	1.819	2.348	-1.737	-0.796	-0.321	-1.533	-0.931	-1.068	0.778	1.134	-0.306	1.732	1.247	1.507	2.258	1.639	460.938
0.283	-2.895	-1.091	-2.345	0.041	0.589	0.264	-0.281	0.880	0.131	1.848	0.856	1.688	2.302	-1.695	-0.755	-0.304	-1.384	-0.905	-1.070	0.743	1.115	-0.327	1.677	1.206	1.448	2.189	1.616	464.844
0.296	-2.870	-0.955	-2.317	-0.011	0.557	0.155	-0.314	0.910	0.042	1.776	0.890	1.546	2.235	-1.657	-0.720	-0.319	-1.251	-0.907	-1.082	0.689	1.061	-0.376	1.601	1.159	1.369	2.087	1.582	468.750
0.280	-2.823	-0.821	-2.289	-0.059	0.550	0.059	-0.301	0.994	-0.046	1.707	0.902	1.399	2.149	-1.620	-0.681	-0.359	-1.135	-0.928	-1.100	0.620	0.985	-0.446	1.512	1.110	1.281	1.953	1.537	472.656
0.238	-2.758	-0.700	-2.263	-0.100	0.561	-0.025	-0.261	1.123	-0.131	1.646	0.893	1.254	2.052	-1.588	-0.632	-0.415	-1.036	-0.962	-1.123	0.544	0.896	-0.530	1.417	1.069	1.200	1.798	1.486	476.562
0.174	-2.681	-0.601	-2.243	-0.133	0.580	-0.095	-0.217	1.283	-0.211	1.599	0.867	1.118	1.950	-1.567	-0.566	-0.478	-0.952	-1.002	-1.146	0.468	0.802	-0.621	1.323	1.045	1.141	1.634	1.440	480.469
0.097	-2.599	-0.532	-2.234	-0.157	0.592	-0.152	-0.187	1.461	-0.279	1.571	0.834	0.995	1.849	-1.560	-0.481	-0.536	-0.881	-1.039	-1.166	0.400	0.710	-0.709	1.234	1.045	1.114	1.477	1.408	484.375
0.016	-2.518	-0.497	-2.240	-0.172	0.584	-0.199	-0.187	1.639	-0.333	1.563	0.803	0.888	1.753	-1.570	-0.379	-0.577	-0.818	-1.063	-1.177	0.348	0.627	-0.787	1.152	1.072	1.124	1.337	1.399	488.281
-0.056	-2.443	-0.495	-2.260	-0.177	0.546	-0.241	-0.225	1.800	-0.370	1.574	0.780	0.792	1.669	-1.595	-0.263	-0.592	-0.758	-1.067	-1.173	0.319	0.558	-0.848	1.080	1.122	1.163	1.225	1.412	492.188
-0.106	-2.375	-0.517	-2.289	-0.171	0.477	-0.282	-0.303	1.929	-0.393	1.595	0.767	0.705	1.597	-1.628	-0.142	-0.579	-0.697	-1.042	-1.146	0.317	0.512	-0.884	1.017	1.186	1.219	1.143	1.444	496.094
-0.126	-2.311	-0.551	-2.317	-0.152	0.379	-0.330	-0.413	2.011	-0.406	1.616	0.759	0.619	1.542	-1.659	-0.025	-0.536	-0.630	-0.986	-1.093	0.342	0.492	-0.891	0.962	1.252	1.274	1.086	1.480	500.000
-0.111	-2.249	-0.580	-2.335	-0.119	0.265	-0.386	-0.544	2.039	-0.416	1.625	0.750	0.528	1.503	-1.676	0.079	-0.470	-0.557	-0.901	-1.015	0.391	0.502	-0.865	0.912	1.307	1.308	1.044	1.507	503.906
-0.061	-2.184	-0.586	-2.329	-0.073	0.150	-0.454	-0.681	2.013	-0.430	1.612	0.730	0.426	1.480	-1.670	0.161	-0.389	-0.479	-0.791	-0.915	0.455	0.543	-0.809	0.866	1.340	1.306	1.006	1.509	507.812
0.018	-2.111	-0.554	-2.293	-0.016	0.054	-0.531	-0.811	1.939	-0.451	1.571	0.692	0.310	1.472	-1.633	0.218	-0.299	-0.400	-0.666	-0.801	0.524	0.612	-0.729	0.821	1.344	1.254	0.956	1.475	511.719
0.112	-2.027	-0.477	-2.223	0.044	-0.006	-0.613	-0.923	1.827	-0.482	1.500	0.632	0.181	1.474	-1.562	0.251	-0.209	-0.326	-0.535	-0.684	0.585	0.702	-0.636	0.773	1.315	1.149	0.885	1.399	515.625
0.209	-1.930	-0.355	-2.121	0.103	-0.015	-0.693	-1.010	1.694	-0.522	1.404	0.552	0.043	1.482	-1.461	0.267	-0.122	-0.262	-0.408	-0.573	0.630	0.802	-0.544	0.720	1.254	0.994	0.786	1.285	519.531
0.294	-1.822	-0.199	-1.996	0.152	0.031	-0.766	-1.071	1.556	-0.567	1.292	0.459	-0.100	1.492	-1.334	0.275	-0.040	-0.213	-0.291	-0.475	0.653	0.902	-0.466	0.661	1.167	0.800	0.658	1.142	523.438
0.356	-1.705	-0.026	-1.860	0.187	0.130	-0.826	-1.111	1.428	-0.613	1.176	0.364	-0.237	1.500	-1.192	0.290	0.039	-0.181	-0.186	-0.396	0.656	0.991	-0.414	0.595	1.063	0.584	0.507	0.984	527.344
0.391	-1.587	0.143	-1.728	0.206	0.269	-0.871	-1.139	1.324	-0.654	1.069	0.278	-0.360	1.504	-1.043	0.320	0.118	-0.165	-0.093	-0.333	0.643	1.061	-0.393	0.526	0.948	0.367	0.345	0.829	531.250
0.398	-1.474	0.287	-1.615	0.207	0.428	-0.900	-1.162	1.253	-0.686	0.985	0.213	-0.459	1.505	-0.901	0.371	0.200	-0.163	-0.010	-0.284	0.623	1.108	-0.404	0.457	0.831	0.166	0.185	0.694	535.156
0.381	-1.375	0.390	-1.530	0.196	0.586	-0.912	-1.188	1.225	-0.705	0.933	0.178	-0.525	1.503	-0.777	0.442	0.286	-0.171	0.066	-0.244	0.607	1.130	-0.440	0.394	0.716	-0.001	0.045	0.593	539.062
0.350	-1.299	0.446	-1.481	0.176	0.720	-0.908	-1.218	1.243	-0.705	0.921	0.177	-0.553	1.501	-0.680	0.524	0.373	-0.187	0.132	-0.207	0.601	1.129	-0.494	0.343	0.608	-0.123	-0.059	0.535	542.969
0.313	-1.253	0.454	-1.469	0.155	0.815	-0.886	-1.249	1.309	-0.683	0.953	0.215	-0.540	1.501	-0.622	0.602	0.452	-0.209	0.185	-0.172	0.608	1.106	-0.554	0.307	0.509	-0.194	-0.113	0.526	546.875
0.277	-1.240	0.421	-1.491	0.138	0.863	-0.849	-1.271	1.421	-0.637	1.031	0.289	-0.486	1.502	-0.608	0.658	0.511	-0.238	0.216	-0.141	0.625	1.066	-0.610	0.292	0.425	-0.212	-0.109	0.567	550.781
0.246	-1.259	0.356	-1.538	0.133	0.868	-0.794	-1.272	1.573	-0.565	1.151	0.395	-0.397	1.504	-0.642	0.675	0.534	-0.275	0.216	-0.120	0.646	1.011	-0.655	0.300	0.361	-0.180	-0.046	0.654	554.688
0.221	-1.307	0.273	-1.602	0.141	0.839	-0.724	-1.240	1.755	-0.469	1.306	0.525	-0.286	1.505	-0.723	0.640	0.514	-0.325	0.179	-0.114	0.663	0.945	-0.681	0.329	0.321	-0.105	0.069	0.777	558.594
0.200	-1.376	0.182	-1.672	0.163	0.792	-0.644	-1.167	1.951	-0.358	1.485	0.667	-0.167	1.502	-0.842	0.550	0.449	-0.389	0.105	-0.130	0.668	0.871	-0.687	0.376	0.313	0.002	0.221	0.924	562.500
0.180	-1.453	0.092	-1.739	0.196	0.742	-0.558	-1.055	2.145	-0.243	1.670	0.805	-0.059	1.496	-0.985	0.409	0.350	-0.468	0.000	-0.167	0.657	0.794	-0.672	0.436	0.341	0.132	0.390	1.076	566.406
0.159	-1.527	0.013	-1.794	0.234	0.703	-0.478	-0.909	2.317	-0.140	1.838	0.919	0.021	1.483	-1.131	0.233	0.239	-0.553	-0.118	-0.223	0.631	0.720	-0.635	0.500	0.408	0.269	0.555	1.215	570.312
0.136	-1.587	-0.052	-1.835	0.268	0.681	-0.413	-0.746	2.448	-0.066	1.966	0.988	0.061	1.465	-1.257	0.043	0.145	-0.635	-0.229	-0.287	0.594	0.657	-0.579	0.560	0.510	0.400	0.696	1.321	574.219
0.112	-1.625	-0.097	-1.858	0.293	0.679	-0.371	-0.580	2.523	-0.036	2.031	0.994	0.056	1.443	-1.339	-0.138	0.098	-0.700	-0.310	-0.350	0.554	0.615	-0.504	0.611	0.640	0.511	0.800	1.377	578.125
0.093	-1.638	-0.121	-1.865	0.301	0.698	-0.359	-0.428	2.531	-0.056	2.014	0.925	0.012	1.420	-1.361	-0.290	0.119	-0.737	-0.343	-0.399	0.516	0.601	-0.416	0.646	0.785	0.589	0.861	1.370	582.031
0.085	-1.630	-0.123	-1.857	0.293	0.734	-0.374	-0.300	2.469	-0.127	1.911	0.776	-0.054	1.400	-1.315	-0.396	0.215	-0.736	-0.319	-0.425	0.488	0.622	-0.320	0.666	0.928	0.625	0.885	1.293	585.938
0.091	-1.606	-0.105	-1.836	0.269	0.786	-0.412	-0.204	2.345	-0.236	1.727	0.557	-0.119	1.390	-1.209	-0.450	0.376	-0.699	-0.240	-0.422	0.472	0.678	-0.224	0.673	1.050	0.613	0.884	1.148	589.844
0.118	-1.575	-0.069	-1.806	0.238	0.850	-0.460	-0.137	2.175	-0.367	1.483	0.287	-0.155	1.397	-1.061	-0.450	0.577	-0.630	-0.117	-0.389	0.472	0.767	-0.135	0.671	1.135	0.555	0.876	0.945	593.750
0.165	-1.546	-0.021	-1.770	0.207	0.920	-0.506	-0.098	1.984	-0.499	1.206	-0.009	-0.137	1.426	-0.897	-0.402	0.782	-0.543	0.030	-0.327	0.489	0.879	-0.062	0.668	1.171	0.457	0.878	0.700	597.656
0.234	-1.523	0.032	-1.728	0.186	0.988	-0.537	-0.082	1.801	-0.610	0.930	-0.298	-0.050	1.482	-0.747	-0.316	0.956	-0.452	0.180	-0.240	0.526	1.005	-0.012	0.670	1.152	0.330	0.905	0.434	601.562
0.319	-1.508	0.083	-1.683	0.182	1.045	-0.545	-0.086	1.656	-0.689	0.684	-0.552	0.111	1.566	-0.635	-0.203	1.071	-0.373	0.312	-0.135	0.585	1.132	0.012	0.683	1.079	0.188	0.966	0.168	605.469
0.413	-1.504	0.126	-1.638	0.200	1.079	-0.526	-0.111	1.570	-0.729	0.492	-0.750	0.337	1.675	-0.576	-0.072	1.114	-0.315	0.413	-0.018	0.670	1.253	0.010	0.711	0.962	0.046	1.059	-0.076	609.375
0.509	-1.506	0.156	-1.595	0.239	1.081	-0.486	-0.157	1.553	-0.736	0.365	-0.880	0.606	1.800	-0.569	0.067	1.084	-0.282	0.479	0.103	0.782	1.359	-0.014	0.753	0.815	-0.081	1.178	-0.285	613.281
0.596	-1.514	0.169	-1.556	0.294	1.048	-0.435	-0.228	1.603	-0.720	0.305	-0.942	0.890	1.931	-0.606	0.206	0.998	-0.275	0.513	0.224	0.917	1.447	-0.054	0.806	0.658	-0.181	1.308	-0.445	617.188
0.666	-1.527	0.163	-1.527	0.354	0.981	-0.384	-0.323	1.703	-0.695	0.304	-0.946	1.157	2.055	-0.666	0.341	0.879	-0.286	0.524	0.338	1.071	1.517	-0.102	0.865	0.509	-0.246	1.433	-0.554	621.094
0.712	-1.545	0.141	-1.512	0.408	0.885	-0.349	-0.441	1.828	-0.677	0.347	-0.905	1.379	2.159	-0.728	0.468	0.754	-0.310	0.526	0.444	1.234	1.570	-0.150	0.921	0.387	-0.273	1.538	-0.610	625.000
0.729	-1.572	0.103	-1.516	0.443	0.771	-0.340	-0.572	1.951	-0.676	0.418	-0.836	1.536	2.232	-0.770	0.584	0.647	-0.338	0.532	0.539	1.392	1.609	-0.193	0.969	0.303	-0.262	1.612	-0.617	628.906
0.720	-1.612	0.052	-1.541	0.451	0.653	-0.363	-0.705	2.047	-0.696	0.496	-0.753	1.620	2.269	-0.778	0.686	0.576	-0.365	0.549	0.622	1.534	1.638	-0.227	1.002	0.263	-0.221	1.650	-0.583	632.812
0.688	-1.669	-0.010	-1.591	0.424	0.540	-0.419	-0.829	2.103	-0.736	0.567	-0.665	1.633	2.271	-0.743	0.773	0.547	-0.387	0.583	0.693	1.647	1.662	-0.252	1.017	0.265	-0.157	1.655	-0.517	636.719
0.641	-1.748	-0.082	-1.663	0.362	0.443	-0.506	-0.932	2.115	-0.791	0.617	-0.580	1.590	2.242	-0.663	0.844	0.564	-0.403	0.632	0.753	1.725	1.685	-0.267	1.015	0.302	-0.082	1.637	-0.430	640.625
0.588	-1.848	-0.160	-1.752	0.271	0.365	-0.617	-1.008	2.088	-0.853	0.638	-0.500	1.508	2.194	-0.546	0.902	0.618	-0.415	0.692	0.805	1.766	1.713	-0.275	0.999	0.359	-0.008	1.609	-0.334	644.531
0.538	-1.962	-0.240	-1.850	0.161	0.306	-0.743	-1.054	2.037	-0.917	0.624	-0.430	1.410	2.139	-0.403	0.950	0.701	-0.423	0.757	0.853	1.774	1.750	-0.276	0.975	0.423	0.055	1.582	-0.242	648.438
0.500	-2.079	-0.317	-1.944	0.048	0.263	-0.876	-1.076	1.976	-0.978	0.575	-0.370	1.314	2.090	-0.247	0.995	0.799	-0.430	0.822	0.902	1.756	1.799	-0.271	0.952	0.480	0.101	1.567	-0.165	652.344
0.480	-2.185	-0.381	-2.021	-0.053	0.231	-1.007	-1.081	1.919	-1.035	0.494	-0.325	1.234	2.056	-0.096	1.042	0.898	-0.437	0.881	0.953	1.724	1.860	-0.259	0.940	0.523	0.127	1.569	-0.111	656.250
0.480	-2.263	-0.425	-2.071	-0.129	0.205	-1.131	-1.080	1.874	-1.090	0.386	-0.297	1.177	2.043	0.035	1.094	0.989	-0.440	0.933	1.011	1.690	1.932	-0.240	0.943	0.547	0.134	1.588	-0.088	660.156
0.502	-2.301	-0.438	-2.083	-0.172	0.183	-1.242	-1.083	1.843	-1.147	0.257	-0.289	1.144	2.054	0.136	1.155	1.064	-0.437	0.977	1.074	1.666	2.008	-0.213	0.967	0.554	0.125	1.617	-0.095	664.062
0.546	-2.291	-0.413	-2.055	-0.180	0.164	-1.339	-1.098	1.819	-1.207	0.112	-0.307	1.131	2.086	0.200	1.223	1.121	-0.422	1.014	1.144	1.660	2.084	-0.178	1.008	0.548	0.106	1.645	-0.132	667.969
0.613	-2.232	-0.344	-1.986	-0.155	0.151	-1.421	-1.131	1.791	-1.275	-0.043	-0.353	1.130	2.134	0.226	1.297	1.166	-0.388	1.048	1.216	1.680	2.153	-0.136	1.061	0.533	0.078	1.660	-0.196	671.875
0.700	-2.131	-0.231	-1.881	-0.106	0.148	-1.489	-1.180	1.747	-1.348	-0.202	-0.431	1.130	2.192	0.217	1.373	1.205	-0.331	1.081	1.287	1.725	2.211	-0.089	1.115	0.510	0.043	1.649	-0.282	675.781
0.804	-2.000	-0.078	-1.749	-0.045	0.160	-1.544	-1.242	1.676	-1.426	-0.359	-0.542	1.123	2.251	0.184	1.448	1.245	-0.250	1.116	1.353	1.792	2.255	-0.039	1.158	0.480	-0.003	1.603	-0.384	679.688
0.921	-1.854	0.104	-1.601	0.017	0.190	-1.588	-1.307	1.575	-1.501	-0.507	-0.681	1.101	2.303	0.135	1.515	1.293	-0.145	1.154	1.407	1.868	2.283	0.011	1.178	0.440	-0.062	1.518	-0.497	683.594
1.041	-1.712	0.301	-1.452	0.070	0.241	-1.619	-1.366	1.446	-1.564	-0.639	-0.837	1.063	2.340	0.083	1.567	1.349	-0.025	1.193	1.445	1.940	2.296	0.059	1.167	0.389	-0.136	1.398	-0.612	687.500
1.153	-1.589	0.494	-1.316	0.107	0.310	-1.636	-1.407	1.297	-1.607	-0.744	-0.994	1.009	2.357	0.036	1.596	1.406	0.100	1.230	1.461	1.989	2.294	0.100	1.121	0.328	-0.221	1.254	-0.720	691.406
1.246	-1.501	0.662	-1.208	0.125	0.392	-1.636	-1.421	1.146	-1.619	-0.811	-1.128	0.945	2.351	-0.002	1.590	1.458	0.214	1.259	1.451	2.003	2.275	0.130	1.044	0.261	-0.312	1.104	-0.807	695.312
1.306	-1.459	0.787	-1.143	0.126	0.480	-1.618	-1.404	1.010	-1.593	-0.828	-1.217	0.881	2.324	-0.031	1.539	1.494	0.303	1.271	1.413	1.973	2.238	0.143	0.944	0.197	-0.397	0.969	-0.861	699.219
1.326	-1.469	0.855	-1.127	0.114	0.561	-1.579	-1.355	0.905	-1.527	-0.789	-1.240	0.826	2.279	-0.053	1.436	1.507	0.355	1.258	1.346	1.896	2.184	0.136	0.835	0.147	-0.463	0.871	-0.870	703.125
1.302	-1.531	0.864	-1.165	0.094	0.627	-1.521	-1.281	0.845	-1.423	-0.693	-1.185	0.788	2.224	-0.076	1.280	1.495	0.367	1.211	1.251	1.777	2.111	0.104	0.731	0.121	-0.497	0.829	-0.825	707.031
1.235	-1.640	0.817	-1.254	0.068	0.665	-1.447	-1.191	0.834	-1.293	-0.545	-1.048	0.772	2.162	-0.103	1.078	1.462	0.339	1.129	1.131	1.627	2.021	0.046	0.644	0.128	-0.489	0.853	-0.727	710.938
1.136	-1.784	0.729	-1.385	0.036	0.670	-1.367	-1.099	0.866	-1.149	-0.364	-0.840	0.778	2.098	-0.138	0.849	1.416	0.286	1.015	0.989	1.457	1.919	-0.036	0.583	0.170	-0.437	0.946	-0.583	714.844
1.018	-1.946	0.620	-1.542	-0.006	0.638	-1.292	-1.018	0.928	-1.010	-0.171	-0.579	0.798	2.032	-0.178	0.616	1.369	0.223	0.881	0.831	1.279	1.809	-0.135	0.548	0.244	-0.343	1.100	-0.408	718.750
0.898	-2.104	0.514	-1.708	-0.064	0.573	-1.235	-0.960	1.002	-0.894	0.004	-0.291	0.822	1.963	-0.219	0.409	1.334	0.173	0.745	0.665	1.106	1.698	-0.244	0.537	0.339	-0.219	1.297	-0.223	722.656
0.792	-2.236	0.430	-1.863	-0.142	0.486	-1.210	-0.933	1.064	-0.815	0.137	-0.005	0.838	1.890	-0.251	0.257	1.322	0.152	0.628	0.499	0.948	1.595	-0.351	0.540	0.442	-0.078	1.513	-0.049	726.562
0.713	-2.324	0.381	-1.989	-0.244	0.390	-1.222	-0.939	1.093	-0.780	0.210	0.251	0.837	1.812	-0.269	0.178	1.340	0.172	0.547	0.346	0.816	1.507	-0.445	0.550	0.540	0.063	1.724	0.096	730.469
0.669	-2.357	0.373	-2.076	-0.368	0.302	-1.276	-0.977	1.073	-0.790	0.215	0.457	0.814	1.731	-0.268	0.185	1.390	0.233	0.516	0.216	0.716	1.439	-0.517	0.560	0.622	0.189	1.906	0.199	734.375
0.665	-2.334	0.399	-2.120	-0.506	0.236	-1.366	-1.040	0.999	-0.834	0.160	0.601	0.772	1.651	-0.251	0.272	1.466	0.327	0.538	0.118	0.653	1.396	-0.561	0.569	0.684	0.291	2.044	0.258	738.281
0.694	-2.263	0.448	-2.126	-0.647	0.203	-1.481	-1.118	0.874	-0.900	0.064	0.681	0.720	1.579	-0.224	0.423	1.560	0.436	0.607	0.059	0.629	1.381	-0.579	0.582	0.726	0.361	2.135	0.279	742.188
0.749	-2.162	0.502	-2.104	-0.779	0.207	-1.606	-1.201	0.712	-0.969	-0.050	0.702	0.671	1.522	-0.195	0.609	1.657	0.541	0.709	0.041	0.641	1.392	-0.572	0.606	0.755	0.399	2.181	0.275	746.094
0.816	-2.050	0.545	-2.069	-0.888	0.245	-1.723	-1.279	0.533	-1.025	-0.155	0.676	0.639	1.488	-0.173	0.799	1.742	0.624	0.824	0.060	0.683	1.427	-0.548	0.647	0.779	0.408	2.196	0.262	750.000
0.885	-1.947	0.563	-2.032	-0.966	0.309	-1.820	-1.344	0.360	-1.059	-0.233	0.615	0.637	1.480	-0.162	0.960	1.800	0.672	0.933	0.109	0.747	1.481	-0.515	0.709	0.806	0.395	2.196	0.253	753.906
0.942	-1.869	0.551	-2.005	-1.008	0.386	-1.886	-1.393	0.213	-1.064	-0.271	0.533	0.671	1.498	-0.164	1.072	1.821	0.682	1.020	0.177	0.819	1.548	-0.480	0.791	0.842	0.369	2.194	0.258	757.812
0.981	-1.823	0.511	-1.992	-1.016	0.464	-1.918	-1.423	0.103	-1.044	-0.268	0.441	0.738	1.539	-0.175	1.127	1.801	0.659	1.075	0.250	0.890	1.619	-0.452	0.885	0.885	0.337	2.197	0.280	761.719
0.996	-1.807	0.456	-1.993	-0.997	0.534	-1.921	-1.433	0.037	-1.006	-0.231	0.345	0.829	1.594	-0.190	1.134	1.744	0.614	1.097	0.320	0.949	1.682	-0.437	0.977	0.932	0.307	2.205	0.317	765.625
0.987	-1.817	0.403	-2.003	-0.961	0.594	-1.902	-1.423	0.012	-0.961	-0.173	0.251	0.929	1.653	-0.203	1.115	1.661	0.559	1.086	0.377	0.991	1.726	-0.438	1.050	0.970	0.283	2.208	0.359	769.531
0.957	-1.842	0.369	-2.016	-0.921	0.646	-1.871	-1.392	0.021	-0.919	-0.103	0.160	1.018	1.703	-0.208	1.099	1.566	0.507	1.047	0.419	1.017	1.739	-0.458	1.088	0.988	0.265	2.192	0.396	773.438
0.911	-1.874	0.371	-2.025	-0.888	0.702	-1.835	-1.337	0.055	-0.886	-0.034	0.074	1.081	1.735	-0.203	1.116	1.476	0.467	0.989	0.447	1.028	1.711	-0.499	1.079	0.971	0.253	2.140	0.418	777.344
0.856	-1.905	0.420	-2.027	-0.869	0.774	-1.801	-1.256	0.104	-0.867	0.028	-0.008	1.105	1.742	-0.187	1.191	1.404	0.442	0.917	0.466	1.030	1.636	-0.560	1.015	0.910	0.246	2.037	0.416	781.250
0.798	-1.930	0.518	-2.018	-0.868	0.872	-1.773	-1.149	0.160	-0.862	0.083	-0.085	1.084	1.721	-0.165	1.336	1.360	0.434	0.837	0.481	1.032	1.512	-0.641	0.899	0.799	0.242	1.875	0.388	785.156
0.741	-1.946	0.661	-1.999	-0.885	1.002	-1.752	-1.018	0.218	-0.868	0.129	-0.159	1.023	1.675	-0.139	1.551	1.346	0.441	0.752	0.499	1.037	1.345	-0.738	0.738	0.642	0.238	1.658	0.336	789.062
0.686	-1.953	0.837	-1.973	-0.916	1.161	-1.736	-0.868	0.272	-0.882	0.169	-0.233	0.930	1.611	-0.112	1.823	1.356	0.457	0.666	0.522	1.048	1.146	-0.845	0.544	0.449	0.232	1.395	0.266	792.969
0.636	-1.953	1.030	-1.943	-0.955	1.340	-1.725	-0.710	0.321	-0.899	0.205	-0.308	0.819	1.536	-0.085	2.129	1.382	0.478	0.583	0.550	1.065	0.933	-0.958	0.336	0.237	0.225	1.106	0.185	796.875
