FP1	F3	F7	FC3	C3	C5	P3	P7	PO7	PO3	O1	Oz	Pz	CPz	FP2	Fz	F4	F8	FC4	FCz	Cz	C4	C6	P4	P8	PO8	PO4	O2	time
-0.161	-0.141	-0.385	0.215	0.229	0.152	0.276	0.212	-0.003	-0.114	0.156	-0.648	0.044	0.453	0.234	0.706	0.639	-0.578	-0.451	0.084	0.468	0.115	-0.001	0.193	-0.306	0.145	0.458	-0.184	-199.219
-0.090	-0.226	-0.326	0.201	0.033	0.019	0.112	0.009	-0.127	-0.102	0.046	-0.619	-0.045	0.380	0.175	0.805	0.657	-0.433	-0.286	0.077	0.363	0.123	0.110	0.212	-0.080	0.199	0.511	-0.073	-195.312
-0.023	-0.306	-0.276	0.181	-0.145	-0.105	-0.041	-0.182	-0.241	-0.090	-0.054	-0.580	-0.132	0.311	0.123	0.884	0.667	-0.297	-0.134	0.068	0.267	0.138	0.214	0.236	0.134	0.254	0.573	0.042	-191.406
0.037	-0.374	-0.245	0.149	-0.292	-0.214	-0.176	-0.353	-0.339	-0.081	-0.136	-0.526	-0.213	0.247	0.084	0.928	0.664	-0.180	-0.004	0.058	0.189	0.165	0.303	0.266	0.325	0.312	0.648	0.160	-187.500
0.084	-0.428	-0.237	0.106	-0.401	-0.302	-0.283	-0.494	-0.414	-0.073	-0.194	-0.456	-0.281	0.195	0.063	0.929	0.650	-0.092	0.095	0.045	0.134	0.206	0.372	0.305	0.484	0.371	0.738	0.280	-183.594
0.114	-0.464	-0.255	0.055	-0.468	-0.363	-0.356	-0.597	-0.460	-0.066	-0.220	-0.373	-0.329	0.158	0.058	0.882	0.628	-0.039	0.159	0.032	0.105	0.259	0.414	0.350	0.605	0.427	0.837	0.395	-179.688
0.126	-0.482	-0.298	-0.001	-0.500	-0.397	-0.392	-0.660	-0.473	-0.058	-0.210	-0.286	-0.347	0.141	0.067	0.790	0.606	-0.025	0.186	0.020	0.101	0.318	0.428	0.400	0.684	0.474	0.939	0.499	-175.781
0.118	-0.482	-0.359	-0.052	-0.504	-0.404	-0.392	-0.682	-0.455	-0.049	-0.164	-0.202	-0.332	0.144	0.084	0.664	0.591	-0.050	0.180	0.012	0.120	0.376	0.413	0.447	0.720	0.505	1.030	0.584	-171.875
0.092	-0.466	-0.429	-0.092	-0.492	-0.387	-0.359	-0.667	-0.410	-0.038	-0.088	-0.132	-0.281	0.167	0.105	0.520	0.591	-0.107	0.147	0.012	0.156	0.424	0.371	0.487	0.713	0.514	1.096	0.642	-167.969
0.056	-0.437	-0.496	-0.114	-0.474	-0.353	-0.300	-0.623	-0.348	-0.025	0.006	-0.085	-0.200	0.206	0.127	0.376	0.606	-0.181	0.096	0.022	0.204	0.456	0.310	0.511	0.668	0.498	1.122	0.664	-164.062
0.016	-0.396	-0.546	-0.114	-0.457	-0.310	-0.226	-0.559	-0.282	-0.013	0.103	-0.065	-0.101	0.252	0.150	0.253	0.637	-0.258	0.038	0.047	0.258	0.467	0.241	0.511	0.590	0.456	1.100	0.647	-160.156
-0.017	-0.345	-0.571	-0.089	-0.445	-0.268	-0.148	-0.486	-0.224	-0.007	0.183	-0.074	-0.000	0.297	0.175	0.164	0.677	-0.320	-0.016	0.088	0.314	0.459	0.173	0.485	0.487	0.391	1.022	0.590	-156.250
-0.034	-0.284	-0.563	-0.043	-0.437	-0.235	-0.080	-0.416	-0.185	-0.010	0.231	-0.106	0.084	0.332	0.205	0.117	0.716	-0.354	-0.055	0.148	0.372	0.437	0.118	0.432	0.370	0.308	0.893	0.497	-152.344
-0.031	-0.215	-0.521	0.018	-0.428	-0.219	-0.030	-0.355	-0.173	-0.027	0.235	-0.152	0.139	0.351	0.240	0.109	0.747	-0.354	-0.073	0.224	0.427	0.407	0.082	0.357	0.247	0.215	0.720	0.379	-148.438
-0.007	-0.140	-0.448	0.087	-0.412	-0.222	-0.005	-0.306	-0.185	-0.060	0.194	-0.198	0.158	0.350	0.281	0.130	0.761	-0.321	-0.069	0.310	0.479	0.376	0.067	0.270	0.130	0.119	0.518	0.248	-144.531
0.034	-0.063	-0.350	0.152	-0.382	-0.241	-0.004	-0.268	-0.216	-0.106	0.115	-0.232	0.144	0.329	0.325	0.161	0.752	-0.263	-0.045	0.398	0.522	0.352	0.071	0.181	0.028	0.028	0.304	0.117	-140.625
0.081	0.009	-0.239	0.201	-0.332	-0.272	-0.022	-0.233	-0.252	-0.157	0.013	-0.246	0.107	0.290	0.367	0.184	0.719	-0.194	-0.010	0.474	0.550	0.337	0.087	0.102	-0.052	-0.052	0.094	0.001	-136.719
0.124	0.070	-0.126	0.225	-0.260	-0.307	-0.048	-0.195	-0.282	-0.206	-0.093	-0.234	0.063	0.239	0.402	0.182	0.664	-0.130	0.026	0.527	0.555	0.329	0.106	0.044	-0.104	-0.114	-0.097	-0.090	-132.812
0.152	0.110	-0.024	0.217	-0.167	-0.337	-0.072	-0.145	-0.294	-0.242	-0.187	-0.201	0.029	0.184	0.428	0.142	0.593	-0.084	0.053	0.544	0.531	0.327	0.123	0.013	-0.128	-0.156	-0.259	-0.149	-128.906
0.159	0.126	0.056	0.176	-0.061	-0.354	-0.085	-0.082	-0.281	-0.255	-0.258	-0.154	0.017	0.131	0.442	0.066	0.514	-0.064	0.065	0.520	0.475	0.326	0.134	0.009	-0.127	-0.175	-0.385	-0.176	-125.000
0.144	0.115	0.107	0.108	0.048	-0.355	-0.082	-0.007	-0.243	-0.243	-0.299	-0.104	0.034	0.088	0.449	-0.040	0.438	-0.069	0.062	0.457	0.388	0.323	0.137	0.028	-0.105	-0.174	-0.473	-0.175	-121.094
0.111	0.078	0.129	0.024	0.147	-0.337	-0.063	0.073	-0.185	-0.207	-0.315	-0.064	0.075	0.060	0.451	-0.160	0.373	-0.094	0.049	0.363	0.276	0.316	0.138	0.061	-0.072	-0.158	-0.527	-0.154	-117.188
0.069	0.021	0.125	-0.064	0.224	-0.298	-0.033	0.150	-0.116	-0.151	-0.310	-0.044	0.133	0.047	0.451	-0.276	0.324	-0.125	0.033	0.252	0.148	0.303	0.141	0.094	-0.038	-0.132	-0.551	-0.125	-113.281
0.026	-0.048	0.105	-0.145	0.271	-0.242	0.002	0.214	-0.044	-0.086	-0.293	-0.046	0.195	0.047	0.450	-0.371	0.291	-0.150	0.023	0.140	0.017	0.284	0.148	0.118	-0.010	-0.103	-0.552	-0.098	-109.375
-0.009	-0.120	0.081	-0.208	0.285	-0.172	0.036	0.260	0.024	-0.021	-0.270	-0.070	0.250	0.056	0.447	-0.438	0.267	-0.159	0.027	0.040	-0.109	0.258	0.162	0.120	0.004	-0.077	-0.540	-0.083	-105.469
-0.032	-0.189	0.065	-0.248	0.267	-0.091	0.064	0.284	0.084	0.037	-0.245	-0.107	0.287	0.065	0.435	-0.477	0.243	-0.144	0.049	-0.037	-0.222	0.226	0.182	0.098	0.004	-0.058	-0.519	-0.082	-101.562
-0.045	-0.246	0.065	-0.266	0.227	-0.005	0.084	0.289	0.138	0.082	-0.219	-0.148	0.302	0.066	0.410	-0.495	0.205	-0.105	0.086	-0.089	-0.318	0.188	0.203	0.050	-0.009	-0.046	-0.498	-0.095	-97.656
-0.050	-0.288	0.086	-0.264	0.175	0.084	0.096	0.278	0.191	0.113	-0.191	-0.180	0.291	0.050	0.366	-0.503	0.141	-0.047	0.136	-0.119	-0.399	0.142	0.222	-0.018	-0.029	-0.040	-0.478	-0.117	-93.750
-0.054	-0.310	0.125	-0.250	0.124	0.171	0.102	0.260	0.247	0.132	-0.155	-0.194	0.259	0.014	0.302	-0.511	0.044	0.021	0.188	-0.135	-0.465	0.089	0.234	-0.096	-0.047	-0.037	-0.461	-0.139	-89.844
-0.064	-0.313	0.175	-0.230	0.083	0.253	0.106	0.239	0.310	0.144	-0.110	-0.181	0.211	-0.040	0.220	-0.524	-0.092	0.086	0.235	-0.147	-0.521	0.031	0.235	-0.171	-0.057	-0.034	-0.447	-0.154	-85.938
-0.081	-0.295	0.223	-0.210	0.062	0.329	0.108	0.221	0.376	0.156	-0.054	-0.137	0.155	-0.106	0.126	-0.540	-0.262	0.137	0.267	-0.161	-0.567	-0.031	0.224	-0.230	-0.054	-0.026	-0.433	-0.156	-82.031
-0.109	-0.259	0.258	-0.196	0.064	0.393	0.113	0.207	0.439	0.172	0.016	-0.063	0.103	-0.172	0.025	-0.551	-0.455	0.164	0.276	-0.180	-0.600	-0.095	0.200	-0.264	-0.036	-0.013	-0.415	-0.141	-78.125
-0.144	-0.206	0.271	-0.189	0.089	0.441	0.119	0.199	0.490	0.196	0.096	0.038	0.064	-0.226	-0.076	-0.545	-0.655	0.162	0.259	-0.205	-0.617	-0.160	0.162	-0.265	-0.005	0.007	-0.388	-0.111	-74.219
-0.183	-0.141	0.257	-0.190	0.133	0.468	0.126	0.193	0.518	0.229	0.183	0.157	0.047	-0.257	-0.169	-0.512	-0.839	0.133	0.214	-0.232	-0.614	-0.224	0.109	-0.234	0.033	0.034	-0.352	-0.068	-70.312
-0.220	-0.067	0.218	-0.195	0.189	0.473	0.132	0.189	0.516	0.268	0.270	0.284	0.056	-0.258	-0.250	-0.447	-0.986	0.081	0.145	-0.257	-0.586	-0.284	0.044	-0.177	0.067	0.065	-0.305	-0.021	-66.406
-0.248	0.011	0.163	-0.202	0.251	0.456	0.137	0.185	0.479	0.308	0.349	0.403	0.089	-0.229	-0.315	-0.352	-1.081	0.017	0.058	-0.276	-0.533	-0.337	-0.033	-0.107	0.089	0.095	-0.251	0.025	-62.500
-0.264	0.090	0.104	-0.205	0.310	0.423	0.139	0.183	0.409	0.340	0.411	0.502	0.138	-0.178	-0.362	-0.239	-1.113	-0.044	-0.037	-0.286	-0.457	-0.381	-0.117	-0.041	0.090	0.119	-0.197	0.061	-58.594
-0.262	0.164	0.056	-0.201	0.361	0.378	0.139	0.187	0.312	0.356	0.449	0.570	0.192	-0.120	-0.389	-0.126	-1.084	-0.088	-0.130	-0.291	-0.366	-0.412	-0.205	0.005	0.065	0.129	-0.151	0.081	-54.688
-0.241	0.232	0.032	-0.186	0.400	0.332	0.138	0.201	0.203	0.353	0.457	0.603	0.233	-0.071	-0.398	-0.032	-1.008	-0.105	-0.213	-0.293	-0.270	-0.431	-0.290	0.015	0.012	0.118	-0.123	0.080	-50.781
-0.203	0.293	0.042	-0.157	0.423	0.291	0.139	0.230	0.095	0.326	0.431	0.599	0.249	-0.048	-0.394	0.024	-0.903	-0.086	-0.279	-0.295	-0.180	-0.439	-0.368	-0.019	-0.067	0.081	-0.120	0.053	-46.875
-0.149	0.349	0.088	-0.113	0.430	0.263	0.143	0.274	0.006	0.278	0.376	0.565	0.229	-0.060	-0.384	0.031	-0.792	-0.029	-0.323	-0.300	-0.107	-0.441	-0.436	-0.095	-0.167	0.014	-0.147	0.001	-42.969
-0.082	0.403	0.167	-0.057	0.422	0.250	0.150	0.330	-0.054	0.213	0.296	0.507	0.171	-0.110	-0.377	-0.009	-0.696	0.063	-0.344	-0.306	-0.057	-0.440	-0.489	-0.205	-0.279	-0.081	-0.203	-0.074	-39.062
-0.008	0.457	0.268	0.010	0.399	0.249	0.158	0.389	-0.078	0.136	0.200	0.435	0.078	-0.193	-0.380	-0.085	-0.629	0.179	-0.341	-0.309	-0.031	-0.441	-0.527	-0.333	-0.392	-0.195	-0.281	-0.167	-35.156
0.067	0.514	0.374	0.082	0.364	0.257	0.164	0.438	-0.067	0.052	0.097	0.362	-0.038	-0.293	-0.401	-0.176	-0.593	0.309	-0.315	-0.303	-0.025	-0.449	-0.548	-0.458	-0.496	-0.318	-0.368	-0.267	-31.250
0.136	0.571	0.467	0.153	0.318	0.265	0.163	0.464	-0.026	-0.033	-0.002	0.296	-0.161	-0.391	-0.440	-0.258	-0.585	0.437	-0.268	-0.282	-0.032	-0.466	-0.556	-0.559	-0.579	-0.433	-0.449	-0.365	-27.344
0.193	0.625	0.530	0.219	0.262	0.264	0.152	0.452	0.034	-0.113	-0.088	0.248	-0.274	-0.468	-0.495	-0.308	-0.594	0.550	-0.204	-0.242	-0.039	-0.491	-0.552	-0.620	-0.632	-0.525	-0.506	-0.446	-23.438
0.232	0.670	0.549	0.271	0.198	0.244	0.128	0.396	0.104	-0.183	-0.155	0.228	-0.359	-0.511	-0.558	-0.312	-0.610	0.635	-0.128	-0.184	-0.039	-0.521	-0.542	-0.632	-0.648	-0.578	-0.526	-0.497	-19.531
0.247	0.701	0.518	0.306	0.126	0.201	0.091	0.296	0.176	-0.241	-0.197	0.242	-0.404	-0.512	-0.620	-0.266	-0.622	0.682	-0.047	-0.114	-0.024	-0.552	-0.529	-0.593	-0.626	-0.581	-0.498	-0.508	-15.625
0.236	0.711	0.440	0.319	0.049	0.133	0.044	0.162	0.243	-0.282	-0.212	0.293	-0.402	-0.477	-0.670	-0.178	-0.627	0.688	0.032	-0.042	0.005	-0.580	-0.517	-0.513	-0.569	-0.532	-0.420	-0.474	-11.719
0.198	0.698	0.325	0.309	-0.033	0.045	-0.009	0.010	0.308	-0.304	-0.198	0.380	-0.357	-0.416	-0.701	-0.063	-0.623	0.655	0.101	0.023	0.043	-0.598	-0.510	-0.405	-0.487	-0.435	-0.300	-0.395	-7.812
0.136	0.662	0.189	0.275	-0.114	-0.055	-0.061	-0.141	0.372	-0.309	-0.157	0.494	-0.278	-0.349	-0.706	0.057	-0.616	0.590	0.154	0.071	0.078	-0.604	-0.510	-0.288	-0.393	-0.303	-0.151	-0.281	-3.906
0.055	0.606	0.052	0.223	-0.188	-0.154	-0.108	-0.273	0.440	-0.298	-0.093	0.621	-0.183	-0.293	-0.683	0.160	-0.612	0.505	0.190	0.096	0.099	-0.595	-0.515	-0.182	-0.302	-0.157	0.007	-0.144	0.000
-0.036	0.538	-0.064	0.159	-0.249	-0.236	-0.143	-0.372	0.516	-0.276	-0.014	0.742	-0.094	-0.261	-0.636	0.231	-0.618	0.415	0.205	0.098	0.098	-0.571	-0.525	-0.101	-0.228	-0.020	0.151	-0.006	3.906
-0.127	0.468	-0.142	0.090	-0.289	-0.289	-0.165	-0.431	0.597	-0.250	0.070	0.840	-0.032	-0.262	-0.568	0.262	-0.641	0.335	0.204	0.080	0.070	-0.535	-0.537	-0.055	-0.183	0.084	0.259	0.115	7.812
-0.209	0.404	-0.170	0.026	-0.304	-0.307	-0.172	-0.448	0.680	-0.228	0.150	0.896	-0.016	-0.295	-0.487	0.254	-0.684	0.279	0.188	0.051	0.016	-0.492	-0.545	-0.048	-0.171	0.139	0.313	0.200	11.719
-0.271	0.355	-0.145	-0.026	-0.293	-0.290	-0.168	-0.429	0.756	-0.215	0.215	0.903	-0.056	-0.355	-0.402	0.212	-0.745	0.254	0.161	0.017	-0.057	-0.448	-0.545	-0.074	-0.192	0.137	0.306	0.240	15.625
-0.311	0.322	-0.073	-0.062	-0.259	-0.245	-0.155	-0.384	0.816	-0.219	0.258	0.862	-0.155	-0.430	-0.321	0.146	-0.823	0.265	0.129	-0.014	-0.143	-0.409	-0.533	-0.124	-0.235	0.083	0.241	0.234	19.531
-0.326	0.306	0.033	-0.082	-0.210	-0.185	-0.139	-0.325	0.855	-0.240	0.275	0.781	-0.305	-0.512	-0.251	0.067	-0.913	0.305	0.094	-0.040	-0.233	-0.382	-0.505	-0.183	-0.287	-0.005	0.132	0.193	23.438
-0.322	0.301	0.155	-0.088	-0.155	-0.125	-0.123	-0.260	0.870	-0.277	0.266	0.677	-0.492	-0.589	-0.199	-0.016	-1.011	0.366	0.059	-0.063	-0.321	-0.372	-0.461	-0.236	-0.332	-0.102	-0.001	0.135	27.344
-0.306	0.301	0.272	-0.084	-0.101	-0.077	-0.113	-0.200	0.863	-0.327	0.238	0.570	-0.696	-0.656	-0.167	-0.094	-1.109	0.437	0.027	-0.084	-0.406	-0.380	-0.401	-0.273	-0.355	-0.182	-0.136	0.081	31.250
-0.287	0.304	0.370	-0.074	-0.057	-0.049	-0.111	-0.151	0.841	-0.385	0.199	0.477	-0.896	-0.709	-0.155	-0.162	-1.201	0.503	0.000	-0.105	-0.485	-0.405	-0.329	-0.286	-0.349	-0.221	-0.254	0.050	35.156
-0.273	0.308	0.437	-0.061	-0.024	-0.043	-0.119	-0.115	0.814	-0.444	0.157	0.406	-1.075	-0.747	-0.163	-0.212	-1.278	0.557	-0.020	-0.125	-0.559	-0.442	-0.250	-0.276	-0.312	-0.209	-0.343	0.053	39.062
-0.269	0.319	0.470	-0.045	-0.001	-0.055	-0.139	-0.094	0.792	-0.499	0.120	0.359	-1.218	-0.769	-0.187	-0.238	-1.335	0.592	-0.029	-0.139	-0.622	-0.485	-0.172	-0.253	-0.250	-0.146	-0.402	0.089	42.969
-0.275	0.342	0.473	-0.025	0.015	-0.075	-0.168	-0.083	0.786	-0.548	0.092	0.322	-1.320	-0.779	-0.222	-0.232	-1.368	0.607	-0.024	-0.138	-0.671	-0.524	-0.101	-0.226	-0.179	-0.047	-0.440	0.143	46.875
-0.290	0.386	0.456	0.001	0.029	-0.091	-0.204	-0.076	0.804	-0.587	0.076	0.279	-1.381	-0.778	-0.264	-0.189	-1.378	0.604	-0.004	-0.112	-0.697	-0.555	-0.043	-0.212	-0.115	0.059	-0.476	0.190	50.781
-0.309	0.453	0.429	0.034	0.046	-0.090	-0.239	-0.061	0.853	-0.615	0.074	0.208	-1.410	-0.773	-0.309	-0.109	-1.371	0.585	0.030	-0.055	-0.696	-0.571	-0.002	-0.225	-0.075	0.141	-0.528	0.200	54.688
-0.329	0.539	0.407	0.073	0.072	-0.061	-0.265	-0.025	0.940	-0.629	0.093	0.095	-1.418	-0.771	-0.358	0.003	-1.357	0.554	0.074	0.030	-0.670	-0.576	0.020	-0.276	-0.073	0.171	-0.615	0.145	58.594
-0.348	0.633	0.398	0.113	0.107	0.002	-0.269	0.050	1.070	-0.626	0.141	-0.062	-1.416	-0.780	-0.414	0.133	-1.349	0.509	0.117	0.134	-0.626	-0.576	0.022	-0.372	-0.117	0.130	-0.745	0.012	62.500
-0.371	0.715	0.404	0.148	0.149	0.100	-0.239	0.176	1.252	-0.596	0.233	-0.250	-1.413	-0.809	-0.486	0.260	-1.360	0.445	0.144	0.236	-0.578	-0.584	0.005	-0.511	-0.206	0.013	-0.912	-0.196	66.406
-0.403	0.762	0.422	0.168	0.194	0.228	-0.164	0.363	1.492	-0.530	0.385	-0.439	-1.410	-0.866	-0.584	0.357	-1.403	0.356	0.136	0.309	-0.546	-0.615	-0.035	-0.685	-0.331	-0.162	-1.099	-0.455	70.312
-0.454	0.753	0.438	0.161	0.235	0.374	-0.037	0.612	1.797	-0.415	0.616	-0.589	-1.403	-0.950	-0.720	0.396	-1.488	0.229	0.073	0.327	-0.546	-0.684	-0.096	-0.877	-0.476	-0.368	-1.276	-0.725	74.219
-0.535	0.671	0.437	0.117	0.263	0.524	0.146	0.915	2.164	-0.239	0.938	-0.656	-1.382	-1.057	-0.905	0.356	-1.621	0.055	-0.060	0.268	-0.592	-0.805	-0.182	-1.065	-0.618	-0.562	-1.406	-0.953	78.125
-0.653	0.512	0.398	0.027	0.272	0.662	0.380	1.255	2.587	0.007	1.354	-0.603	-1.334	-1.176	-1.144	0.227	-1.805	-0.178	-0.271	0.124	-0.687	-0.981	-0.290	-1.223	-0.733	-0.702	-1.453	-1.088	82.031
-0.813	0.282	0.306	-0.111	0.256	0.770	0.657	1.606	3.047	0.323	1.855	-0.409	-1.242	-1.289	-1.434	0.015	-2.040	-0.473	-0.556	-0.101	-0.828	-1.209	-0.418	-1.328	-0.796	-0.748	-1.387	-1.089	85.938
-1.011	0.002	0.150	-0.295	0.214	0.835	0.965	1.937	3.515	0.703	2.419	-0.072	-1.095	-1.376	-1.766	-0.257	-2.320	-0.827	-0.901	-0.389	-0.999	-1.476	-0.558	-1.357	-0.790	-0.674	-1.191	-0.932	89.844
-1.236	-0.305	-0.069	-0.517	0.147	0.845	1.286	2.218	3.954	1.131	3.010	0.389	-0.888	-1.420	-2.122	-0.556	-2.636	-1.229	-1.279	-0.710	-1.181	-1.757	-0.699	-1.297	-0.703	-0.472	-0.866	-0.614	93.750
-1.469	-0.608	-0.342	-0.760	0.064	0.796	1.603	2.418	4.324	1.579	3.583	0.936	-0.621	-1.405	-2.476	-0.845	-2.972	-1.653	-1.658	-1.030	-1.349	-2.024	-0.823	-1.143	-0.538	-0.152	-0.427	-0.157	97.656
-1.684	-0.877	-0.645	-1.004	-0.024	0.689	1.897	2.510	4.583	2.014	4.091	1.518	-0.305	-1.323	-2.796	-1.088	-3.305	-2.071	-1.999	-1.311	-1.477	-2.241	-0.915	-0.899	-0.308	0.258	0.093	0.397	101.562
-1.851	-1.086	-0.949	-1.223	-0.101	0.534	2.149	2.475	4.691	2.401	4.484	2.077	0.046	-1.171	-3.046	-1.253	-3.608	-2.444	-2.264	-1.516	-1.540	-2.375	-0.959	-0.580	-0.039	0.713	0.652	0.992	105.469
-1.941	-1.212	-1.218	-1.386	-0.149	0.351	2.344	2.299	4.615	2.704	4.723	2.556	0.409	-0.949	-3.194	-1.321	-3.847	-2.737	-2.422	-1.615	-1.512	-2.395	-0.941	-0.207	0.231	1.159	1.198	1.560	109.375
-1.928	-1.239	-1.420	-1.467	-0.148	0.165	2.470	1.982	4.337	2.891	4.779	2.904	0.766	-0.660	-3.211	-1.275	-3.990	-2.920	-2.448	-1.582	-1.371	-2.281	-0.858	0.191	0.460	1.536	1.682	2.038	113.281
-1.799	-1.156	-1.525	-1.439	-0.083	0.004	2.522	1.536	3.853	2.943	4.636	3.080	1.095	-0.311	-3.078	-1.112	-4.011	-2.974	-2.330	-1.400	-1.102	-2.026	-0.712	0.582	0.608	1.789	2.057	2.366	117.188
-1.551	-0.959	-1.516	-1.288	0.056	-0.106	2.501	0.985	3.180	2.850	4.296	3.061	1.380	0.086	-2.792	-0.832	-3.890	-2.891	-2.072	-1.066	-0.701	-1.638	-0.518	0.935	0.636	1.873	2.289	2.504	121.094
-1.197	-0.657	-1.386	-1.010	0.270	-0.146	2.413	0.368	2.357	2.618	3.781	2.841	1.607	0.515	-2.365	-0.446	-3.626	-2.678	-1.690	-0.591	-0.180	-1.143	-0.296	1.221	0.522	1.763	2.354	2.434	125.000
-0.763	-0.267	-1.145	-0.614	0.550	-0.107	2.272	-0.272	1.443	2.267	3.126	2.436	1.764	0.953	-1.828	0.027	-3.230	-2.356	-1.218	-0.001	0.433	-0.583	-0.069	1.415	0.260	1.458	2.248	2.161	128.906
-0.287	0.182	-0.812	-0.129	0.876	0.007	2.093	-0.886	0.508	1.827	2.384	1.886	1.845	1.373	-1.223	0.558	-2.732	-1.954	-0.696	0.658	1.094	-0.010	0.137	1.504	-0.137	0.980	1.983	1.717	132.812
0.188	0.653	-0.419	0.407	1.220	0.177	1.893	-1.428	-0.373	1.336	1.611	1.245	1.843	1.745	-0.603	1.112	-2.176	-1.506	-0.174	1.332	1.745	0.523	0.301	1.483	-0.634	0.376	1.584	1.154	136.719
0.619	1.104	-0.002	0.943	1.548	0.379	1.686	-1.862	-1.129	0.836	0.872	0.581	1.757	2.038	-0.018	1.645	-1.614	-1.050	0.305	1.963	2.326	0.967	0.408	1.357	-1.183	-0.289	1.090	0.537	140.625
0.971	1.493	0.400	1.428	1.824	0.578	1.486	-2.162	-1.706	0.365	0.223	-0.037	1.593	2.231	0.483	2.115	-1.101	-0.619	0.700	2.492	2.784	1.284	0.455	1.142	-1.726	-0.945	0.542	-0.068	144.531
1.216	1.786	0.751	1.817	2.020	0.743	1.301	-2.317	-2.068	-0.043	-0.289	-0.548	1.360	2.311	0.867	2.482	-0.686	-0.243	0.983	2.876	3.078	1.454	0.443	0.863	-2.204	-1.524	-0.014	-0.596	148.438
1.341	1.960	1.023	2.076	2.113	0.848	1.135	-2.328	-2.206	-0.363	-0.630	-0.905	1.074	2.273	1.114	2.715	-0.410	0.052	1.138	3.085	3.187	1.476	0.384	0.546	-2.567	-1.969	-0.537	-0.999	152.344
1.344	2.002	1.194	2.188	2.096	0.876	0.993	-2.206	-2.127	-0.578	-0.780	-1.082	0.755	2.125	1.218	2.793	-0.300	0.251	1.160	3.109	3.109	1.364	0.293	0.221	-2.780	-2.243	-0.994	-1.243	156.250
1.235	1.917	1.256	2.152	1.972	0.822	0.875	-1.972	-1.859	-0.680	-0.735	-1.070	0.429	1.884	1.189	2.710	-0.363	0.344	1.054	2.953	2.861	1.146	0.184	-0.087	-2.827	-2.331	-1.358	-1.311	160.156
1.032	1.717	1.207	1.983	1.758	0.693	0.782	-1.651	-1.440	-0.671	-0.506	-0.883	0.119	1.571	1.043	2.470	-0.593	0.331	0.835	2.638	2.473	0.855	0.071	-0.359	-2.712	-2.237	-1.616	-1.205	164.062
0.757	1.426	1.055	1.709	1.475	0.502	0.715	-1.269	-0.913	-0.560	-0.114	-0.545	-0.152	1.209	0.803	2.092	-0.967	0.219	0.524	2.195	1.982	0.526	-0.039	-0.583	-2.455	-1.983	-1.761	-0.940	167.969
0.435	1.071	0.817	1.360	1.150	0.269	0.673	-0.854	-0.321	-0.361	0.412	-0.088	-0.368	0.823	0.494	1.604	-1.448	0.022	0.143	1.659	1.427	0.188	-0.141	-0.752	-2.087	-1.603	-1.797	-0.543	171.875
0.088	0.678	0.511	0.966	0.807	0.013	0.656	-0.433	0.296	-0.097	1.037	0.454	-0.521	0.433	0.137	1.042	-1.995	-0.240	-0.279	1.065	0.839	-0.138	-0.235	-0.866	-1.645	-1.132	-1.734	-0.044	175.781
-0.267	0.271	0.162	0.551	0.469	-0.249	0.663	-0.028	0.908	0.212	1.724	1.049	-0.610	0.054	-0.251	0.443	-2.563	-0.543	-0.719	0.444	0.247	-0.439	-0.323	-0.928	-1.165	-0.606	-1.586	0.523	179.688
-0.613	-0.130	-0.208	0.129	0.147	-0.507	0.692	0.342	1.494	0.539	2.435	1.671	-0.641	-0.302	-0.659	-0.155	-3.111	-0.862	-1.154	-0.178	-0.332	-0.712	-0.411	-0.942	-0.675	-0.052	-1.369	1.129	183.594
-0.944	-0.513	-0.575	-0.291	-0.149	-0.755	0.740	0.667	2.042	0.866	3.137	2.300	-0.626	-0.632	-1.078	-0.726	-3.609	-1.176	-1.566	-0.781	-0.890	-0.961	-0.501	-0.914	-0.196	0.507	-1.100	1.746	187.500
-1.256	-0.872	-0.921	-0.710	-0.420	-0.990	0.803	0.940	2.547	1.174	3.803	2.921	-0.578	-0.934	-1.503	-1.248	-4.038	-1.468	-1.944	-1.353	-1.422	-1.193	-0.599	-0.850	0.259	1.059	-0.797	2.351	191.406
-1.548	-1.203	-1.228	-1.127	-0.665	-1.211	0.880	1.163	3.008	1.453	4.411	3.522	-0.510	-1.208	-1.929	-1.715	-4.392	-1.726	-2.285	-1.887	-1.928	-1.417	-0.706	-0.759	0.683	1.593	-0.475	2.926	195.312
-1.822	-1.505	-1.487	-1.540	-0.888	-1.416	0.967	1.342	3.429	1.701	4.947	4.091	-0.433	-1.455	-2.349	-2.124	-4.678	-1.947	-2.588	-2.378	-2.406	-1.637	-0.822	-0.647	1.075	2.103	-0.150	3.456	199.219
-2.078	-1.776	-1.694	-1.940	-1.086	-1.599	1.064	1.487	3.809	1.916	5.401	4.617	-0.349	-1.672	-2.752	-2.482	-4.907	-2.132	-2.859	-2.825	-2.854	-1.855	-0.945	-0.524	1.435	2.583	0.167	3.927	203.125
-2.316	-2.017	-1.849	-2.315	-1.258	-1.756	1.170	1.608	4.145	2.106	5.768	5.085	-0.258	-1.856	-3.126	-2.794	-5.098	-2.286	-3.104	-3.226	-3.266	-2.067	-1.069	-0.400	1.762	3.024	0.465	4.327	207.031
-2.530	-2.226	-1.957	-2.647	-1.395	-1.880	1.286	1.715	4.434	2.274	6.047	5.477	-0.154	-2.002	-3.460	-3.066	-5.264	-2.416	-3.324	-3.579	-3.635	-2.264	-1.186	-0.283	2.052	3.418	0.733	4.647	210.938
-2.713	-2.403	-2.027	-2.918	-1.493	-1.962	1.411	1.816	4.668	2.424	6.236	5.778	-0.030	-2.105	-3.739	-3.298	-5.417	-2.529	-3.522	-3.883	-3.951	-2.432	-1.285	-0.177	2.303	3.753	0.965	4.879	214.844
-2.855	-2.548	-2.068	-3.110	-1.546	-1.996	1.546	1.915	4.841	2.559	6.336	5.972	0.124	-2.158	-3.955	-3.490	-5.561	-2.630	-3.694	-4.134	-4.202	-2.558	-1.355	-0.084	2.508	4.022	1.154	5.018	218.750
-2.948	-2.658	-2.090	-3.215	-1.552	-1.977	1.690	2.011	4.947	2.677	6.350	6.051	0.311	-2.158	-4.101	-3.636	-5.694	-2.723	-3.832	-4.328	-4.380	-2.627	-1.387	-0.001	2.665	4.216	1.295	5.064	222.656
-2.983	-2.732	-2.103	-3.230	-1.512	-1.906	1.842	2.100	4.981	2.774	6.282	6.012	0.533	-2.100	-4.175	-3.735	-5.805	-2.812	-3.928	-4.459	-4.475	-2.629	-1.373	0.078	2.772	4.332	1.389	5.020	226.562
-2.957	-2.767	-2.116	-3.164	-1.429	-1.785	1.997	2.175	4.944	2.848	6.140	5.862	0.787	-1.982	-4.183	-3.787	-5.883	-2.897	-3.973	-4.522	-4.480	-2.560	-1.310	0.164	2.827	4.370	1.439	4.897	230.469
-2.871	-2.761	-2.136	-3.032	-1.310	-1.622	2.153	2.226	4.837	2.896	5.938	5.618	1.064	-1.802	-4.132	-3.794	-5.914	-2.981	-3.959	-4.511	-4.391	-2.422	-1.201	0.268	2.836	4.335	1.451	4.710	234.375
-2.733	-2.714	-2.166	-2.856	-1.161	-1.428	2.306	2.241	4.668	2.920	5.692	5.305	1.355	-1.562	-4.036	-3.766	-5.887	-3.066	-3.885	-4.426	-4.209	-2.226	-1.055	0.399	2.801	4.236	1.437	4.477	238.281
-2.554	-2.628	-2.208	-2.659	-0.989	-1.219	2.453	2.212	4.450	2.923	5.423	4.953	1.648	-1.264	-3.911	-3.714	-5.800	-3.152	-3.754	-4.267	-3.938	-1.985	-0.884	0.562	2.731	4.087	1.411	4.221	242.188
-2.350	-2.511	-2.260	-2.467	-0.803	-1.008	2.590	2.131	4.202	2.911	5.157	4.595	1.934	-0.917	-3.773	-3.651	-5.657	-3.239	-3.574	-4.043	-3.589	-1.719	-0.703	0.756	2.633	3.904	1.387	3.969	246.094
-2.138	-2.375	-2.317	-2.300	-0.610	-0.812	2.714	2.000	3.946	2.892	4.916	4.260	2.206	-0.534	-3.637	-3.591	-5.472	-3.328	-3.360	-3.768	-3.178	-1.445	-0.529	0.974	2.514	3.703	1.378	3.741	250.000
-1.934	-2.235	-2.376	-2.171	-0.422	-0.642	2.823	1.824	3.706	2.871	4.721	3.975	2.461	-0.131	-3.516	-3.542	-5.266	-3.417	-3.127	-3.461	-2.730	-1.182	-0.375	1.205	2.383	3.504	1.397	3.560	253.906
-1.753	-2.107	-2.432	-2.089	-0.249	-0.509	2.917	1.615	3.504	2.857	4.588	3.759	2.697	0.271	-3.418	-3.511	-5.064	-3.507	-2.895	-3.142	-2.269	-0.942	-0.250	1.433	2.247	3.324	1.448	3.438	257.812
-1.604	-2.006	-2.484	-2.055	-0.101	-0.419	2.993	1.393	3.356	2.855	4.523	3.625	2.915	0.653	-3.351	-3.498	-4.891	-3.599	-2.682	-2.835	-1.824	-0.732	-0.161	1.645	2.118	3.177	1.536	3.384	261.719
-1.491	-1.942	-2.533	-2.066	0.013	-0.373	3.053	1.178	3.269	2.868	4.525	3.575	3.115	0.995	-3.319	-3.502	-4.769	-3.696	-2.505	-2.562	-1.420	-0.558	-0.106	1.829	2.004	3.077	1.656	3.398	265.625
-1.415	-1.920	-2.582	-2.115	0.090	-0.368	3.099	0.992	3.244	2.899	4.586	3.608	3.296	1.284	-3.324	-3.520	-4.712	-3.801	-2.375	-2.338	-1.077	-0.419	-0.081	1.977	1.916	3.029	1.803	3.471	269.531
-1.371	-1.938	-2.637	-2.194	0.128	-0.395	3.132	0.854	3.273	2.948	4.694	3.711	3.456	1.510	-3.365	-3.549	-4.724	-3.917	-2.301	-2.176	-0.808	-0.315	-0.083	2.087	1.861	3.035	1.967	3.590	273.438
-1.355	-1.990	-2.704	-2.292	0.132	-0.443	3.155	0.776	3.346	3.014	4.833	3.870	3.591	1.669	-3.442	-3.589	-4.803	-4.044	-2.286	-2.078	-0.618	-0.241	-0.103	2.161	1.845	3.090	2.137	3.739	277.344
-1.361	-2.068	-2.788	-2.401	0.108	-0.500	3.172	0.764	3.448	3.094	4.985	4.064	3.700	1.765	-3.548	-3.639	-4.936	-4.183	-2.323	-2.040	-0.501	-0.195	-0.136	2.206	1.867	3.183	2.302	3.900	281.250
-1.380	-2.161	-2.892	-2.511	0.063	-0.555	3.184	0.816	3.566	3.181	5.136	4.271	3.781	1.805	-3.676	-3.701	-5.101	-4.329	-2.403	-2.048	-0.447	-0.172	-0.176	2.229	1.924	3.297	2.453	4.055	285.156
-1.405	-2.262	-3.015	-2.617	0.007	-0.598	3.193	0.921	3.689	3.267	5.272	4.468	3.837	1.800	-3.815	-3.770	-5.274	-4.478	-2.508	-2.085	-0.437	-0.165	-0.219	2.237	2.006	3.414	2.583	4.188	289.062
-1.428	-2.360	-3.154	-2.710	-0.052	-0.626	3.199	1.063	3.805	3.344	5.382	4.630	3.871	1.768	-3.956	-3.840	-5.428	-4.623	-2.616	-2.129	-0.449	-0.162	-0.259	2.236	2.103	3.514	2.688	4.286	292.969
-1.441	-2.446	-3.302	-2.787	-0.106	-0.639	3.204	1.219	3.907	3.401	5.453	4.736	3.891	1.727	-4.085	-3.901	-5.537	-4.757	-2.705	-2.156	-0.459	-0.153	-0.290	2.231	2.201	3.582	2.765	4.338	296.875
-1.434	-2.511	-3.452	-2.840	-0.148	-0.642	3.208	1.367	3.985	3.431	5.477	4.768	3.903	1.694	-4.192	-3.936	-5.579	-4.872	-2.754	-2.146	-0.444	-0.123	-0.307	2.226	2.289	3.606	2.816	4.335	300.781
-1.400	-2.548	-3.598	-2.867	-0.170	-0.639	3.209	1.483	4.032	3.428	5.446	4.715	3.915	1.688	-4.268	-3.930	-5.543	-4.963	-2.746	-2.081	-0.384	-0.060	-0.302	2.222	2.354	3.580	2.840	4.274	304.688
-1.332	-2.548	-3.733	-2.864	-0.166	-0.638	3.207	1.551	4.039	3.389	5.353	4.572	3.931	1.721	-4.307	-3.867	-5.423	-5.025	-2.671	-1.949	-0.266	0.046	-0.269	2.222	2.390	3.508	2.841	4.154	308.594
-1.224	-2.507	-3.853	-2.828	-0.135	-0.644	3.200	1.557	4.000	3.314	5.199	4.342	3.957	1.802	-4.307	-3.738	-5.224	-5.057	-2.527	-1.746	-0.081	0.202	-0.204	2.224	2.391	3.395	2.820	3.976	312.500
-1.076	-2.424	-3.956	-2.760	-0.075	-0.659	3.187	1.498	3.908	3.207	4.987	4.040	3.994	1.934	-4.268	-3.540	-4.961	-5.061	-2.320	-1.474	0.170	0.409	-0.105	2.230	2.353	3.255	2.781	3.749	316.406
-0.892	-2.300	-4.041	-2.660	0.010	-0.684	3.169	1.377	3.764	3.075	4.730	3.683	4.048	2.115	-4.196	-3.281	-4.655	-5.041	-2.061	-1.144	0.482	0.661	0.025	2.237	2.276	3.099	2.731	3.482	320.312
-0.681	-2.141	-4.109	-2.530	0.116	-0.717	3.146	1.204	3.571	2.928	4.443	3.296	4.121	2.336	-4.097	-2.973	-4.331	-5.004	-1.767	-0.772	0.843	0.948	0.178	2.247	2.163	2.942	2.674	3.193	324.219
-0.456	-1.955	-4.161	-2.375	0.236	-0.756	3.121	0.995	3.342	2.776	4.147	2.909	4.219	2.584	-3.981	-2.637	-4.014	-4.962	-1.455	-0.377	1.236	1.253	0.345	2.259	2.019	2.794	2.619	2.898	328.125
-0.234	-1.751	-4.201	-2.201	0.360	-0.797	3.100	0.768	3.092	2.630	3.860	2.547	4.342	2.842	-3.858	-2.291	-3.726	-4.923	-1.144	0.021	1.640	1.557	0.513	2.275	1.852	2.664	2.576	2.616	332.031
-0.030	-1.540	-4.230	-2.012	0.482	-0.839	3.085	0.540	2.839	2.500	3.600	2.235	4.492	3.095	-3.739	-1.954	-3.483	-4.897	-0.852	0.401	2.036	1.841	0.669	2.295	1.676	2.558	2.552	2.367	335.938
0.142	-1.335	-4.253	-1.817	0.594	-0.880	3.083	0.329	2.604	2.393	3.381	1.990	4.667	3.324	-3.635	-1.642	-3.295	-4.893	-0.595	0.744	2.403	2.088	0.800	2.322	1.503	2.477	2.554	2.166	339.844
0.274	-1.145	-4.272	-1.622	0.694	-0.917	3.100	0.150	2.402	2.316	3.209	1.822	4.859	3.519	-3.557	-1.367	-3.165	-4.914	-0.385	1.036	2.726	2.286	0.901	2.357	1.350	2.422	2.587	2.027	343.750
0.365	-0.979	-4.290	-1.433	0.781	-0.950	3.139	0.015	2.244	2.271	3.085	1.732	5.060	3.669	-3.514	-1.137	-3.090	-4.960	-0.233	1.267	2.990	2.428	0.965	2.402	1.230	2.389	2.652	1.953	347.656
0.417	-0.844	-4.308	-1.256	0.858	-0.976	3.200	-0.069	2.133	2.255	3.005	1.715	5.256	3.771	-3.513	-0.961	-3.063	-5.029	-0.142	1.430	3.189	2.514	0.995	2.456	1.153	2.374	2.747	1.946	351.562
0.438	-0.744	-4.327	-1.097	0.932	-0.995	3.282	-0.097	2.066	2.263	2.960	1.756	5.436	3.825	-3.555	-0.845	-3.076	-5.111	-0.113	1.527	3.320	2.551	0.996	2.517	1.123	2.371	2.868	1.994	355.469
0.438	-0.679	-4.344	-0.960	1.009	-1.006	3.378	-0.070	2.033	2.288	2.936	1.835	5.583	3.835	-3.636	-0.792	-3.118	-5.196	-0.140	1.562	3.382	2.547	0.976	2.583	1.139	2.375	3.003	2.083	359.375
0.425	-0.647	-4.354	-0.850	1.092	-1.009	3.478	0.008	2.021	2.320	2.925	1.932	5.687	3.805	-3.748	-0.807	-3.182	-5.274	-0.214	1.543	3.380	2.512	0.945	2.649	1.193	2.383	3.143	2.196	363.281
0.404	-0.646	-4.352	-0.770	1.183	-1.002	3.574	0.131	2.019	2.353	2.920	2.028	5.735	3.742	-3.879	-0.887	-3.262	-5.336	-0.326	1.480	3.318	2.454	0.912	2.708	1.275	2.394	3.271	2.314	367.188
0.377	-0.671	-4.332	-0.724	1.275	-0.985	3.656	0.294	2.023	2.380	2.923	2.111	5.722	3.647	-4.018	-1.029	-3.353	-5.377	-0.466	1.378	3.200	2.378	0.882	2.753	1.373	2.409	3.377	2.423	371.094
0.338	-0.721	-4.289	-0.717	1.362	-0.956	3.722	0.489	2.034	2.405	2.942	2.178	5.647	3.524	-4.157	-1.224	-3.458	-5.398	-0.627	1.239	3.030	2.282	0.857	2.777	1.475	2.431	3.449	2.514	375.000
0.282	-0.794	-4.221	-0.748	1.432	-0.917	3.773	0.713	2.065	2.434	2.989	2.236	5.517	3.373	-4.294	-1.460	-3.580	-5.408	-0.809	1.060	2.810	2.161	0.834	2.775	1.575	2.462	3.484	2.587	378.906
0.203	-0.889	-4.127	-0.817	1.477	-0.868	3.814	0.962	2.131	2.475	3.080	2.295	5.341	3.196	-4.432	-1.723	-3.724	-5.415	-1.013	0.836	2.543	2.010	0.807	2.742	1.666	2.506	3.480	2.644	382.812
0.096	-1.008	-4.010	-0.918	1.489	-0.814	3.854	1.232	2.246	2.540	3.224	2.371	5.136	2.996	-4.576	-1.996	-3.899	-5.432	-1.243	0.564	2.237	1.823	0.771	2.678	1.748	2.562	3.446	2.696	386.719
-0.035	-1.148	-3.875	-1.042	1.466	-0.758	3.902	1.515	2.415	2.635	3.423	2.475	4.916	2.778	-4.733	-2.263	-4.106	-5.465	-1.500	0.242	1.900	1.601	0.719	2.585	1.821	2.631	3.390	2.751	390.625
-0.185	-1.308	-3.726	-1.180	1.407	-0.706	3.963	1.803	2.634	2.760	3.667	2.615	4.696	2.548	-4.905	-2.510	-4.342	-5.518	-1.781	-0.123	1.545	1.352	0.650	2.469	1.889	2.709	3.321	2.818	394.531
-0.341	-1.480	-3.569	-1.317	1.320	-0.664	4.036	2.083	2.888	2.904	3.932	2.786	4.486	2.313	-5.087	-2.726	-4.598	-5.583	-2.077	-0.516	1.187	1.088	0.565	2.336	1.952	2.792	3.248	2.900	398.438
-0.487	-1.656	-3.405	-1.440	1.217	-0.634	4.113	2.336	3.151	3.049	4.187	2.973	4.290	2.084	-5.267	-2.899	-4.857	-5.646	-2.371	-0.915	0.844	0.830	0.471	2.194	2.009	2.870	3.170	2.992	402.344
-0.608	-1.820	-3.233	-1.534	1.112	-0.617	4.181	2.545	3.391	3.170	4.391	3.148	4.107	1.870	-5.427	-3.021	-5.094	-5.689	-2.638	-1.292	0.533	0.600	0.375	2.051	2.056	2.930	3.082	3.078	406.250
-0.689	-1.956	-3.048	-1.583	1.023	-0.610	4.221	2.690	3.573	3.236	4.506	3.275	3.933	1.680	-5.545	-3.084	-5.283	-5.687	-2.850	-1.614	0.273	0.420	0.289	1.913	2.084	2.957	2.974	3.135	410.156
-0.718	-2.044	-2.841	-1.576	0.968	-0.607	4.214	2.755	3.666	3.221	4.498	3.313	3.759	1.522	-5.597	-3.079	-5.398	-5.617	-2.977	-1.851	0.078	0.311	0.223	1.783	2.083	2.931	2.829	3.137	414.062
-0.687	-2.068	-2.604	-1.502	0.960	-0.600	4.145	2.728	3.642	3.102	4.345	3.228	3.581	1.405	-5.565	-3.001	-5.420	-5.463	-2.997	-1.977	-0.038	0.286	0.186	1.664	2.042	2.832	2.635	3.054	417.969
-0.592	-2.018	-2.333	-1.356	1.007	-0.581	4.006	2.607	3.487	2.870	4.044	2.995	3.392	1.334	-5.440	-2.848	-5.337	-5.216	-2.897	-1.978	-0.067	0.350	0.185	1.557	1.953	2.649	2.382	2.866	421.875
-0.438	-1.893	-2.028	-1.143	1.107	-0.544	3.796	2.395	3.195	2.531	3.610	2.614	3.194	1.310	-5.222	-2.622	-5.155	-4.878	-2.677	-1.851	-0.008	0.499	0.220	1.463	1.813	2.378	2.072	2.568	425.781
-0.231	-1.705	-1.696	-0.876	1.248	-0.490	3.527	2.104	2.778	2.106	3.077	2.107	2.992	1.332	-4.925	-2.336	-4.889	-4.467	-2.358	-1.611	0.131	0.717	0.289	1.385	1.625	2.033	1.715	2.170	429.688
0.011	-1.472	-1.353	-0.574	1.412	-0.425	3.218	1.752	2.259	1.628	2.492	1.521	2.793	1.392	-4.573	-2.007	-4.567	-4.008	-1.971	-1.283	0.334	0.982	0.386	1.326	1.403	1.638	1.336	1.704	433.594
0.270	-1.223	-1.020	-0.267	1.573	-0.362	2.895	1.363	1.675	1.139	1.912	0.921	2.609	1.483	-4.197	-1.659	-4.224	-3.536	-1.556	-0.904	0.579	1.267	0.499	1.292	1.167	1.235	0.967	1.215	437.500
0.524	-0.987	-0.723	0.016	1.710	-0.315	2.582	0.960	1.067	0.683	1.385	0.375	2.451	1.591	-3.826	-1.316	-3.892	-3.088	-1.158	-0.515	0.837	1.542	0.619	1.287	0.940	0.866	0.641	0.757	441.406
0.753	-0.788	-0.484	0.248	1.802	-0.302	2.301	0.566	0.477	0.296	0.955	-0.056	2.324	1.704	-3.488	-1.000	-3.601	-2.694	-0.813	-0.153	1.084	1.782	0.733	1.314	0.748	0.573	0.389	0.382	445.312
0.938	-0.646	-0.315	0.409	1.838	-0.335	2.068	0.199	-0.059	0.003	0.643	-0.330	2.234	1.811	-3.203	-0.729	-3.368	-2.377	-0.547	0.150	1.297	1.968	0.833	1.372	0.609	0.386	0.235	0.129	449.219
1.070	-0.567	-0.223	0.490	1.814	-0.424	1.888	-0.126	-0.511	-0.187	0.455	-0.431	2.179	1.901	-2.980	-0.514	-3.206	-2.147	-0.372	0.375	1.461	2.089	0.913	1.457	0.537	0.321	0.186	0.019	453.125
1.145	-0.551	-0.200	0.493	1.730	-0.570	1.759	-0.401	-0.862	-0.278	0.379	-0.369	2.153	1.965	-2.820	-0.361	-3.114	-1.997	-0.286	0.516	1.566	2.143	0.969	1.561	0.532	0.375	0.237	0.053	457.031
1.168	-0.587	-0.229	0.428	1.594	-0.769	1.669	-0.620	-1.103	-0.291	0.392	-0.173	2.146	1.998	-2.715	-0.270	-3.089	-1.914	-0.280	0.575	1.612	2.138	1.001	1.670	0.590	0.531	0.369	0.213	460.938
1.148	-0.660	-0.293	0.314	1.412	-1.011	1.603	-0.783	-1.234	-0.251	0.464	0.111	2.146	1.996	-2.654	-0.239	-3.122	-1.875	-0.332	0.562	1.601	2.085	1.013	1.773	0.698	0.763	0.554	0.469	464.844
1.095	-0.757	-0.372	0.169	1.196	-1.280	1.543	-0.892	-1.260	-0.190	0.569	0.436	2.141	1.954	-2.623	-0.260	-3.202	-1.856	-0.423	0.493	1.538	2.003	1.010	1.854	0.842	1.041	0.764	0.782	468.750
1.020	-0.866	-0.454	0.013	0.955	-1.559	1.474	-0.952	-1.191	-0.132	0.684	0.760	2.119	1.872	-2.608	-0.326	-3.316	-1.838	-0.531	0.381	1.431	1.908	0.998	1.905	1.008	1.335	0.970	1.114	472.656
0.933	-0.978	-0.534	-0.140	0.700	-1.827	1.386	-0.969	-1.039	-0.096	0.795	1.049	2.073	1.753	-2.598	-0.425	-3.451	-1.809	-0.637	0.240	1.287	1.817	0.982	1.918	1.185	1.620	1.150	1.432	476.562
0.840	-1.089	-0.613	-0.279	0.445	-2.061	1.277	-0.953	-0.822	-0.092	0.897	1.282	2.001	1.604	-2.585	-0.542	-3.591	-1.766	-0.728	0.084	1.116	1.741	0.967	1.892	1.362	1.876	1.290	1.708	480.469
0.746	-1.199	-0.698	-0.399	0.205	-2.242	1.151	-0.915	-0.560	-0.117	0.989	1.449	1.906	1.436	-2.565	-0.660	-3.720	-1.712	-0.793	-0.076	0.930	1.690	0.956	1.829	1.532	2.091	1.380	1.923	484.375
0.655	-1.306	-0.792	-0.495	-0.002	-2.351	1.018	-0.865	-0.279	-0.166	1.074	1.549	1.796	1.266	-2.537	-0.762	-3.824	-1.659	-0.824	-0.227	0.746	1.667	0.949	1.738	1.688	2.254	1.417	2.067	488.281
0.574	-1.407	-0.895	-0.566	-0.159	-2.375	0.890	-0.815	-0.006	-0.226	1.150	1.582	1.682	1.110	-2.502	-0.829	-3.888	-1.613	-0.819	-0.355	0.582	1.671	0.945	1.626	1.821	2.358	1.401	2.133	492.188
0.508	-1.494	-0.999	-0.606	-0.255	-2.310	0.778	-0.776	0.226	-0.288	1.215	1.553	1.572	0.986	-2.459	-0.845	-3.900	-1.581	-0.775	-0.443	0.457	1.700	0.945	1.502	1.921	2.396	1.332	2.116	496.094
0.470	-1.558	-1.091	-0.609	-0.281	-2.163	0.692	-0.756	0.389	-0.346	1.256	1.466	1.475	0.907	-2.410	-0.799	-3.854	-1.563	-0.692	-0.477	0.391	1.749	0.946	1.372	1.976	2.362	1.212	2.016	500.000
0.468	-1.584	-1.154	-0.569	-0.238	-1.946	0.636	-0.761	0.460	-0.399	1.261	1.324	1.391	0.880	-2.353	-0.686	-3.745	-1.549	-0.574	-0.441	0.399	1.813	0.947	1.239	1.975	2.250	1.043	1.834	503.906
0.514	-1.562	-1.171	-0.480	-0.133	-1.682	0.608	-0.794	0.423	-0.450	1.213	1.130	1.320	0.906	-2.285	-0.507	-3.576	-1.528	-0.425	-0.327	0.487	1.889	0.948	1.106	1.908	2.058	0.829	1.574	507.812
0.611	-1.485	-1.131	-0.340	0.021	-1.399	0.605	-0.853	0.277	-0.506	1.102	0.892	1.259	0.982	-2.204	-0.272	-3.357	-1.487	-0.252	-0.135	0.653	1.972	0.947	0.969	1.773	1.788	0.576	1.245	511.719
0.758	-1.351	-1.030	-0.152	0.207	-1.122	0.618	-0.933	0.033	-0.573	0.923	0.621	1.201	1.096	-2.112	0.004	-3.099	-1.414	-0.064	0.127	0.887	2.056	0.944	0.828	1.572	1.451	0.299	0.865	515.625
0.947	-1.169	-0.872	0.074	0.407	-0.875	0.641	-1.027	-0.284	-0.653	0.683	0.331	1.145	1.234	-2.012	0.305	-2.823	-1.305	0.127	0.441	1.166	2.135	0.936	0.683	1.317	1.067	0.012	0.456	519.531
1.162	-0.954	-0.671	0.323	0.603	-0.674	0.667	-1.126	-0.639	-0.744	0.402	0.041	1.088	1.383	-1.912	0.612	-2.548	-1.162	0.310	0.782	1.463	2.202	0.922	0.535	1.025	0.660	-0.263	0.047	523.438
1.382	-0.728	-0.446	0.576	0.783	-0.525	0.692	-1.222	-0.992	-0.840	0.107	-0.228	1.032	1.526	-1.821	0.909	-2.295	-0.995	0.471	1.119	1.750	2.248	0.900	0.390	0.721	0.262	-0.506	-0.330	527.344
1.583	-0.515	-0.221	0.812	0.938	-0.428	0.713	-1.308	-1.304	-0.928	-0.168	-0.454	0.979	1.652	-1.751	1.184	-2.082	-0.823	0.599	1.422	1.998	2.267	0.869	0.257	0.430	-0.095	-0.697	-0.644	531.250
1.746	-0.337	-0.020	1.010	1.061	-0.375	0.733	-1.379	-1.536	-0.995	-0.388	-0.617	0.933	1.750	-1.712	1.429	-1.921	-0.665	0.684	1.663	2.183	2.254	0.829	0.148	0.176	-0.385	-0.818	-0.868	535.156
1.854	-0.212	0.135	1.154	1.150	-0.355	0.754	-1.433	-1.660	-1.025	-0.519	-0.702	0.898	1.813	-1.713	1.640	-1.821	-0.542	0.718	1.823	2.291	2.208	0.782	0.074	-0.019	-0.586	-0.857	-0.982	539.062
1.897	-0.152	0.226	1.229	1.201	-0.356	0.783	-1.467	-1.659	-1.007	-0.538	-0.696	0.877	1.838	-1.758	1.812	-1.783	-0.474	0.698	1.888	2.315	2.133	0.732	0.044	-0.142	-0.683	-0.806	-0.977	542.969
1.875	-0.160	0.242	1.230	1.212	-0.367	0.823	-1.480	-1.526	-0.931	-0.431	-0.596	0.872	1.828	-1.845	1.940	-1.804	-0.473	0.624	1.857	2.259	2.035	0.679	0.064	-0.187	-0.675	-0.663	-0.854	546.875
1.791	-0.231	0.179	1.155	1.181	-0.381	0.882	-1.472	-1.270	-0.794	-0.200	-0.404	0.886	1.787	-1.970	2.015	-1.875	-0.547	0.500	1.738	2.132	1.923	0.629	0.136	-0.158	-0.566	-0.431	-0.621	550.781
1.656	-0.352	0.043	1.012	1.106	-0.394	0.963	-1.444	-0.909	-0.600	0.140	-0.130	0.920	1.720	-2.128	2.028	-1.985	-0.693	0.335	1.544	1.951	1.806	0.582	0.253	-0.063	-0.373	-0.122	-0.301	554.688
1.486	-0.504	-0.151	0.815	0.992	-0.405	1.067	-1.398	-0.472	-0.360	0.562	0.209	0.970	1.637	-2.309	1.971	-2.116	-0.899	0.143	1.296	1.735	1.694	0.540	0.406	0.079	-0.118	0.247	0.077	558.594
1.300	-0.668	-0.379	0.586	0.844	-0.416	1.191	-1.336	0.005	-0.094	1.027	0.587	1.035	1.544	-2.505	1.844	-2.251	-1.144	-0.057	1.019	1.504	1.592	0.504	0.575	0.247	0.171	0.648	0.478	562.500
1.119	-0.822	-0.613	0.348	0.676	-0.428	1.326	-1.264	0.484	0.176	1.489	0.973	1.107	1.449	-2.705	1.652	-2.374	-1.401	-0.246	0.739	1.278	1.507	0.476	0.743	0.418	0.459	1.049	0.863	566.406
0.965	-0.949	-0.822	0.126	0.501	-0.443	1.459	-1.185	0.925	0.421	1.898	1.329	1.178	1.359	-2.897	1.417	-2.468	-1.638	-0.401	0.480	1.074	1.444	0.459	0.888	0.569	0.716	1.412	1.190	570.312
0.858	-1.034	-0.977	-0.055	0.336	-0.465	1.576	-1.108	1.292	0.614	2.209	1.620	1.240	1.281	-3.068	1.166	-2.520	-1.826	-0.503	0.266	0.907	1.406	0.457	0.994	0.683	0.910	1.698	1.426	574.219
0.816	-1.071	-1.061	-0.179	0.196	-0.498	1.661	-1.042	1.559	0.735	2.382	1.812	1.283	1.221	-3.205	0.935	-2.521	-1.941	-0.535	0.114	0.790	1.399	0.475	1.051	0.747	1.019	1.876	1.544	578.125
0.847	-1.060	-1.067	-0.233	0.095	-0.544	1.699	-0.994	1.708	0.766	2.392	1.876	1.302	1.185	-3.294	0.760	-2.467	-1.967	-0.488	0.038	0.733	1.426	0.518	1.057	0.759	1.032	1.926	1.529	582.031
0.955	-1.005	-1.001	-0.217	0.043	-0.603	1.682	-0.973	1.735	0.703	2.230	1.799	1.294	1.181	-3.325	0.673	-2.357	-1.901	-0.360	0.046	0.740	1.491	0.588	1.017	0.721	0.946	1.844	1.381	585.938
1.130	-0.915	-0.880	-0.136	0.044	-0.675	1.609	-0.982	1.649	0.552	1.910	1.575	1.257	1.210	-3.294	0.694	-2.194	-1.752	-0.159	0.136	0.815	1.591	0.689	0.944	0.643	0.769	1.640	1.111	589.844
1.359	-0.804	-0.729	-0.003	0.097	-0.754	1.485	-1.023	1.473	0.328	1.463	1.219	1.193	1.273	-3.203	0.830	-1.984	-1.537	0.102	0.303	0.953	1.721	0.815	0.852	0.540	0.518	1.337	0.742	593.750
1.620	-0.681	-0.572	0.166	0.197	-0.832	1.322	-1.091	1.234	0.053	0.932	0.755	1.105	1.367	-3.058	1.076	-1.738	-1.281	0.403	0.536	1.146	1.873	0.963	0.756	0.422	0.214	0.967	0.305	597.656
1.893	-0.554	-0.429	0.355	0.336	-0.897	1.136	-1.179	0.963	-0.248	0.369	0.217	0.999	1.481	-2.876	1.414	-1.463	-1.010	0.724	0.818	1.380	2.035	1.121	0.668	0.300	-0.122	0.566	-0.170	601.562
2.157	-0.428	-0.312	0.548	0.502	-0.940	0.946	-1.277	0.689	-0.551	-0.180	-0.355	0.881	1.608	-2.674	1.823	-1.173	-0.748	1.046	1.131	1.639	2.195	1.280	0.595	0.176	-0.472	0.163	-0.653	605.469
2.396	-0.303	-0.221	0.736	0.683	-0.947	0.768	-1.376	0.433	-0.836	-0.676	-0.923	0.760	1.737	-2.469	2.276	-0.877	-0.514	1.352	1.457	1.907	2.344	1.426	0.539	0.048	-0.822	-0.217	-1.119	609.375
2.602	-0.175	-0.151	0.914	0.870	-0.909	0.617	-1.468	0.207	-1.087	-1.090	-1.452	0.648	1.859	-2.279	2.745	-0.589	-0.318	1.630	1.779	2.169	2.471	1.546	0.496	-0.090	-1.160	-0.558	-1.550	613.281
2.768	-0.043	-0.090	1.081	1.053	-0.823	0.502	-1.546	0.016	-1.292	-1.409	-1.914	0.557	1.970	-2.117	3.201	-0.322	-0.166	1.868	2.082	2.412	2.573	1.632	0.463	-0.245	-1.480	-0.851	-1.932	617.188
2.895	0.095	-0.027	1.235	1.225	-0.690	0.432	-1.607	-0.139	-1.444	-1.627	-2.288	0.498	2.067	-1.994	3.616	-0.091	-0.059	2.058	2.351	2.628	2.648	1.676	0.434	-0.420	-1.775	-1.093	-2.256	621.094
2.984	0.235	0.041	1.374	1.380	-0.515	0.408	-1.648	-0.258	-1.539	-1.747	-2.561	0.483	2.150	-1.913	3.964	0.088	0.005	2.190	2.576	2.810	2.695	1.674	0.406	-0.614	-2.035	-1.280	-2.517	625.000
3.038	0.367	0.115	1.491	1.510	-0.314	0.429	-1.668	-0.344	-1.576	-1.774	-2.724	0.514	2.221	-1.876	4.222	0.204	0.030	2.258	2.747	2.954	2.716	1.629	0.378	-0.818	-2.252	-1.413	-2.709	628.906
3.061	0.478	0.182	1.575	1.610	-0.104	0.489	-1.666	-0.395	-1.556	-1.717	-2.776	0.590	2.281	-1.880	4.372	0.249	0.021	2.261	2.858	3.058	2.714	1.547	0.352	-1.018	-2.413	-1.488	-2.827	632.812
3.057	0.551	0.228	1.614	1.670	0.094	0.578	-1.644	-0.412	-1.485	-1.586	-2.719	0.697	2.327	-1.916	4.406	0.225	-0.017	2.200	2.905	3.119	2.690	1.439	0.332	-1.194	-2.504	-1.505	-2.866	636.719
3.030	0.574	0.235	1.598	1.682	0.257	0.677	-1.605	-0.396	-1.374	-1.395	-2.559	0.817	2.355	-1.975	4.323	0.143	-0.076	2.086	2.888	3.135	2.649	1.322	0.320	-1.324	-2.517	-1.465	-2.826	640.625
2.985	0.537	0.189	1.522	1.639	0.364	0.769	-1.555	-0.355	-1.239	-1.162	-2.307	0.926	2.361	-2.042	4.136	0.020	-0.144	1.935	2.811	3.108	2.591	1.211	0.321	-1.390	-2.443	-1.372	-2.706	644.531
2.928	0.441	0.084	1.386	1.536	0.399	0.831	-1.504	-0.301	-1.100	-0.911	-1.980	0.999	2.339	-2.104	3.869	-0.119	-0.209	1.766	2.686	3.040	2.523	1.121	0.337	-1.376	-2.283	-1.235	-2.513	648.438
2.868	0.295	-0.080	1.201	1.374	0.353	0.848	-1.466	-0.251	-0.979	-0.667	-1.601	1.017	2.288	-2.145	3.558	-0.245	-0.260	1.604	2.527	2.939	2.451	1.067	0.370	-1.276	-2.046	-1.068	-2.257	652.344
2.812	0.115	-0.291	0.982	1.161	0.225	0.805	-1.453	-0.222	-0.895	-0.456	-1.200	0.971	2.213	-2.153	3.243	-0.338	-0.285	1.470	2.356	2.818	2.384	1.054	0.420	-1.097	-1.748	-0.885	-1.956	656.250
2.767	-0.074	-0.530	0.752	0.912	0.028	0.701	-1.474	-0.230	-0.863	-0.304	-0.810	0.862	2.121	-2.121	2.965	-0.380	-0.280	1.383	2.193	2.692	2.333	1.084	0.490	-0.854	-1.415	-0.701	-1.632	660.156
2.739	-0.251	-0.772	0.532	0.649	-0.215	0.543	-1.534	-0.283	-0.886	-0.227	-0.468	0.706	2.027	-2.047	2.758	-0.370	-0.245	1.351	2.061	2.578	2.310	1.153	0.578	-0.575	-1.077	-0.529	-1.313	664.062
2.731	-0.392	-0.994	0.341	0.395	-0.472	0.348	-1.627	-0.382	-0.961	-0.234	-0.205	0.526	1.947	-1.936	2.646	-0.314	-0.187	1.375	1.976	2.492	2.320	1.251	0.683	-0.292	-0.764	-0.380	-1.028	667.969
2.744	-0.484	-1.174	0.194	0.177	-0.711	0.142	-1.741	-0.519	-1.072	-0.322	-0.048	0.353	1.896	-1.800	2.635	-0.231	-0.117	1.446	1.946	2.443	2.367	1.364	0.798	-0.039	-0.507	-0.257	-0.803	671.875
2.777	-0.521	-1.297	0.099	0.016	-0.901	-0.046	-1.857	-0.678	-1.201	-0.479	-0.011	0.213	1.885	-1.656	2.719	-0.140	-0.048	1.552	1.974	2.439	2.446	1.477	0.915	0.155	-0.331	-0.163	-0.657	675.781
2.825	-0.505	-1.357	0.057	-0.074	-1.020	-0.190	-1.953	-0.842	-1.325	-0.685	-0.094	0.128	1.921	-1.521	2.881	-0.060	0.008	1.675	2.051	2.479	2.547	1.575	1.022	0.267	-0.249	-0.099	-0.602	679.688
2.885	-0.446	-1.355	0.064	-0.088	-1.059	-0.272	-2.012	-0.995	-1.427	-0.914	-0.285	0.107	2.001	-1.411	3.093	-0.004	0.044	1.800	2.167	2.557	2.654	1.649	1.107	0.289	-0.268	-0.063	-0.638	683.594
2.949	-0.359	-1.300	0.112	-0.032	-1.021	-0.283	-2.022	-1.123	-1.495	-1.142	-0.558	0.147	2.117	-1.336	3.327	0.024	0.057	1.914	2.306	2.662	2.751	1.692	1.154	0.221	-0.380	-0.057	-0.757	687.500
3.014	-0.262	-1.207	0.189	0.081	-0.921	-0.227	-1.980	-1.222	-1.523	-1.349	-0.881	0.234	2.255	-1.299	3.557	0.029	0.048	2.006	2.453	2.782	2.823	1.703	1.156	0.077	-0.568	-0.083	-0.937	691.406
3.073	-0.172	-1.090	0.284	0.228	-0.782	-0.119	-1.893	-1.288	-1.513	-1.518	-1.218	0.345	2.400	-1.295	3.762	0.019	0.024	2.074	2.597	2.905	2.862	1.687	1.109	-0.120	-0.807	-0.140	-1.154	695.312
3.123	-0.100	-0.965	0.385	0.384	-0.634	0.020	-1.775	-1.325	-1.475	-1.641	-1.533	0.458	2.534	-1.313	3.925	0.002	-0.010	2.113	2.725	3.015	2.865	1.651	1.019	-0.339	-1.064	-0.225	-1.375	699.219
3.158	-0.059	-0.846	0.480	0.526	-0.502	0.164	-1.643	-1.336	-1.417	-1.717	-1.794	0.553	2.644	-1.341	4.037	-0.017	-0.049	2.123	2.830	3.102	2.835	1.607	0.900	-0.548	-1.308	-0.330	-1.569	703.125
3.174	-0.052	-0.742	0.558	0.632	-0.409	0.292	-1.518	-1.327	-1.350	-1.746	-1.979	0.617	2.722	-1.366	4.096	-0.038	-0.088	2.106	2.902	3.153	2.781	1.566	0.774	-0.716	-1.504	-0.437	-1.708	707.031
3.168	-0.083	-0.662	0.610	0.687	-0.367	0.386	-1.414	-1.302	-1.282	-1.732	-2.073	0.647	2.764	-1.380	4.105	-0.067	-0.129	2.062	2.933	3.162	2.716	1.538	0.669	-0.818	-1.627	-0.526	-1.769	710.938
3.141	-0.146	-0.612	0.627	0.683	-0.382	0.439	-1.341	-1.267	-1.218	-1.682	-2.072	0.652	2.773	-1.378	4.074	-0.109	-0.174	1.993	2.917	3.128	2.650	1.529	0.608	-0.840	-1.658	-0.574	-1.742	714.844
3.095	-0.238	-0.595	0.603	0.620	-0.451	0.449	-1.306	-1.230	-1.160	-1.600	-1.981	0.646	2.758	-1.362	4.014	-0.169	-0.223	1.906	2.851	3.055	2.594	1.543	0.612	-0.779	-1.590	-0.562	-1.624	718.750
3.036	-0.347	-0.613	0.535	0.501	-0.565	0.422	-1.309	-1.200	-1.106	-1.493	-1.815	0.646	2.731	-1.337	3.942	-0.246	-0.281	1.805	2.739	2.957	2.554	1.576	0.692	-0.646	-1.427	-0.476	-1.424	722.656
2.970	-0.463	-0.666	0.425	0.340	-0.715	0.368	-1.346	-1.183	-1.054	-1.370	-1.595	0.668	2.707	-1.310	3.871	-0.336	-0.345	1.699	2.592	2.853	2.529	1.623	0.844	-0.461	-1.184	-0.316	-1.160	726.562
2.906	-0.575	-0.748	0.280	0.152	-0.890	0.298	-1.411	-1.186	-1.002	-1.240	-1.344	0.721	2.695	-1.289	3.814	-0.425	-0.412	1.595	2.429	2.762	2.515	1.674	1.056	-0.252	-0.886	-0.091	-0.855	730.469
2.846	-0.670	-0.853	0.113	-0.044	-1.078	0.225	-1.496	-1.210	-0.949	-1.113	-1.089	0.806	2.701	-1.278	3.776	-0.498	-0.477	1.502	2.269	2.700	2.502	1.720	1.302	-0.048	-0.562	0.176	-0.534	734.375
2.791	-0.741	-0.969	-0.057	-0.226	-1.267	0.160	-1.591	-1.251	-0.893	-0.999	-0.849	0.914	2.723	-1.280	3.759	-0.543	-0.535	1.424	2.134	2.676	2.479	1.748	1.552	0.124	-0.243	0.453	-0.220	738.281
2.738	-0.782	-1.084	-0.210	-0.374	-1.442	0.112	-1.686	-1.300	-0.834	-0.905	-0.641	1.030	2.755	-1.295	3.755	-0.550	-0.581	1.362	2.042	2.692	2.432	1.752	1.773	0.242	0.042	0.708	0.067	742.188
2.680	-0.793	-1.184	-0.327	-0.474	-1.588	0.089	-1.773	-1.342	-0.775	-0.835	-0.474	1.135	2.788	-1.317	3.754	-0.519	-0.612	1.316	2.000	2.738	2.354	1.727	1.938	0.297	0.271	0.909	0.312	746.094
2.612	-0.778	-1.259	-0.394	-0.518	-1.692	0.096	-1.842	-1.367	-0.717	-0.788	-0.349	1.215	2.810	-1.341	3.742	-0.459	-0.630	1.279	2.009	2.799	2.243	1.671	2.029	0.288	0.426	1.032	0.509	750.000
2.530	-0.743	-1.299	-0.403	-0.506	-1.743	0.132	-1.891	-1.365	-0.665	-0.761	-0.265	1.258	2.815	-1.359	3.708	-0.385	-0.635	1.251	2.060	2.858	2.107	1.589	2.040	0.221	0.504	1.067	0.656	753.906
2.436	-0.699	-1.301	-0.356	-0.448	-1.738	0.191	-1.919	-1.335	-0.625	-0.752	-0.216	1.262	2.802	-1.363	3.642	-0.312	-0.630	1.228	2.138	2.904	1.959	1.491	1.978	0.112	0.507	1.018	0.754	757.812
2.337	-0.655	-1.268	-0.263	-0.362	-1.679	0.264	-1.932	-1.282	-0.603	-0.759	-0.199	1.231	2.773	-1.345	3.546	-0.254	-0.616	1.212	2.228	2.930	1.819	1.390	1.861	-0.018	0.447	0.902	0.809	761.719
2.244	-0.617	-1.205	-0.139	-0.270	-1.579	0.335	-1.939	-1.220	-0.607	-0.779	-0.212	1.173	2.736	-1.302	3.425	-0.221	-0.592	1.208	2.315	2.940	1.709	1.299	1.715	-0.149	0.341	0.744	0.824	765.625
2.171	-0.590	-1.123	-0.003	-0.194	-1.451	0.388	-1.951	-1.164	-0.638	-0.815	-0.256	1.098	2.702	-1.231	3.293	-0.211	-0.557	1.222	2.389	2.942	1.647	1.233	1.568	-0.261	0.208	0.576	0.803	769.531
2.130	-0.575	-1.034	0.127	-0.152	-1.314	0.407	-1.976	-1.130	-0.699	-0.866	-0.335	1.012	2.679	-1.138	3.170	-0.218	-0.511	1.256	2.445	2.952	1.645	1.203	1.447	-0.338	0.066	0.425	0.750	773.438
2.132	-0.566	-0.951	0.240	-0.157	-1.184	0.383	-2.021	-1.130	-0.784	-0.933	-0.453	0.920	2.674	-1.030	3.072	-0.231	-0.457	1.313	2.482	2.985	1.706	1.212	1.368	-0.369	-0.071	0.312	0.668	777.344
2.177	-0.559	-0.881	0.328	-0.211	-1.071	0.312	-2.091	-1.168	-0.887	-1.014	-0.610	0.822	2.690	-0.918	3.012	-0.236	-0.396	1.389	2.503	3.054	1.826	1.261	1.342	-0.353	-0.192	0.251	0.561	781.250
2.263	-0.548	-0.831	0.388	-0.308	-0.983	0.198	-2.183	-1.242	-0.999	-1.106	-0.804	0.718	2.727	-0.811	2.994	-0.225	-0.332	1.481	2.513	3.167	1.991	1.344	1.366	-0.290	-0.295	0.241	0.433	785.156
2.382	-0.529	-0.800	0.427	-0.440	-0.919	0.048	-2.294	-1.346	-1.114	-1.205	-1.031	0.606	2.781	-0.717	3.015	-0.192	-0.269	1.581	2.517	3.322	2.187	1.450	1.433	-0.192	-0.380	0.276	0.289	789.062
2.521	-0.500	-0.784	0.449	-0.593	-0.875	-0.124	-2.418	-1.471	-1.228	-1.310	-1.281	0.487	2.846	-0.636	3.064	-0.139	-0.207	1.686	2.519	3.511	2.398	1.571	1.528	-0.069	-0.452	0.341	0.134	792.969
2.671	-0.465	-0.777	0.465	-0.754	-0.842	-0.306	-2.549	-1.604	-1.338	-1.417	-1.543	0.363	2.917	-0.565	3.130	-0.071	-0.147	1.792	2.524	3.722	2.612	1.696	1.636	0.062	-0.518	0.421	-0.025	796.875
