FP1	F3	F7	FC3	C3	C5	P3	P7	PO7	PO3	O1	Oz	Pz	CPz	FP2	Fz	F4	F8	FC4	FCz	Cz	C4	C6	P4	P8	PO8	PO4	O2	time
-1.280	-0.197	-1.835	-0.281	0.054	-0.270	-0.168	-0.720	-0.613	-0.069	-0.321	-0.042	0.854	1.184	-1.213	1.419	1.849	-2.728	2.233	1.415	1.332	1.729	0.819	0.715	0.176	0.278	0.897	0.814	-199.219
-1.255	-0.305	-1.422	-0.345	-0.117	-0.296	-0.132	-0.680	-0.561	-0.019	-0.210	0.071	0.687	0.980	-0.843	1.109	1.083	-1.686	1.618	1.135	1.099	1.391	0.688	0.762	0.276	0.449	0.965	0.897	-195.312
-1.209	-0.377	-1.055	-0.392	-0.272	-0.314	-0.105	-0.650	-0.531	0.014	-0.115	0.172	0.524	0.785	-0.537	0.831	0.417	-0.736	1.059	0.880	0.881	1.073	0.571	0.792	0.362	0.593	1.017	0.969	-191.406
-1.121	-0.389	-0.765	-0.405	-0.390	-0.314	-0.091	-0.632	-0.535	0.020	-0.050	0.242	0.374	0.609	-0.341	0.614	-0.068	0.033	0.606	0.670	0.694	0.796	0.476	0.793	0.421	0.681	1.036	1.014	-187.500
-0.973	-0.334	-0.564	-0.377	-0.460	-0.293	-0.093	-0.627	-0.581	-0.008	-0.025	0.270	0.243	0.462	-0.271	0.471	-0.331	0.571	0.287	0.520	0.551	0.572	0.407	0.755	0.441	0.695	1.007	1.014	-183.594
-0.747	-0.224	-0.442	-0.311	-0.474	-0.250	-0.108	-0.633	-0.663	-0.067	-0.043	0.247	0.141	0.349	-0.306	0.408	-0.375	0.869	0.107	0.433	0.457	0.405	0.359	0.676	0.415	0.623	0.924	0.955	-179.688
-0.444	-0.083	-0.374	-0.215	-0.431	-0.190	-0.130	-0.642	-0.767	-0.149	-0.100	0.170	0.073	0.273	-0.394	0.413	-0.247	0.955	0.049	0.402	0.412	0.292	0.325	0.559	0.342	0.464	0.785	0.828	-175.781
-0.081	0.057	-0.326	-0.103	-0.338	-0.118	-0.150	-0.646	-0.872	-0.240	-0.187	0.041	0.044	0.235	-0.469	0.469	-0.018	0.889	0.079	0.414	0.412	0.222	0.296	0.414	0.227	0.232	0.595	0.625	-171.875
0.299	0.169	-0.267	0.013	-0.204	-0.042	-0.160	-0.633	-0.957	-0.325	-0.290	-0.132	0.053	0.232	-0.472	0.550	0.231	0.737	0.156	0.453	0.446	0.185	0.263	0.255	0.080	-0.054	0.363	0.352	-167.969
0.640	0.238	-0.175	0.123	-0.041	0.037	-0.152	-0.595	-1.001	-0.389	-0.392	-0.337	0.093	0.258	-0.367	0.635	0.432	0.563	0.240	0.503	0.502	0.167	0.224	0.094	-0.082	-0.365	0.105	0.021	-164.062
0.886	0.266	-0.045	0.225	0.137	0.119	-0.121	-0.526	-0.992	-0.420	-0.480	-0.559	0.154	0.305	-0.158	0.704	0.547	0.410	0.300	0.551	0.569	0.159	0.178	-0.056	-0.243	-0.673	-0.167	-0.343	-160.156
0.996	0.268	0.114	0.319	0.317	0.207	-0.067	-0.425	-0.926	-0.413	-0.541	-0.777	0.223	0.363	0.112	0.747	0.570	0.298	0.322	0.587	0.631	0.152	0.129	-0.186	-0.387	-0.951	-0.437	-0.709	-156.250
0.956	0.268	0.280	0.407	0.487	0.307	0.008	-0.298	-0.807	-0.367	-0.569	-0.973	0.285	0.420	0.378	0.759	0.524	0.226	0.305	0.604	0.677	0.139	0.082	-0.292	-0.502	-1.178	-0.691	-1.041	-152.344
0.783	0.287	0.426	0.491	0.637	0.419	0.097	-0.157	-0.645	-0.286	-0.561	-1.127	0.329	0.466	0.570	0.742	0.449	0.179	0.258	0.600	0.696	0.118	0.043	-0.373	-0.580	-1.339	-0.914	-1.305	-148.438
0.521	0.339	0.526	0.571	0.755	0.541	0.193	-0.014	-0.453	-0.177	-0.519	-1.226	0.346	0.490	0.636	0.702	0.384	0.142	0.195	0.573	0.682	0.085	0.014	-0.432	-0.621	-1.427	-1.093	-1.477	-144.531
0.231	0.424	0.559	0.640	0.834	0.664	0.288	0.116	-0.247	-0.050	-0.448	-1.260	0.331	0.489	0.564	0.646	0.351	0.098	0.131	0.525	0.632	0.040	-0.004	-0.470	-0.626	-1.444	-1.217	-1.547	-140.625
-0.029	0.527	0.522	0.689	0.870	0.773	0.374	0.220	-0.041	0.085	-0.358	-1.229	0.289	0.462	0.378	0.580	0.354	0.044	0.076	0.460	0.551	-0.015	-0.013	-0.490	-0.601	-1.394	-1.275	-1.518	-136.719
-0.212	0.619	0.422	0.706	0.859	0.851	0.448	0.289	0.150	0.215	-0.258	-1.139	0.227	0.416	0.134	0.510	0.376	-0.021	0.034	0.384	0.448	-0.075	-0.014	-0.490	-0.554	-1.291	-1.260	-1.407	-132.812
-0.298	0.672	0.283	0.681	0.802	0.885	0.505	0.320	0.317	0.333	-0.159	-1.004	0.159	0.361	-0.100	0.438	0.389	-0.086	0.008	0.304	0.337	-0.132	-0.010	-0.467	-0.493	-1.146	-1.173	-1.236	-128.906
-0.290	0.657	0.133	0.607	0.703	0.864	0.545	0.315	0.451	0.431	-0.070	-0.841	0.100	0.309	-0.267	0.365	0.366	-0.140	-0.007	0.228	0.231	-0.176	-0.004	-0.420	-0.423	-0.974	-1.016	-1.030	-125.000
-0.214	0.563	0.002	0.485	0.569	0.789	0.569	0.279	0.549	0.506	0.001	-0.669	0.063	0.271	-0.337	0.291	0.288	-0.173	-0.014	0.161	0.142	-0.197	0.002	-0.344	-0.348	-0.786	-0.802	-0.812	-121.094
-0.106	0.390	-0.087	0.321	0.410	0.666	0.579	0.226	0.614	0.558	0.055	-0.504	0.058	0.252	-0.314	0.213	0.158	-0.180	-0.017	0.106	0.077	-0.189	0.008	-0.241	-0.271	-0.593	-0.546	-0.598	-117.188
-0.008	0.160	-0.128	0.130	0.240	0.508	0.581	0.171	0.652	0.593	0.094	-0.358	0.086	0.252	-0.229	0.127	-0.008	-0.166	-0.019	0.061	0.034	-0.151	0.013	-0.115	-0.192	-0.403	-0.268	-0.399	-113.281
0.044	-0.097	-0.127	-0.067	0.072	0.333	0.578	0.131	0.677	0.619	0.128	-0.235	0.145	0.262	-0.124	0.032	-0.180	-0.142	-0.022	0.021	0.008	-0.090	0.014	0.027	-0.113	-0.220	0.009	-0.219	-109.375
0.027	-0.344	-0.108	-0.248	-0.078	0.159	0.575	0.121	0.702	0.642	0.166	-0.132	0.223	0.272	-0.043	-0.074	-0.327	-0.124	-0.028	-0.023	-0.015	-0.019	0.010	0.172	-0.034	-0.047	0.265	-0.059	-105.469
-0.063	-0.547	-0.096	-0.394	-0.198	0.001	0.571	0.152	0.737	0.667	0.219	-0.043	0.302	0.266	-0.017	-0.188	-0.421	-0.128	-0.039	-0.077	-0.046	0.047	-0.005	0.307	0.045	0.117	0.482	0.083	-101.562
-0.211	-0.679	-0.116	-0.491	-0.282	-0.126	0.563	0.225	0.786	0.694	0.289	0.043	0.366	0.230	-0.058	-0.304	-0.444	-0.161	-0.054	-0.144	-0.098	0.092	-0.030	0.418	0.121	0.272	0.646	0.210	-97.656
-0.383	-0.727	-0.180	-0.532	-0.329	-0.219	0.544	0.330	0.841	0.714	0.372	0.131	0.394	0.155	-0.162	-0.412	-0.393	-0.222	-0.073	-0.225	-0.177	0.104	-0.066	0.494	0.191	0.419	0.749	0.323	-93.750
-0.540	-0.691	-0.282	-0.520	-0.344	-0.274	0.505	0.451	0.890	0.716	0.457	0.224	0.374	0.038	-0.310	-0.502	-0.279	-0.303	-0.091	-0.311	-0.284	0.079	-0.109	0.527	0.255	0.558	0.793	0.422	-89.844
-0.644	-0.583	-0.398	-0.463	-0.335	-0.298	0.438	0.566	0.915	0.685	0.530	0.320	0.298	-0.117	-0.477	-0.566	-0.125	-0.390	-0.107	-0.396	-0.412	0.022	-0.151	0.516	0.309	0.688	0.781	0.506	-85.938
-0.677	-0.425	-0.493	-0.375	-0.311	-0.297	0.340	0.653	0.898	0.613	0.575	0.415	0.171	-0.297	-0.631	-0.598	0.040	-0.467	-0.116	-0.470	-0.552	-0.057	-0.186	0.465	0.354	0.808	0.727	0.574	-82.031
-0.638	-0.243	-0.536	-0.271	-0.277	-0.279	0.214	0.697	0.828	0.495	0.583	0.503	0.006	-0.482	-0.744	-0.600	0.184	-0.524	-0.121	-0.526	-0.686	-0.146	-0.208	0.382	0.389	0.913	0.645	0.623	-78.125
-0.548	-0.060	-0.502	-0.166	-0.240	-0.251	0.071	0.689	0.705	0.338	0.552	0.580	-0.176	-0.651	-0.797	-0.578	0.282	-0.558	-0.123	-0.562	-0.800	-0.232	-0.217	0.281	0.416	1.000	0.552	0.655	-74.219
-0.438	0.105	-0.388	-0.069	-0.202	-0.218	-0.075	0.632	0.537	0.154	0.487	0.641	-0.350	-0.782	-0.782	-0.542	0.319	-0.573	-0.127	-0.576	-0.877	-0.305	-0.216	0.175	0.436	1.065	0.461	0.671	-70.312
-0.334	0.244	-0.210	0.012	-0.161	-0.182	-0.209	0.532	0.338	-0.037	0.397	0.687	-0.490	-0.857	-0.705	-0.501	0.296	-0.580	-0.138	-0.568	-0.905	-0.358	-0.211	0.075	0.447	1.101	0.382	0.672	-66.406
-0.251	0.352	0.000	0.078	-0.120	-0.145	-0.316	0.403	0.127	-0.217	0.295	0.715	-0.579	-0.865	-0.585	-0.462	0.224	-0.590	-0.158	-0.540	-0.876	-0.390	-0.209	-0.013	0.447	1.104	0.320	0.657	-62.500
-0.188	0.432	0.206	0.130	-0.076	-0.109	-0.390	0.261	-0.077	-0.371	0.192	0.727	-0.606	-0.806	-0.442	-0.428	0.124	-0.616	-0.187	-0.494	-0.791	-0.402	-0.218	-0.084	0.433	1.066	0.270	0.626	-58.594
-0.132	0.489	0.374	0.171	-0.032	-0.079	-0.431	0.118	-0.258	-0.491	0.098	0.722	-0.573	-0.691	-0.298	-0.401	0.019	-0.657	-0.221	-0.430	-0.656	-0.396	-0.241	-0.141	0.402	0.986	0.225	0.574	-54.688
-0.068	0.526	0.484	0.205	0.010	-0.059	-0.446	-0.013	-0.404	-0.574	0.016	0.700	-0.491	-0.537	-0.165	-0.376	-0.072	-0.703	-0.256	-0.351	-0.486	-0.376	-0.275	-0.188	0.352	0.860	0.173	0.497	-50.781
0.016	0.543	0.531	0.232	0.046	-0.056	-0.444	-0.125	-0.509	-0.624	-0.051	0.662	-0.381	-0.369	-0.043	-0.351	-0.136	-0.733	-0.287	-0.263	-0.302	-0.346	-0.316	-0.230	0.283	0.692	0.103	0.393	-46.875
0.120	0.538	0.527	0.251	0.072	-0.072	-0.437	-0.209	-0.567	-0.648	-0.101	0.609	-0.268	-0.214	0.076	-0.326	-0.174	-0.723	-0.310	-0.174	-0.128	-0.311	-0.355	-0.273	0.199	0.492	0.006	0.264	-42.969
0.239	0.505	0.490	0.257	0.082	-0.105	-0.433	-0.260	-0.576	-0.650	-0.136	0.545	-0.176	-0.097	0.204	-0.304	-0.194	-0.648	-0.326	-0.100	0.009	-0.275	-0.380	-0.321	0.104	0.273	-0.118	0.118	-39.062
0.361	0.438	0.444	0.246	0.073	-0.151	-0.437	-0.276	-0.533	-0.633	-0.153	0.476	-0.127	-0.035	0.350	-0.293	-0.210	-0.494	-0.338	-0.057	0.088	-0.245	-0.383	-0.371	0.005	0.055	-0.261	-0.032	-35.156
0.476	0.329	0.404	0.211	0.042	-0.206	-0.447	-0.253	-0.439	-0.599	-0.152	0.409	-0.130	-0.040	0.514	-0.303	-0.235	-0.259	-0.351	-0.064	0.095	-0.223	-0.357	-0.420	-0.089	-0.143	-0.405	-0.166	-31.250
0.576	0.178	0.380	0.146	-0.012	-0.264	-0.461	-0.193	-0.297	-0.546	-0.132	0.350	-0.186	-0.110	0.686	-0.347	-0.278	0.044	-0.368	-0.132	0.024	-0.214	-0.303	-0.462	-0.171	-0.299	-0.531	-0.267	-27.344
0.659	-0.012	0.367	0.049	-0.088	-0.324	-0.472	-0.101	-0.113	-0.471	-0.092	0.306	-0.287	-0.238	0.850	-0.431	-0.339	0.388	-0.391	-0.267	-0.119	-0.219	-0.225	-0.488	-0.233	-0.397	-0.616	-0.316	-23.438
0.724	-0.230	0.355	-0.077	-0.186	-0.388	-0.476	0.015	0.101	-0.374	-0.033	0.277	-0.417	-0.408	0.985	-0.556	-0.413	0.735	-0.420	-0.464	-0.322	-0.237	-0.134	-0.493	-0.272	-0.429	-0.643	-0.305	-19.531
0.772	-0.458	0.330	-0.229	-0.300	-0.457	-0.469	0.143	0.335	-0.257	0.044	0.267	-0.555	-0.603	1.070	-0.716	-0.485	1.042	-0.450	-0.709	-0.566	-0.268	-0.042	-0.474	-0.286	-0.393	-0.605	-0.233	-15.625
0.801	-0.673	0.279	-0.396	-0.428	-0.533	-0.448	0.273	0.574	-0.123	0.138	0.276	-0.682	-0.805	1.092	-0.899	-0.543	1.271	-0.475	-0.982	-0.830	-0.309	0.038	-0.436	-0.277	-0.296	-0.502	-0.110	-11.719
0.804	-0.853	0.197	-0.568	-0.560	-0.614	-0.414	0.395	0.808	0.024	0.249	0.304	-0.783	-0.998	1.050	-1.088	-0.573	1.392	-0.491	-1.257	-1.095	-0.357	0.097	-0.386	-0.250	-0.153	-0.348	0.045	-7.812
0.774	-0.978	0.087	-0.729	-0.689	-0.695	-0.368	0.502	1.028	0.176	0.377	0.352	-0.848	-1.172	0.946	-1.268	-0.569	1.397	-0.496	-1.512	-1.345	-0.411	0.127	-0.337	-0.212	0.020	-0.164	0.210	-3.906
0.702	-1.035	-0.038	-0.864	-0.802	-0.767	-0.315	0.593	1.227	0.324	0.523	0.424	-0.879	-1.322	0.794	-1.424	-0.533	1.292	-0.491	-1.729	-1.571	-0.472	0.126	-0.302	-0.169	0.204	0.028	0.364	0.000
0.584	-1.022	-0.163	-0.959	-0.891	-0.819	-0.261	0.670	1.404	0.458	0.685	0.520	-0.885	-1.451	0.608	-1.548	-0.473	1.105	-0.483	-1.897	-1.766	-0.541	0.094	-0.292	-0.125	0.386	0.203	0.495	3.906
0.424	-0.945	-0.266	-1.004	-0.946	-0.841	-0.216	0.737	1.555	0.567	0.858	0.641	-0.881	-1.566	0.402	-1.639	-0.404	0.869	-0.482	-2.015	-1.932	-0.624	0.033	-0.314	-0.081	0.559	0.344	0.600	7.812
0.234	-0.821	-0.330	-0.995	-0.964	-0.827	-0.188	0.800	1.679	0.639	1.035	0.785	-0.889	-1.677	0.189	-1.702	-0.342	0.616	-0.500	-2.093	-2.074	-0.722	-0.054	-0.368	-0.033	0.722	0.444	0.688	11.719
0.038	-0.672	-0.337	-0.937	-0.949	-0.777	-0.188	0.865	1.772	0.665	1.202	0.947	-0.927	-1.795	-0.016	-1.745	-0.304	0.373	-0.546	-2.145	-2.198	-0.838	-0.160	-0.448	0.023	0.876	0.504	0.773	15.625
-0.133	-0.519	-0.278	-0.840	-0.908	-0.699	-0.222	0.934	1.831	0.637	1.343	1.117	-1.012	-1.930	-0.195	-1.781	-0.303	0.157	-0.626	-2.189	-2.315	-0.972	-0.282	-0.544	0.092	1.028	0.531	0.873	19.531
-0.248	-0.385	-0.149	-0.720	-0.856	-0.606	-0.294	1.007	1.852	0.553	1.445	1.285	-1.153	-2.087	-0.329	-1.821	-0.350	-0.024	-0.741	-2.242	-2.434	-1.117	-0.411	-0.646	0.179	1.178	0.536	0.997	23.438
-0.277	-0.287	0.045	-0.598	-0.806	-0.512	-0.405	1.080	1.834	0.417	1.496	1.437	-1.349	-2.270	-0.395	-1.872	-0.444	-0.163	-0.885	-2.317	-2.563	-1.267	-0.538	-0.743	0.282	1.323	0.531	1.144	27.344
-0.204	-0.234	0.292	-0.495	-0.771	-0.433	-0.546	1.147	1.776	0.239	1.491	1.560	-1.589	-2.474	-0.378	-1.934	-0.579	-0.256	-1.045	-2.419	-2.706	-1.411	-0.654	-0.830	0.395	1.455	0.520	1.300	31.250
-0.029	-0.227	0.567	-0.428	-0.762	-0.381	-0.705	1.201	1.685	0.037	1.433	1.644	-1.853	-2.690	-0.272	-2.004	-0.740	-0.297	-1.207	-2.544	-2.860	-1.537	-0.747	-0.902	0.511	1.562	0.507	1.443	35.156
0.228	-0.261	0.839	-0.408	-0.783	-0.363	-0.865	1.236	1.568	-0.165	1.332	1.681	-2.116	-2.901	-0.087	-2.073	-0.908	-0.279	-1.354	-2.681	-3.018	-1.632	-0.806	-0.960	0.618	1.629	0.491	1.550	39.062
0.529	-0.321	1.076	-0.436	-0.832	-0.380	-1.004	1.244	1.437	-0.341	1.207	1.674	-2.348	-3.088	0.146	-2.128	-1.061	-0.199	-1.470	-2.813	-3.167	-1.690	-0.826	-1.003	0.708	1.648	0.474	1.604	42.969
0.824	-0.390	1.246	-0.504	-0.901	-0.430	-1.103	1.221	1.307	-0.468	1.077	1.629	-2.522	-3.233	0.386	-2.160	-1.185	-0.060	-1.550	-2.921	-3.289	-1.707	-0.805	-1.029	0.774	1.617	0.459	1.601	46.875
1.062	-0.455	1.324	-0.598	-0.979	-0.509	-1.146	1.167	1.190	-0.525	0.962	1.559	-2.616	-3.317	0.584	-2.164	-1.269	0.127	-1.589	-2.988	-3.368	-1.686	-0.750	-1.033	0.815	1.549	0.456	1.551	50.781
1.197	-0.508	1.295	-0.701	-1.053	-0.609	-1.122	1.080	1.099	-0.499	0.880	1.477	-2.617	-3.329	0.702	-2.141	-1.314	0.344	-1.595	-3.006	-3.391	-1.635	-0.674	-1.010	0.836	1.463	0.481	1.480	54.688
1.201	-0.555	1.159	-0.802	-1.115	-0.726	-1.030	0.965	1.044	-0.389	0.841	1.401	-2.523	-3.263	0.721	-2.100	-1.329	0.569	-1.579	-2.973	-3.352	-1.565	-0.592	-0.949	0.850	1.389	0.555	1.420	58.594
1.063	-0.610	0.925	-0.896	-1.161	-0.853	-0.880	0.828	1.028	-0.201	0.851	1.346	-2.344	-3.124	0.645	-2.057	-1.329	0.774	-1.554	-2.901	-3.254	-1.488	-0.522	-0.842	0.871	1.361	0.696	1.404	62.500
0.797	-0.695	0.617	-0.983	-1.191	-0.988	-0.686	0.680	1.055	0.049	0.910	1.323	-2.099	-2.925	0.500	-2.030	-1.332	0.935	-1.535	-2.811	-3.110	-1.413	-0.476	-0.682	0.916	1.406	0.917	1.460	66.406
0.432	-0.830	0.266	-1.074	-1.213	-1.127	-0.471	0.534	1.125	0.341	1.016	1.343	-1.815	-2.688	0.315	-2.038	-1.352	1.028	-1.529	-2.727	-2.941	-1.348	-0.456	-0.471	0.995	1.545	1.220	1.600	70.312
0.007	-1.029	-0.096	-1.177	-1.237	-1.265	-0.255	0.407	1.237	0.655	1.164	1.413	-1.523	-2.437	0.119	-2.095	-1.398	1.031	-1.542	-2.673	-2.774	-1.294	-0.457	-0.217	1.112	1.784	1.593	1.827	74.219
-0.435	-1.289	-0.441	-1.301	-1.273	-1.400	-0.055	0.318	1.393	0.974	1.351	1.537	-1.250	-2.204	-0.078	-2.207	-1.467	0.930	-1.571	-2.670	-2.637	-1.249	-0.469	0.065	1.264	2.112	2.013	2.129	78.125
-0.859	-1.596	-0.746	-1.450	-1.330	-1.527	0.118	0.285	1.595	1.287	1.575	1.714	-1.020	-2.016	-0.275	-2.374	-1.550	0.720	-1.608	-2.729	-2.554	-1.213	-0.480	0.352	1.434	2.508	2.446	2.484	82.031
-1.235	-1.923	-0.999	-1.619	-1.410	-1.641	0.257	0.319	1.843	1.587	1.836	1.941	-0.848	-1.897	-0.484	-2.585	-1.634	0.412	-1.646	-2.851	-2.543	-1.182	-0.483	0.618	1.606	2.938	2.853	2.865	85.938
-1.544	-2.241	-1.195	-1.803	-1.511	-1.738	0.367	0.429	2.139	1.877	2.133	2.210	-0.741	-1.861	-0.713	-2.828	-1.709	0.034	-1.682	-3.031	-2.614	-1.161	-0.479	0.840	1.755	3.365	3.200	3.243	89.844
-1.775	-2.527	-1.338	-1.991	-1.627	-1.814	0.453	0.616	2.482	2.161	2.465	2.513	-0.697	-1.915	-0.963	-3.086	-1.771	-0.367	-1.722	-3.255	-2.764	-1.158	-0.477	0.998	1.861	3.753	3.457	3.592	93.750
-1.925	-2.764	-1.434	-2.174	-1.749	-1.866	0.528	0.875	2.871	2.446	2.826	2.837	-0.710	-2.052	-1.223	-3.344	-1.828	-0.734	-1.778	-3.511	-2.987	-1.184	-0.492	1.079	1.910	4.071	3.605	3.889	97.656
-2.004	-2.941	-1.491	-2.342	-1.866	-1.893	0.602	1.198	3.300	2.733	3.211	3.171	-0.766	-2.259	-1.469	-3.590	-1.895	-1.010	-1.868	-3.785	-3.267	-1.254	-0.541	1.079	1.893	4.298	3.641	4.116	101.562
-2.028	-3.055	-1.521	-2.486	-1.972	-1.893	0.682	1.574	3.758	3.020	3.605	3.500	-0.852	-2.514	-1.672	-3.813	-1.985	-1.154	-2.006	-4.065	-3.586	-1.378	-0.637	1.002	1.814	4.422	3.568	4.265	105.469
-2.015	-3.106	-1.530	-2.598	-2.059	-1.871	0.772	1.985	4.228	3.298	3.991	3.811	-0.953	-2.795	-1.808	-4.004	-2.105	-1.151	-2.197	-4.339	-3.922	-1.557	-0.783	0.858	1.684	4.441	3.402	4.328	109.375
-1.979	-3.099	-1.522	-2.674	-2.127	-1.833	0.869	2.413	4.687	3.548	4.347	4.088	-1.054	-3.073	-1.862	-4.156	-2.246	-1.021	-2.429	-4.598	-4.252	-1.784	-0.971	0.662	1.522	4.360	3.161	4.305	113.281
-1.920	-3.044	-1.496	-2.713	-2.176	-1.787	0.964	2.832	5.103	3.747	4.646	4.312	-1.144	-3.326	-1.829	-4.263	-2.386	-0.804	-2.677	-4.829	-4.553	-2.035	-1.182	0.431	1.346	4.188	2.867	4.192	117.188
-1.822	-2.956	-1.442	-2.715	-2.210	-1.739	1.046	3.213	5.439	3.868	4.861	4.467	-1.215	-3.532	-1.715	-4.317	-2.492	-0.555	-2.904	-5.018	-4.800	-2.282	-1.392	0.180	1.169	3.928	2.536	3.988	121.094
-1.661	-2.849	-1.348	-2.684	-2.229	-1.694	1.099	3.527	5.656	3.888	4.965	4.537	-1.257	-3.673	-1.531	-4.310	-2.528	-0.323	-3.071	-5.146	-4.969	-2.491	-1.572	-0.078	0.998	3.581	2.178	3.685	125.000
-1.412	-2.737	-1.200	-2.622	-2.232	-1.651	1.111	3.740	5.715	3.788	4.941	4.511	-1.265	-3.734	-1.286	-4.233	-2.463	-0.138	-3.143	-5.192	-5.038	-2.631	-1.698	-0.334	0.826	3.138	1.797	3.278	128.906
-1.062	-2.621	-0.989	-2.526	-2.211	-1.605	1.074	3.826	5.587	3.563	4.779	4.382	-1.238	-3.708	-0.987	-4.076	-2.281	-0.002	-3.099	-5.136	-4.990	-2.681	-1.756	-0.584	0.637	2.585	1.391	2.762	132.812
-0.617	-2.494	-0.713	-2.392	-2.158	-1.546	0.981	3.763	5.250	3.215	4.479	4.154	-1.173	-3.591	-0.637	-3.833	-1.979	0.111	-2.931	-4.960	-4.816	-2.632	-1.740	-0.827	0.408	1.910	0.956	2.136	136.719
-0.108	-2.335	-0.383	-2.210	-2.059	-1.467	0.835	3.536	4.699	2.762	4.055	3.835	-1.071	-3.384	-0.231	-3.498	-1.573	0.243	-2.650	-4.656	-4.514	-2.486	-1.657	-1.063	0.113	1.107	0.488	1.412	140.625
0.423	-2.123	-0.016	-1.973	-1.907	-1.362	0.641	3.139	3.941	2.229	3.530	3.445	-0.933	-3.094	0.234	-3.073	-1.094	0.445	-2.279	-4.223	-4.089	-2.259	-1.519	-1.290	-0.267	0.180	-0.011	0.613	144.531
0.923	-1.837	0.363	-1.677	-1.700	-1.233	0.406	2.578	3.000	1.646	2.935	3.004	-0.763	-2.729	0.752	-2.567	-0.575	0.757	-1.846	-3.672	-3.555	-1.968	-1.348	-1.502	-0.747	-0.850	-0.527	-0.222	148.438
1.350	-1.467	0.728	-1.325	-1.443	-1.092	0.141	1.866	1.915	1.047	2.302	2.539	-0.564	-2.302	1.302	-1.991	-0.049	1.192	-1.377	-3.023	-2.932	-1.633	-1.159	-1.690	-1.326	-1.946	-1.041	-1.047	152.344
1.673	-1.018	1.057	-0.930	-1.152	-0.956	-0.147	1.026	0.733	0.462	1.667	2.073	-0.343	-1.827	1.841	-1.364	0.465	1.727	-0.889	-2.301	-2.245	-1.270	-0.966	-1.841	-1.989	-3.059	-1.524	-1.810	156.250
1.880	-0.504	1.331	-0.510	-0.849	-0.846	-0.448	0.095	-0.489	-0.084	1.061	1.627	-0.109	-1.319	2.313	-0.705	0.963	2.302	-0.390	-1.535	-1.521	-0.888	-0.773	-1.945	-2.712	-4.132	-1.945	-2.463	160.156
1.976	0.045	1.536	-0.092	-0.561	-0.784	-0.753	-0.884	-1.688	-0.572	0.512	1.220	0.126	-0.797	2.654	-0.039	1.456	2.833	0.121	-0.754	-0.787	-0.492	-0.578	-1.992	-3.455	-5.109	-2.275	-2.970	164.062
1.970	0.596	1.664	0.300	-0.310	-0.786	-1.053	-1.864	-2.804	-0.989	0.043	0.863	0.350	-0.282	2.817	0.610	1.958	3.236	0.647	0.010	-0.074	-0.083	-0.375	-1.980	-4.173	-5.936	-2.492	-3.309	167.969
1.876	1.111	1.708	0.640	-0.115	-0.860	-1.339	-2.793	-3.783	-1.327	-0.329	0.565	0.549	0.200	2.781	1.217	2.481	3.447	1.183	0.728	0.589	0.330	-0.160	-1.911	-4.819	-6.574	-2.582	-3.478	171.875
1.710	1.550	1.667	0.905	0.014	-1.004	-1.600	-3.626	-4.580	-1.580	-0.594	0.336	0.708	0.626	2.564	1.754	3.017	3.441	1.713	1.367	1.171	0.736	0.063	-1.795	-5.344	-6.993	-2.539	-3.487	175.781
1.489	1.874	1.547	1.078	0.076	-1.205	-1.826	-4.324	-5.162	-1.743	-0.745	0.184	0.817	0.970	2.224	2.196	3.535	3.240	2.207	1.898	1.646	1.114	0.283	-1.642	-5.710	-7.182	-2.369	-3.355	179.688
1.235	2.047	1.357	1.146	0.074	-1.443	-2.004	-4.858	-5.512	-1.812	-0.778	0.120	0.869	1.213	1.846	2.517	3.984	2.905	2.621	2.291	1.989	1.435	0.474	-1.468	-5.891	-7.142	-2.085	-3.104	183.594
0.975	2.042	1.111	1.102	0.016	-1.697	-2.124	-5.211	-5.626	-1.780	-0.691	0.155	0.865	1.342	1.520	2.695	4.294	2.523	2.908	2.524	2.183	1.671	0.611	-1.284	-5.880	-6.888	-1.703	-2.752	187.500
0.734	1.848	0.823	0.949	-0.087	-1.944	-2.175	-5.379	-5.514	-1.641	-0.486	0.302	0.813	1.351	1.316	2.715	4.404	2.176	3.028	2.583	2.221	1.795	0.668	-1.097	-5.688	-6.440	-1.240	-2.311	191.406
0.531	1.473	0.501	0.697	-0.227	-2.172	-2.150	-5.368	-5.193	-1.391	-0.165	0.573	0.726	1.249	1.261	2.569	4.268	1.919	2.960	2.464	2.106	1.793	0.628	-0.909	-5.341	-5.825	-0.710	-1.783	195.312
0.371	0.946	0.152	0.362	-0.395	-2.373	-2.045	-5.193	-4.688	-1.032	0.267	0.971	0.624	1.048	1.334	2.261	3.876	1.764	2.704	2.175	1.849	1.666	0.493	-0.714	-4.875	-5.071	-0.124	-1.166	199.219
0.247	0.314	-0.221	-0.032	-0.585	-2.549	-1.863	-4.874	-4.029	-0.571	0.801	1.496	0.528	0.769	1.471	1.803	3.253	1.677	2.285	1.735	1.469	1.426	0.275	-0.506	-4.332	-4.202	0.512	-0.456	203.125
0.139	-0.368	-0.613	-0.463	-0.793	-2.704	-1.612	-4.436	-3.247	-0.024	1.423	2.134	0.454	0.434	1.582	1.219	2.459	1.594	1.744	1.170	0.987	1.098	-0.000	-0.276	-3.748	-3.245	1.190	0.346	207.031
0.023	-1.048	-1.016	-0.909	-1.017	-2.847	-1.308	-3.901	-2.376	0.587	2.110	2.864	0.412	0.065	1.580	0.536	1.570	1.444	1.131	0.510	0.428	0.712	-0.302	-0.019	-3.151	-2.219	1.904	1.229	210.938
-0.125	-1.683	-1.417	-1.354	-1.253	-2.983	-0.969	-3.295	-1.449	1.235	2.839	3.653	0.405	-0.317	1.408	-0.215	0.662	1.178	0.489	-0.214	-0.186	0.295	-0.602	0.262	-2.559	-1.149	2.644	2.171	214.844
-0.324	-2.247	-1.803	-1.786	-1.499	-3.116	-0.614	-2.641	-0.499	1.888	3.578	4.462	0.421	-0.697	1.053	-1.003	-0.205	0.782	-0.149	-0.975	-0.831	-0.127	-0.877	0.560	-1.975	-0.055	3.393	3.137	218.750
-0.580	-2.731	-2.158	-2.202	-1.751	-3.249	-0.264	-1.962	0.442	2.518	4.297	5.248	0.445	-1.065	0.554	-1.802	-0.996	0.285	-0.767	-1.750	-1.488	-0.539	-1.117	0.862	-1.398	1.040	4.129	4.088	222.656
-0.886	-3.140	-2.473	-2.599	-2.007	-3.379	0.062	-1.277	1.344	3.100	4.965	5.972	0.454	-1.415	-0.019	-2.586	-1.700	-0.254	-1.359	-2.519	-2.139	-0.931	-1.317	1.150	-0.821	2.111	4.827	4.985	226.562
-1.223	-3.490	-2.740	-2.979	-2.261	-3.504	0.350	-0.606	2.182	3.613	5.559	6.599	0.424	-1.745	-0.578	-3.337	-2.321	-0.761	-1.927	-3.266	-2.765	-1.300	-1.482	1.406	-0.239	3.135	5.461	5.792	230.469
-1.564	-3.800	-2.959	-3.344	-2.510	-3.620	0.588	0.036	2.938	4.046	6.060	7.104	0.336	-2.058	-1.040	-4.039	-2.875	-1.171	-2.474	-3.978	-3.353	-1.645	-1.621	1.615	0.349	4.093	6.010	6.489	234.375
-1.872	-4.093	-3.132	-3.695	-2.751	-3.723	0.771	0.637	3.603	4.395	6.461	7.474	0.177	-2.358	-1.345	-4.681	-3.375	-1.445	-2.999	-4.645	-3.893	-1.965	-1.740	1.767	0.937	4.967	6.461	7.064	238.281
-2.107	-4.393	-3.265	-4.037	-2.981	-3.810	0.899	1.189	4.176	4.665	6.763	7.710	-0.057	-2.650	-1.467	-5.259	-3.835	-1.573	-3.497	-5.259	-4.377	-2.261	-1.846	1.860	1.512	5.750	6.813	7.524	242.188
-2.228	-4.716	-3.367	-4.370	-3.202	-3.880	0.978	1.688	4.664	4.868	6.979	7.826	-0.358	-2.935	-1.417	-5.773	-4.266	-1.579	-3.959	-5.816	-4.804	-2.530	-1.943	1.900	2.059	6.443	7.077	7.885	246.094
-2.208	-5.075	-3.446	-4.696	-3.413	-3.935	1.018	2.132	5.079	5.024	7.126	7.847	-0.705	-3.211	-1.233	-6.228	-4.674	-1.505	-4.378	-6.313	-5.175	-2.771	-2.030	1.899	2.561	7.052	7.276	8.173	250.000
-2.042	-5.469	-3.515	-5.013	-3.615	-3.979	1.036	2.522	5.437	5.152	7.230	7.805	-1.068	-3.469	-0.978	-6.632	-5.065	-1.405	-4.748	-6.749	-5.490	-2.983	-2.110	1.875	3.007	7.589	7.438	8.420	253.906
-1.759	-5.887	-3.583	-5.313	-3.808	-4.017	1.048	2.862	5.754	5.276	7.314	7.738	-1.408	-3.696	-0.724	-6.992	-5.444	-1.325	-5.068	-7.123	-5.749	-3.165	-2.181	1.850	3.392	8.071	7.593	8.657	257.812
-1.425	-6.306	-3.665	-5.589	-3.987	-4.054	1.075	3.153	6.045	5.415	7.402	7.679	-1.687	-3.871	-0.544	-7.314	-5.810	-1.306	-5.337	-7.434	-5.951	-3.314	-2.242	1.847	3.716	8.514	7.770	8.910	261.719
-1.137	-6.697	-3.772	-5.829	-4.149	-4.094	1.134	3.402	6.320	5.586	7.513	7.662	-1.867	-3.976	-0.504	-7.601	-6.155	-1.375	-5.555	-7.680	-6.091	-3.426	-2.293	1.887	3.989	8.931	7.994	9.196	265.625
-0.998	-7.030	-3.919	-6.027	-4.288	-4.140	1.239	3.612	6.589	5.800	7.659	7.710	-1.921	-3.993	-0.650	-7.854	-6.463	-1.548	-5.719	-7.861	-6.163	-3.498	-2.331	1.987	4.223	9.335	8.279	9.524	269.531
-1.096	-7.285	-4.118	-6.180	-4.398	-4.192	1.397	3.789	6.853	6.061	7.842	7.839	-1.831	-3.910	-1.006	-8.071	-6.714	-1.831	-5.826	-7.976	-6.163	-3.521	-2.357	2.160	4.430	9.731	8.628	9.892	273.438
-1.477	-7.455	-4.377	-6.295	-4.477	-4.253	1.610	3.937	7.111	6.365	8.060	8.050	-1.595	-3.726	-1.564	-8.252	-6.884	-2.219	-5.869	-8.027	-6.088	-3.492	-2.368	2.409	4.623	10.123	9.037	10.290	277.344
-2.129	-7.555	-4.700	-6.385	-4.528	-4.324	1.871	4.057	7.353	6.703	8.300	8.336	-1.227	-3.449	-2.284	-8.399	-6.958	-2.694	-5.844	-8.021	-5.943	-3.408	-2.364	2.729	4.808	10.507	9.491	10.702	281.250
-2.980	-7.615	-5.082	-6.471	-4.558	-4.408	2.164	4.148	7.569	7.058	8.545	8.681	-0.751	-3.097	-3.100	-8.513	-6.937	-3.223	-5.754	-7.964	-5.741	-3.273	-2.347	3.106	4.988	10.879	9.971	11.110	285.156
-3.915	-7.678	-5.508	-6.573	-4.576	-4.510	2.470	4.209	7.746	7.413	8.777	9.059	-0.203	-2.695	-3.927	-8.600	-6.836	-3.761	-5.610	-7.870	-5.497	-3.095	-2.318	3.524	5.166	11.229	10.454	11.496	289.062
-4.799	-7.785	-5.958	-6.705	-4.593	-4.633	2.769	4.235	7.871	7.746	8.977	9.443	0.380	-2.271	-4.680	-8.670	-6.691	-4.253	-5.433	-7.751	-5.230	-2.888	-2.281	3.960	5.339	11.550	10.918	11.844	292.969
-5.509	-7.969	-6.402	-6.875	-4.616	-4.779	3.039	4.226	7.938	8.038	9.132	9.805	0.960	-1.851	-5.291	-8.727	-6.544	-4.651	-5.246	-7.617	-4.960	-2.667	-2.240	4.395	5.507	11.836	11.348	12.144	296.875
-5.969	-8.235	-6.815	-7.073	-4.648	-4.948	3.263	4.183	7.944	8.275	9.232	10.118	1.507	-1.455	-5.717	-8.776	-6.437	-4.920	-5.073	-7.474	-4.699	-2.444	-2.195	4.810	5.668	12.082	11.732	12.387	300.781
-6.161	-8.565	-7.172	-7.279	-4.685	-5.133	3.432	4.109	7.893	8.447	9.273	10.363	1.998	-1.097	-5.951	-8.817	-6.399	-5.047	-4.930	-7.323	-4.454	-2.230	-2.148	5.192	5.820	12.284	12.062	12.567	304.688
-6.128	-8.913	-7.459	-7.461	-4.718	-5.328	3.541	4.009	7.791	8.549	9.254	10.523	2.422	-0.782	-6.016	-8.841	-6.436	-5.045	-4.819	-7.156	-4.222	-2.029	-2.097	5.530	5.960	12.441	12.334	12.681	308.594
-5.966	-9.217	-7.673	-7.586	-4.732	-5.520	3.595	3.889	7.649	8.584	9.179	10.590	2.775	-0.506	-5.959	-8.836	-6.531	-4.946	-4.733	-6.962	-3.995	-1.840	-2.038	5.815	6.083	12.548	12.542	12.727	312.500
-5.792	-9.416	-7.820	-7.623	-4.709	-5.697	3.605	3.754	7.478	8.557	9.051	10.560	3.061	-0.260	-5.842	-8.786	-6.643	-4.798	-4.649	-6.727	-3.760	-1.656	-1.965	6.043	6.181	12.600	12.682	12.706	316.406
-5.722	-9.456	-7.915	-7.552	-4.635	-5.845	3.585	3.611	7.286	8.479	8.876	10.437	3.289	-0.033	-5.728	-8.675	-6.720	-4.655	-4.542	-6.436	-3.503	-1.465	-1.872	6.211	6.249	12.593	12.749	12.617	320.312
-5.830	-9.314	-7.976	-7.369	-4.499	-5.952	3.549	3.461	7.081	8.359	8.656	10.227	3.467	0.186	-5.674	-8.488	-6.710	-4.563	-4.384	-6.082	-3.212	-1.260	-1.754	6.318	6.281	12.523	12.741	12.466	324.219
-6.137	-8.994	-8.017	-7.083	-4.299	-6.008	3.509	3.306	6.867	8.208	8.397	9.942	3.606	0.405	-5.717	-8.220	-6.579	-4.548	-4.159	-5.663	-2.885	-1.032	-1.608	6.366	6.272	12.387	12.657	12.257	328.125
-6.596	-8.536	-8.043	-6.722	-4.042	-6.009	3.473	3.146	6.646	8.035	8.104	9.599	3.709	0.622	-5.864	-7.875	-6.318	-4.607	-3.864	-5.190	-2.527	-0.785	-1.441	6.360	6.222	12.188	12.500	11.994	332.031
-7.111	-8.006	-8.049	-6.320	-3.743	-5.955	3.443	2.984	6.421	7.848	7.785	9.217	3.779	0.833	-6.096	-7.468	-5.948	-4.710	-3.515	-4.680	-2.151	-0.527	-1.265	6.305	6.130	11.928	12.279	11.686	335.938
-7.560	-7.482	-8.020	-5.917	-3.425	-5.852	3.417	2.821	6.194	7.656	7.452	8.817	3.816	1.024	-6.367	-7.023	-5.517	-4.804	-3.140	-4.162	-1.781	-0.276	-1.099	6.209	6.000	11.614	12.008	11.341	339.844
-7.832	-7.035	-7.939	-5.549	-3.109	-5.709	3.393	2.664	5.969	7.465	7.121	8.421	3.821	1.184	-6.624	-6.571	-5.087	-4.838	-2.774	-3.666	-1.440	-0.049	-0.962	6.083	5.835	11.256	11.702	10.970	343.750
-7.859	-6.713	-7.795	-5.241	-2.816	-5.536	3.371	2.522	5.752	7.286	6.811	8.054	3.797	1.302	-6.821	-6.142	-4.712	-4.779	-2.451	-3.220	-1.148	0.136	-0.866	5.938	5.639	10.866	11.382	10.589	347.656
-7.636	-6.534	-7.586	-5.000	-2.559	-5.344	3.351	2.405	5.551	7.129	6.541	7.735	3.752	1.373	-6.934	-5.764	-4.428	-4.622	-2.191	-2.847	-0.921	0.272	-0.820	5.788	5.419	10.459	11.067	10.216	351.562
-7.226	-6.476	-7.330	-4.822	-2.343	-5.143	3.340	2.323	5.377	7.004	6.330	7.480	3.700	1.402	-6.969	-5.451	-4.248	-4.398	-2.001	-2.556	-0.761	0.357	-0.821	5.643	5.181	10.049	10.776	9.869	355.469
-6.744	-6.491	-7.055	-4.688	-2.168	-4.943	3.350	2.287	5.241	6.924	6.197	7.299	3.656	1.400	-6.960	-5.211	-4.153	-4.160	-1.874	-2.346	-0.661	0.398	-0.856	5.516	4.931	9.649	10.520	9.566	359.375
-6.328	-6.514	-6.793	-4.575	-2.025	-4.750	3.391	2.302	5.151	6.895	6.152	7.197	3.638	1.384	-6.961	-5.039	-4.108	-3.974	-1.793	-2.208	-0.608	0.407	-0.909	5.415	4.676	9.269	10.304	9.317	363.281
-6.103	-6.481	-6.580	-4.462	-1.908	-4.573	3.470	2.370	5.114	6.920	6.198	7.172	3.660	1.373	-7.030	-4.923	-4.065	-3.901	-1.734	-2.126	-0.584	0.399	-0.961	5.344	4.423	8.917	10.125	9.126	367.188
-6.148	-6.344	-6.439	-4.334	-1.807	-4.419	3.590	2.486	5.128	6.996	6.330	7.212	3.726	1.380	-7.212	-4.845	-3.980	-3.982	-1.675	-2.084	-0.576	0.386	-0.994	5.302	4.183	8.599	9.976	8.990	371.094
-6.478	-6.086	-6.385	-4.189	-1.720	-4.296	3.744	2.635	5.188	7.109	6.530	7.304	3.838	1.415	-7.522	-4.792	-3.820	-4.221	-1.597	-2.069	-0.573	0.379	-0.997	5.286	3.966	8.320	9.847	8.896	375.000
-7.037	-5.721	-6.418	-4.037	-1.645	-4.209	3.917	2.797	5.280	7.242	6.772	7.427	3.985	1.475	-7.934	-4.750	-3.574	-4.585	-1.493	-2.074	-0.574	0.382	-0.967	5.285	3.785	8.079	9.724	8.827	378.906
-7.710	-5.298	-6.520	-3.897	-1.587	-4.165	4.087	2.948	5.385	7.373	7.024	7.560	4.153	1.555	-8.383	-4.713	-3.258	-5.002	-1.369	-2.100	-0.583	0.391	-0.910	5.291	3.647	7.877	9.598	8.765	382.812
-8.353	-4.884	-6.662	-3.791	-1.551	-4.166	4.233	3.062	5.482	7.483	7.252	7.680	4.323	1.642	-8.774	-4.682	-2.913	-5.380	-1.241	-2.150	-0.606	0.402	-0.837	5.290	3.559	7.707	9.463	8.692	386.719
-8.820	-4.550	-6.810	-3.743	-1.545	-4.210	4.333	3.118	5.552	7.555	7.423	7.768	4.481	1.725	-9.009	-4.657	-2.593	-5.621	-1.133	-2.226	-0.649	0.405	-0.761	5.275	3.518	7.561	9.315	8.596	390.625
-9.003	-4.358	-6.924	-3.766	-1.570	-4.289	4.376	3.102	5.577	7.580	7.513	7.810	4.616	1.795	-9.011	-4.642	-2.354	-5.652	-1.066	-2.327	-0.710	0.396	-0.693	5.239	3.515	7.430	9.155	8.473	394.531
-8.851	-4.337	-6.974	-3.858	-1.625	-4.393	4.357	3.009	5.544	7.552	7.507	7.795	4.724	1.853	-8.743	-4.636	-2.239	-5.433	-1.058	-2.443	-0.783	0.375	-0.637	5.181	3.534	7.301	8.987	8.324	398.438
-8.382	-4.483	-6.944	-4.006	-1.702	-4.508	4.279	2.842	5.448	7.475	7.402	7.719	4.808	1.906	-8.220	-4.634	-2.265	-4.972	-1.112	-2.560	-0.853	0.349	-0.589	5.105	3.556	7.165	8.815	8.154	402.344
-7.674	-4.757	-6.829	-4.181	-1.786	-4.617	4.156	2.614	5.288	7.352	7.201	7.581	4.876	1.964	-7.507	-4.628	-2.421	-4.322	-1.216	-2.656	-0.901	0.330	-0.539	5.020	3.563	7.015	8.645	7.970	406.250
-6.849	-5.094	-6.645	-4.351	-1.858	-4.706	4.004	2.343	5.070	7.191	6.917	7.382	4.939	2.042	-6.704	-4.605	-2.664	-3.568	-1.343	-2.712	-0.908	0.333	-0.473	4.934	3.540	6.847	8.480	7.777	410.156
-6.048	-5.414	-6.417	-4.481	-1.897	-4.761	3.838	2.053	4.804	6.995	6.564	7.124	5.006	2.148	-5.930	-4.555	-2.926	-2.815	-1.456	-2.709	-0.859	0.377	-0.378	4.856	3.478	6.660	8.320	7.576	414.062
-5.398	-5.641	-6.174	-4.539	-1.886	-4.772	3.675	1.764	4.503	6.766	6.160	6.810	5.081	2.289	-5.296	-4.467	-3.128	-2.169	-1.515	-2.638	-0.746	0.475	-0.244	4.792	3.377	6.457	8.161	7.361	417.969
-4.990	-5.715	-5.947	-4.505	-1.811	-4.732	3.521	1.495	4.179	6.505	5.718	6.440	5.162	2.460	-4.881	-4.332	-3.199	-1.711	-1.484	-2.496	-0.569	0.633	-0.066	4.742	3.244	6.239	7.993	7.119	421.875
-4.858	-5.606	-5.753	-4.371	-1.668	-4.637	3.379	1.258	3.844	6.208	5.249	6.015	5.243	2.652	-4.717	-4.148	-3.090	-1.485	-1.342	-2.289	-0.336	0.849	0.148	4.698	3.091	6.005	7.803	6.837	425.781
-4.973	-5.321	-5.598	-4.142	-1.464	-4.489	3.245	1.058	3.506	5.868	4.763	5.535	5.310	2.849	-4.780	-3.917	-2.788	-1.489	-1.087	-2.027	-0.058	1.112	0.386	4.652	2.930	5.751	7.574	6.499	429.688
-5.247	-4.898	-5.470	-3.835	-1.212	-4.292	3.110	0.893	3.168	5.482	4.265	5.005	5.347	3.036	-4.999	-3.643	-2.320	-1.674	-0.739	-1.725	0.248	1.401	0.627	4.587	2.773	5.472	7.291	6.094	433.594
-5.557	-4.399	-5.345	-3.476	-0.933	-4.056	2.963	0.757	2.834	5.050	3.763	4.433	5.338	3.194	-5.273	-3.337	-1.742	-1.954	-0.333	-1.399	0.564	1.690	0.850	4.490	2.625	5.156	6.940	5.617	437.500
-5.780	-3.890	-5.195	-3.096	-0.649	-3.793	2.796	0.640	2.504	4.578	3.266	3.834	5.270	3.310	-5.499	-3.010	-1.130	-2.224	0.085	-1.064	0.873	1.951	1.033	4.347	2.481	4.794	6.513	5.075	441.406
-5.823	-3.429	-4.994	-2.723	-0.382	-3.517	2.608	0.534	2.184	4.081	2.788	3.231	5.137	3.377	-5.596	-2.676	-0.557	-2.388	0.471	-0.736	1.161	2.160	1.162	4.148	2.332	4.379	6.013	4.484	445.312
-5.648	-3.052	-4.730	-2.379	-0.143	-3.244	2.405	0.436	1.881	3.581	2.350	2.656	4.942	3.395	-5.523	-2.345	-0.082	-2.373	0.794	-0.427	1.415	2.303	1.231	3.892	2.163	3.910	5.451	3.869	449.219
-5.284	-2.764	-4.406	-2.074	0.059	-2.986	2.200	0.344	1.605	3.109	1.972	2.141	4.700	3.371	-5.287	-2.028	0.266	-2.156	1.037	-0.146	1.629	2.374	1.246	3.583	1.958	3.393	4.850	3.261	453.125
-4.815	-2.549	-4.045	-1.810	0.228	-2.750	2.011	0.263	1.370	2.693	1.678	1.720	4.434	3.316	-4.938	-1.732	0.488	-1.761	1.204	0.103	1.802	2.384	1.217	3.234	1.709	2.842	4.237	2.692	457.031
-4.350	-2.376	-3.677	-1.578	0.373	-2.542	1.858	0.200	1.186	2.359	1.482	1.418	4.171	3.248	-4.551	-1.462	0.613	-1.257	1.316	0.319	1.940	2.351	1.163	2.865	1.409	2.275	3.642	2.189	460.938
-3.994	-2.214	-3.339	-1.368	0.503	-2.360	1.754	0.162	1.062	2.123	1.393	1.249	3.937	3.182	-4.203	-1.219	0.688	-0.743	1.400	0.507	2.051	2.297	1.102	2.495	1.066	1.714	3.091	1.772	464.844
-3.811	-2.043	-3.060	-1.173	0.626	-2.200	1.704	0.155	0.995	1.987	1.407	1.211	3.752	3.130	-3.953	-1.004	0.762	-0.318	1.487	0.675	2.146	2.248	1.048	2.143	0.689	1.180	2.604	1.449	468.750
-3.811	-1.860	-2.858	-0.988	0.748	-2.056	1.701	0.180	0.980	1.936	1.505	1.288	3.626	3.097	-3.826	-0.820	0.872	-0.057	1.596	0.828	2.234	2.220	1.010	1.823	0.298	0.690	2.190	1.217	472.656
-3.946	-1.679	-2.731	-0.818	0.865	-1.923	1.730	0.234	1.001	1.947	1.663	1.450	3.558	3.083	-3.804	-0.667	1.028	0.007	1.733	0.973	2.322	2.221	0.987	1.544	-0.089	0.257	1.851	1.063	476.562
-4.133	-1.523	-2.667	-0.670	0.972	-1.799	1.770	0.309	1.040	1.989	1.846	1.659	3.537	3.080	-3.841	-0.549	1.215	-0.106	1.886	1.109	2.409	2.249	0.977	1.307	-0.453	-0.114	1.581	0.966	480.469
-4.279	-1.415	-2.639	-0.552	1.061	-1.682	1.799	0.395	1.077	2.029	2.023	1.875	3.544	3.080	-3.875	-0.467	1.397	-0.334	2.035	1.235	2.491	2.293	0.972	1.109	-0.775	-0.423	1.368	0.902	484.375
-4.316	-1.368	-2.620	-0.469	1.129	-1.575	1.798	0.479	1.093	2.040	2.166	2.062	3.559	3.072	-3.853	-0.420	1.533	-0.587	2.154	1.345	2.561	2.342	0.966	0.946	-1.043	-0.674	1.201	0.848	488.281
-4.215	-1.379	-2.582	-0.419	1.172	-1.479	1.758	0.548	1.075	2.004	2.254	2.193	3.565	3.051	-3.746	-0.405	1.591	-0.780	2.226	1.436	2.614	2.382	0.957	0.811	-1.249	-0.875	1.065	0.785	492.188
-3.999	-1.429	-2.511	-0.392	1.195	-1.396	1.677	0.594	1.017	1.916	2.279	2.250	3.552	3.019	-3.559	-0.411	1.562	-0.852	2.245	1.507	2.646	2.409	0.949	0.701	-1.388	-1.036	0.950	0.701	496.094
-3.725	-1.488	-2.402	-0.375	1.207	-1.326	1.562	0.608	0.921	1.780	2.243	2.230	3.516	2.979	-3.328	-0.425	1.463	-0.783	2.220	1.562	2.661	2.425	0.947	0.617	-1.464	-1.167	0.848	0.594	500.000
-3.468	-1.527	-2.264	-0.351	1.217	-1.264	1.430	0.590	0.795	1.611	2.157	2.140	3.464	2.944	-3.107	-0.436	1.332	-0.599	2.170	1.605	2.665	2.438	0.961	0.559	-1.484	-1.278	0.753	0.469	503.906
-3.289	-1.523	-2.117	-0.309	1.236	-1.209	1.297	0.543	0.655	1.431	2.038	1.994	3.406	2.921	-2.946	-0.432	1.210	-0.356	2.118	1.645	2.665	2.457	0.996	0.531	-1.461	-1.374	0.666	0.338	507.812
-3.217	-1.467	-1.984	-0.242	1.270	-1.159	1.181	0.473	0.514	1.260	1.905	1.811	3.354	2.919	-2.872	-0.408	1.132	-0.123	2.087	1.689	2.671	2.493	1.049	0.532	-1.412	-1.460	0.587	0.212	511.719
-3.242	-1.368	-1.890	-0.153	1.323	-1.114	1.094	0.390	0.387	1.118	1.773	1.611	3.318	2.940	-2.882	-0.363	1.111	0.040	2.088	1.740	2.688	2.549	1.116	0.562	-1.354	-1.538	0.519	0.099	515.625
-3.316	-1.246	-1.851	-0.052	1.392	-1.076	1.042	0.303	0.283	1.014	1.655	1.411	3.301	2.982	-2.944	-0.302	1.136	0.104	2.123	1.799	2.718	2.624	1.185	0.615	-1.302	-1.608	0.462	0.002	519.531
-3.380	-1.130	-1.870	0.049	1.472	-1.048	1.025	0.220	0.206	0.951	1.553	1.221	3.304	3.037	-3.009	-0.230	1.182	0.071	2.181	1.868	2.763	2.713	1.243	0.679	-1.267	-1.673	0.415	-0.083	523.438
-3.382	-1.042	-1.940	0.135	1.555	-1.031	1.039	0.147	0.155	0.925	1.467	1.049	3.318	3.099	-3.031	-0.153	1.218	-0.026	2.252	1.944	2.824	2.810	1.283	0.744	-1.256	-1.735	0.373	-0.168	527.344
-3.296	-0.993	-2.039	0.198	1.635	-1.023	1.073	0.086	0.121	0.923	1.389	0.893	3.335	3.162	-2.985	-0.072	1.224	-0.142	2.324	2.030	2.900	2.907	1.301	0.797	-1.270	-1.799	0.327	-0.265	531.250
-3.133	-0.981	-2.139	0.238	1.709	-1.022	1.115	0.035	0.096	0.931	1.311	0.749	3.344	3.223	-2.876	0.015	1.202	-0.235	2.393	2.129	2.996	3.002	1.302	0.827	-1.307	-1.872	0.268	-0.389	535.156
-2.932	-0.990	-2.208	0.260	1.776	-1.019	1.156	-0.012	0.067	0.931	1.224	0.609	3.335	3.279	-2.737	0.116	1.172	-0.276	2.466	2.247	3.115	3.096	1.296	0.827	-1.364	-1.960	0.188	-0.545	539.062
-2.752	-0.994	-2.223	0.277	1.841	-1.010	1.183	-0.061	0.023	0.911	1.121	0.465	3.303	3.333	-2.615	0.237	1.171	-0.261	2.553	2.389	3.257	3.194	1.296	0.796	-1.435	-2.069	0.080	-0.735	542.969
-2.647	-0.972	-2.172	0.300	1.907	-0.989	1.189	-0.118	-0.043	0.862	1.000	0.310	3.246	3.385	-2.550	0.383	1.234	-0.198	2.667	2.557	3.422	3.297	1.312	0.737	-1.516	-2.199	-0.055	-0.950	546.875
-2.655	-0.908	-2.062	0.340	1.976	-0.955	1.167	-0.188	-0.135	0.779	0.863	0.144	3.165	3.433	-2.562	0.556	1.384	-0.106	2.814	2.748	3.602	3.407	1.351	0.658	-1.598	-2.346	-0.209	-1.176	550.781
-2.779	-0.798	-1.911	0.400	2.047	-0.911	1.113	-0.270	-0.254	0.664	0.716	-0.029	3.063	3.472	-2.638	0.747	1.619	-0.006	2.994	2.951	3.782	3.521	1.414	0.569	-1.677	-2.499	-0.369	-1.391	554.688
-2.994	-0.651	-1.748	0.479	2.115	-0.863	1.027	-0.362	-0.391	0.524	0.568	-0.197	2.944	3.496	-2.738	0.941	1.912	0.089	3.191	3.149	3.943	3.630	1.495	0.483	-1.746	-2.644	-0.516	-1.574	558.594
-3.246	-0.487	-1.603	0.566	2.170	-0.820	0.910	-0.458	-0.538	0.369	0.433	-0.345	2.816	3.495	-2.807	1.119	2.215	0.169	3.385	3.319	4.064	3.725	1.585	0.411	-1.800	-2.765	-0.633	-1.708	562.500
-3.472	-0.332	-1.496	0.649	2.204	-0.794	0.770	-0.551	-0.683	0.215	0.321	-0.455	2.684	3.460	-2.801	1.261	2.475	0.230	3.548	3.442	4.128	3.796	1.672	0.361	-1.833	-2.850	-0.704	-1.775	566.406
-3.616	-0.209	-1.438	0.714	2.209	-0.791	0.617	-0.633	-0.812	0.074	0.242	-0.513	2.555	3.387	-2.700	1.354	2.651	0.274	3.659	3.502	4.124	3.836	1.746	0.338	-1.844	-2.890	-0.721	-1.771	570.312
-3.642	-0.136	-1.427	0.753	2.181	-0.815	0.463	-0.698	-0.916	-0.042	0.201	-0.509	2.433	3.276	-2.518	1.393	2.723	0.305	3.706	3.495	4.054	3.845	1.802	0.345	-1.829	-2.885	-0.686	-1.696	574.219
-3.547	-0.117	-1.448	0.764	2.122	-0.863	0.320	-0.745	-0.989	-0.126	0.197	-0.445	2.321	3.136	-2.302	1.384	2.702	0.328	3.692	3.428	3.928	3.829	1.838	0.378	-1.792	-2.845	-0.610	-1.566	578.125
-3.353	-0.147	-1.484	0.750	2.043	-0.926	0.200	-0.776	-1.033	-0.177	0.221	-0.330	2.219	2.977	-2.111	1.344	2.620	0.353	3.631	3.324	3.770	3.799	1.857	0.427	-1.737	-2.786	-0.511	-1.404	582.031
-3.106	-0.211	-1.513	0.720	1.955	-0.991	0.108	-0.797	-1.051	-0.199	0.263	-0.184	2.127	2.815	-1.997	1.298	2.520	0.392	3.544	3.210	3.606	3.769	1.865	0.483	-1.674	-2.731	-0.416	-1.242	585.938
-2.853	-0.289	-1.521	0.688	1.872	-1.045	0.046	-0.813	-1.052	-0.201	0.307	-0.031	2.043	2.664	-1.982	1.273	2.440	0.458	3.455	3.119	3.463	3.752	1.871	0.531	-1.616	-2.705	-0.349	-1.114	589.844
-2.636	-0.364	-1.501	0.664	1.808	-1.077	0.011	-0.829	-1.048	-0.197	0.339	0.104	1.964	2.538	-2.049	1.288	2.402	0.564	3.383	3.075	3.363	3.757	1.882	0.561	-1.577	-2.729	-0.333	-1.052	593.750
-2.477	-0.423	-1.453	0.656	1.772	-1.083	-0.008	-0.850	-1.049	-0.201	0.344	0.198	1.888	2.442	-2.146	1.355	2.409	0.717	3.338	3.094	3.319	3.789	1.905	0.563	-1.569	-2.817	-0.383	-1.077	597.656
-2.372	-0.457	-1.381	0.670	1.767	-1.065	-0.021	-0.878	-1.067	-0.229	0.313	0.234	1.816	2.381	-2.205	1.475	2.448	0.915	3.322	3.175	3.331	3.850	1.944	0.532	-1.596	-2.972	-0.506	-1.201	601.562
-2.299	-0.464	-1.296	0.704	1.790	-1.032	-0.042	-0.917	-1.112	-0.293	0.239	0.201	1.750	2.352	-2.166	1.639	2.497	1.141	3.332	3.309	3.391	3.935	2.002	0.471	-1.657	-3.190	-0.698	-1.419	605.469
-2.222	-0.443	-1.206	0.754	1.835	-0.995	-0.081	-0.966	-1.188	-0.401	0.121	0.100	1.692	2.350	-2.003	1.831	2.545	1.370	3.364	3.474	3.482	4.040	2.078	0.384	-1.743	-3.456	-0.947	-1.712	609.375
-2.111	-0.398	-1.120	0.813	1.890	-0.964	-0.144	-1.026	-1.297	-0.550	-0.036	-0.060	1.648	2.369	-1.732	2.032	2.589	1.566	3.417	3.648	3.588	4.158	2.172	0.283	-1.840	-3.751	-1.235	-2.052	613.281
-1.946	-0.332	-1.045	0.874	1.947	-0.947	-0.228	-1.098	-1.433	-0.734	-0.223	-0.264	1.623	2.402	-1.410	2.226	2.643	1.695	3.492	3.807	3.691	4.285	2.279	0.178	-1.934	-4.053	-1.537	-2.403	617.188
-1.735	-0.249	-0.986	0.929	1.993	-0.947	-0.327	-1.181	-1.585	-0.935	-0.426	-0.491	1.621	2.445	-1.110	2.397	2.727	1.729	3.589	3.933	3.780	4.414	2.392	0.082	-2.010	-4.339	-1.832	-2.731	621.094
-1.503	-0.153	-0.949	0.973	2.022	-0.962	-0.426	-1.269	-1.739	-1.133	-0.627	-0.720	1.646	2.496	-0.903	2.535	2.858	1.657	3.705	4.018	3.850	4.541	2.503	0.005	-2.055	-4.589	-2.095	-3.006	625.000
-1.297	-0.049	-0.939	1.001	2.029	-0.988	-0.513	-1.359	-1.877	-1.307	-0.808	-0.930	1.702	2.553	-0.828	2.635	3.037	1.483	3.833	4.060	3.899	4.658	2.600	-0.042	-2.062	-4.784	-2.310	-3.210	628.906
-1.162	0.057	-0.959	1.012	2.013	-1.019	-0.573	-1.443	-1.984	-1.434	-0.954	-1.105	1.787	2.616	-0.891	2.695	3.249	1.233	3.957	4.067	3.934	4.759	2.672	-0.055	-2.027	-4.912	-2.461	-3.337	632.812
-1.128	0.157	-1.010	1.005	1.975	-1.050	-0.599	-1.515	-2.048	-1.504	-1.054	-1.237	1.899	2.688	-1.062	2.721	3.459	0.943	4.059	4.053	3.964	4.835	2.711	-0.031	-1.951	-4.967	-2.544	-3.390	636.719
-1.195	0.242	-1.084	0.980	1.920	-1.079	-0.591	-1.571	-2.065	-1.510	-1.104	-1.324	2.030	2.765	-1.290	2.718	3.627	0.654	4.122	4.034	3.997	4.883	2.716	0.027	-1.839	-4.950	-2.557	-3.381	640.625
-1.329	0.299	-1.171	0.935	1.851	-1.105	-0.553	-1.607	-2.038	-1.462	-1.109	-1.373	2.169	2.846	-1.516	2.696	3.718	0.404	4.134	4.025	4.041	4.900	2.690	0.111	-1.703	-4.870	-2.510	-3.327	644.531
-1.470	0.318	-1.250	0.873	1.774	-1.129	-0.498	-1.625	-1.978	-1.377	-1.080	-1.396	2.303	2.923	-1.689	2.666	3.712	0.218	4.090	4.040	4.098	4.886	2.644	0.206	-1.555	-4.747	-2.418	-3.248	648.438
-1.548	0.291	-1.305	0.795	1.694	-1.154	-0.440	-1.625	-1.902	-1.277	-1.035	-1.408	2.415	2.989	-1.775	2.640	3.606	0.110	3.999	4.083	4.167	4.845	2.594	0.296	-1.414	-4.601	-2.301	-3.164	652.344
-1.508	0.218	-1.321	0.706	1.615	-1.178	-0.393	-1.611	-1.827	-1.188	-0.992	-1.426	2.490	3.036	-1.757	2.625	3.423	0.077	3.877	4.153	4.243	4.784	2.552	0.364	-1.293	-4.456	-2.182	-3.092	656.250
-1.327	0.111	-1.289	0.613	1.541	-1.198	-0.370	-1.587	-1.772	-1.134	-0.969	-1.462	2.514	3.056	-1.637	2.631	3.198	0.109	3.744	4.245	4.318	4.709	2.527	0.392	-1.206	-4.332	-2.080	-3.045	660.156
-1.022	-0.011	-1.211	0.527	1.476	-1.210	-0.378	-1.556	-1.750	-1.132	-0.981	-1.523	2.480	3.046	-1.431	2.660	2.973	0.190	3.626	4.348	4.382	4.632	2.523	0.373	-1.157	-4.243	-2.012	-3.032	664.062
-0.650	-0.119	-1.095	0.461	1.424	-1.207	-0.422	-1.524	-1.770	-1.191	-1.035	-1.612	2.387	3.004	-1.164	2.714	2.789	0.307	3.541	4.452	4.428	4.563	2.538	0.304	-1.146	-4.193	-1.986	-3.057	667.969
-0.285	-0.183	-0.956	0.427	1.387	-1.184	-0.497	-1.497	-1.834	-1.309	-1.134	-1.722	2.241	2.937	-0.865	2.789	2.676	0.448	3.504	4.546	4.448	4.511	2.566	0.193	-1.167	-4.180	-2.004	-3.116	671.875
-0.005	-0.180	-0.811	0.434	1.370	-1.141	-0.598	-1.480	-1.939	-1.474	-1.271	-1.843	2.058	2.850	-0.571	2.878	2.653	0.599	3.523	4.620	4.439	4.482	2.600	0.056	-1.210	-4.197	-2.058	-3.203	675.781
0.139	-0.097	-0.674	0.485	1.373	-1.080	-0.713	-1.475	-2.077	-1.670	-1.435	-1.963	1.859	2.754	-0.319	2.972	2.720	0.747	3.594	4.670	4.401	4.482	2.637	-0.087	-1.264	-4.232	-2.138	-3.305	679.688
0.128	0.062	-0.556	0.578	1.396	-1.010	-0.828	-1.484	-2.234	-1.873	-1.607	-2.065	1.667	2.660	-0.142	3.061	2.866	0.870	3.705	4.693	4.337	4.506	2.670	-0.215	-1.319	-4.272	-2.227	-3.406	683.594
-0.013	0.277	-0.461	0.698	1.433	-0.941	-0.931	-1.506	-2.394	-2.059	-1.768	-2.135	1.504	2.575	-0.066	3.137	3.067	0.949	3.837	4.686	4.250	4.549	2.697	-0.310	-1.366	-4.307	-2.309	-3.492	687.500
-0.228	0.515	-0.386	0.827	1.476	-0.885	-1.009	-1.539	-2.543	-2.208	-1.899	-2.161	1.386	2.504	-0.099	3.191	3.290	0.972	3.965	4.652	4.147	4.595	2.711	-0.362	-1.401	-4.330	-2.371	-3.549	691.406
-0.445	0.739	-0.324	0.945	1.510	-0.851	-1.056	-1.576	-2.667	-2.306	-1.984	-2.136	1.324	2.452	-0.223	3.218	3.495	0.941	4.061	4.589	4.031	4.627	2.705	-0.367	-1.420	-4.337	-2.402	-3.569	695.312
-0.596	0.914	-0.267	1.029	1.524	-0.845	-1.070	-1.614	-2.757	-2.346	-2.016	-2.059	1.321	2.417	-0.401	3.217	3.642	0.878	4.098	4.501	3.908	4.626	2.674	-0.330	-1.428	-4.332	-2.401	-3.550	699.219
-0.631	1.015	-0.206	1.064	1.504	-0.866	-1.054	-1.648	-2.809	-2.332	-1.997	-1.936	1.375	2.398	-0.578	3.186	3.696	0.817	4.059	4.390	3.782	4.580	2.612	-0.262	-1.428	-4.322	-2.370	-3.497	703.125
-0.531	1.032	-0.141	1.041	1.442	-0.911	-1.017	-1.673	-2.823	-2.271	-1.933	-1.778	1.476	2.392	-0.697	3.132	3.639	0.795	3.938	4.263	3.658	4.484	2.521	-0.176	-1.429	-4.316	-2.317	-3.419	707.031
-0.309	0.966	-0.074	0.962	1.337	-0.970	-0.968	-1.689	-2.806	-2.178	-1.839	-1.600	1.611	2.399	-0.710	3.059	3.470	0.841	3.744	4.129	3.542	4.341	2.409	-0.086	-1.436	-4.323	-2.252	-3.329	710.938
-0.002	0.833	-0.010	0.835	1.193	-1.035	-0.918	-1.693	-2.764	-2.069	-1.732	-1.419	1.765	2.417	-0.590	2.977	3.210	0.963	3.502	4.000	3.441	4.167	2.288	-0.006	-1.455	-4.350	-2.184	-3.239	714.844
0.336	0.655	0.043	0.677	1.022	-1.098	-0.875	-1.689	-2.708	-1.959	-1.628	-1.254	1.921	2.442	-0.341	2.895	2.901	1.152	3.245	3.888	3.360	3.981	2.174	0.053	-1.487	-4.396	-2.122	-3.160	718.750
0.652	0.459	0.078	0.510	0.839	-1.153	-0.845	-1.679	-2.649	-1.862	-1.541	-1.121	2.064	2.471	0.006	2.823	2.597	1.378	3.011	3.804	3.305	3.803	2.077	0.086	-1.529	-4.456	-2.068	-3.099	722.656
0.902	0.269	0.094	0.357	0.664	-1.202	-0.832	-1.668	-2.597	-1.790	-1.481	-1.033	2.180	2.498	0.397	2.770	2.352	1.604	2.833	3.757	3.278	3.655	2.007	0.088	-1.578	-4.524	-2.026	-3.060	726.562
1.060	0.108	0.090	0.237	0.514	-1.249	-0.834	-1.665	-2.564	-1.750	-1.456	-0.998	2.257	2.519	0.772	2.746	2.211	1.794	2.738	3.754	3.281	3.548	1.969	0.061	-1.629	-4.591	-1.998	-3.045	730.469
1.120	-0.002	0.070	0.167	0.403	-1.297	-0.850	-1.676	-2.559	-1.746	-1.470	-1.022	2.289	2.527	1.075	2.756	2.202	1.924	2.738	3.794	3.310	3.492	1.963	0.006	-1.680	-4.649	-1.986	-3.059	734.375
1.093	-0.046	0.037	0.156	0.341	-1.354	-0.878	-1.707	-2.589	-1.779	-1.522	-1.105	2.274	2.522	1.270	2.808	2.330	1.983	2.830	3.875	3.360	3.488	1.988	-0.071	-1.731	-4.697	-1.995	-3.104	738.281
1.005	-0.018	-0.003	0.205	0.329	-1.423	-0.914	-1.762	-2.659	-1.848	-1.614	-1.241	2.214	2.504	1.344	2.903	2.576	1.978	3.001	3.991	3.428	3.532	2.041	-0.165	-1.782	-4.738	-2.030	-3.184	742.188
0.893	0.083	-0.048	0.307	0.361	-1.504	-0.958	-1.843	-2.768	-1.950	-1.743	-1.425	2.120	2.482	1.309	3.042	2.903	1.927	3.227	4.135	3.509	3.617	2.120	-0.267	-1.834	-4.779	-2.096	-3.301	746.094
0.797	0.249	-0.095	0.447	0.425	-1.592	-1.012	-1.949	-2.913	-2.079	-1.906	-1.643	2.005	2.464	1.198	3.217	3.262	1.850	3.479	4.299	3.597	3.734	2.219	-0.369	-1.890	-4.825	-2.194	-3.450	750.000
0.755	0.462	-0.140	0.608	0.505	-1.681	-1.077	-2.075	-3.085	-2.228	-2.095	-1.881	1.887	2.460	1.056	3.418	3.601	1.768	3.726	4.474	3.691	3.867	2.331	-0.458	-1.946	-4.881	-2.318	-3.621	753.906
0.791	0.698	-0.178	0.771	0.584	-1.764	-1.154	-2.215	-3.274	-2.390	-2.301	-2.120	1.783	2.479	0.929	3.626	3.870	1.694	3.938	4.649	3.787	4.002	2.445	-0.526	-2.000	-4.944	-2.455	-3.797	757.812
0.912	0.931	-0.203	0.917	0.648	-1.834	-1.243	-2.358	-3.464	-2.552	-2.506	-2.340	1.707	2.522	0.855	3.822	4.032	1.636	4.088	4.814	3.878	4.120	2.547	-0.562	-2.047	-5.009	-2.585	-3.957	761.719
1.100	1.139	-0.212	1.033	0.687	-1.884	-1.337	-2.494	-3.639	-2.703	-2.694	-2.520	1.669	2.589	0.854	3.986	4.067	1.594	4.159	4.956	3.960	4.204	2.622	-0.560	-2.077	-5.061	-2.687	-4.081	765.625
1.323	1.302	-0.200	1.113	0.699	-1.914	-1.429	-2.610	-3.782	-2.825	-2.843	-2.644	1.673	2.672	0.920	4.101	3.977	1.565	4.144	5.066	4.024	4.239	2.653	-0.517	-2.083	-5.086	-2.740	-4.149	769.531
1.539	1.407	-0.169	1.152	0.687	-1.922	-1.506	-2.693	-3.881	-2.904	-2.938	-2.698	1.717	2.763	1.025	4.156	3.775	1.545	4.042	5.134	4.065	4.214	2.627	-0.433	-2.056	-5.066	-2.728	-4.151	773.438
1.713	1.448	-0.123	1.155	0.661	-1.911	-1.555	-2.734	-3.924	-2.924	-2.965	-2.674	1.796	2.850	1.128	4.148	3.489	1.530	3.862	5.154	4.073	4.123	2.534	-0.309	-1.989	-4.988	-2.639	-4.078	777.344
1.822	1.425	-0.068	1.126	0.630	-1.883	-1.566	-2.727	-3.906	-2.877	-2.920	-2.573	1.901	2.927	1.188	4.079	3.147	1.517	3.617	5.123	4.047	3.967	2.372	-0.152	-1.878	-4.842	-2.474	-3.932	781.250
1.858	1.344	-0.014	1.074	0.606	-1.844	-1.534	-2.673	-3.828	-2.761	-2.806	-2.401	2.025	2.988	1.173	3.959	2.773	1.503	3.323	5.044	3.984	3.753	2.143	0.033	-1.722	-4.629	-2.238	-3.721	785.156
1.829	1.219	0.035	1.009	0.595	-1.798	-1.462	-2.579	-3.702	-2.583	-2.633	-2.174	2.160	3.034	1.072	3.799	2.387	1.487	2.994	4.925	3.890	3.493	1.859	0.239	-1.527	-4.356	-1.946	-3.458	789.062
1.752	1.067	0.077	0.938	0.600	-1.749	-1.357	-2.455	-3.540	-2.360	-2.422	-1.910	2.299	3.067	0.895	3.616	2.002	1.466	2.648	4.778	3.773	3.204	1.537	0.457	-1.303	-4.038	-1.616	-3.161	792.969
1.648	0.906	0.111	0.869	0.617	-1.701	-1.235	-2.318	-3.364	-2.116	-2.194	-1.632	2.437	3.093	0.667	3.427	1.628	1.442	2.299	4.620	3.646	2.902	1.197	0.680	-1.064	-3.697	-1.270	-2.852	796.875
