FP1	F3	F7	FC3	C3	C5	P3	P7	PO7	PO3	O1	Oz	Pz	CPz	FP2	Fz	F4	F8	FC4	FCz	Cz	C4	C6	P4	P8	PO8	PO4	O2	time
-2.251	-0.667	-0.216	-0.487	-0.063	-0.444	-0.161	-0.995	-0.835	-0.349	-1.041	-0.403	0.995	1.557	-0.073	0.600	1.392	2.149	1.540	1.773	1.496	1.214	0.858	0.816	0.280	-0.403	0.047	-0.294	-199.219
-1.549	-0.272	-0.358	-0.166	0.153	-0.298	-0.161	-0.727	-0.602	-0.367	-0.954	-0.524	0.795	1.422	0.105	0.659	1.025	1.489	1.336	1.687	1.456	1.075	0.725	0.627	0.199	-0.572	-0.164	-0.416	-195.312
-0.916	0.097	-0.477	0.123	0.352	-0.168	-0.156	-0.486	-0.390	-0.378	-0.880	-0.641	0.606	1.285	0.233	0.710	0.709	0.853	1.153	1.594	1.407	0.957	0.608	0.460	0.137	-0.709	-0.344	-0.530	-191.406
-0.413	0.412	-0.559	0.347	0.517	-0.066	-0.144	-0.290	-0.217	-0.381	-0.826	-0.747	0.441	1.149	0.282	0.747	0.482	0.269	1.005	1.489	1.342	0.877	0.524	0.332	0.109	-0.787	-0.469	-0.623	-187.500
-0.067	0.646	-0.599	0.483	0.632	-0.002	-0.125	-0.154	-0.094	-0.372	-0.794	-0.832	0.305	1.013	0.247	0.765	0.354	-0.227	0.894	1.365	1.256	0.840	0.484	0.254	0.120	-0.790	-0.522	-0.685	-183.594
0.132	0.774	-0.599	0.516	0.687	0.018	-0.101	-0.080	-0.022	-0.354	-0.780	-0.891	0.203	0.875	0.150	0.753	0.309	-0.591	0.813	1.218	1.145	0.842	0.489	0.229	0.172	-0.712	-0.500	-0.709	-179.688
0.218	0.780	-0.567	0.443	0.678	-0.004	-0.077	-0.063	0.003	-0.329	-0.775	-0.915	0.133	0.737	0.031	0.708	0.313	-0.788	0.744	1.046	1.010	0.865	0.533	0.249	0.259	-0.560	-0.410	-0.690	-175.781
0.238	0.661	-0.514	0.277	0.609	-0.063	-0.058	-0.091	-0.011	-0.305	-0.769	-0.901	0.087	0.598	-0.066	0.626	0.323	-0.798	0.669	0.851	0.855	0.889	0.601	0.303	0.370	-0.349	-0.268	-0.628	-171.875
0.236	0.434	-0.454	0.047	0.490	-0.148	-0.051	-0.150	-0.054	-0.287	-0.754	-0.848	0.060	0.463	-0.103	0.514	0.308	-0.636	0.577	0.642	0.687	0.893	0.674	0.374	0.492	-0.099	-0.093	-0.524	-167.969
0.233	0.135	-0.401	-0.209	0.339	-0.245	-0.060	-0.225	-0.116	-0.282	-0.725	-0.759	0.045	0.337	-0.072	0.384	0.255	-0.349	0.465	0.433	0.517	0.865	0.733	0.445	0.610	0.165	0.091	-0.384	-164.062
0.239	-0.188	-0.362	-0.448	0.176	-0.340	-0.087	-0.305	-0.192	-0.294	-0.682	-0.641	0.040	0.228	0.011	0.252	0.172	-0.015	0.345	0.245	0.358	0.801	0.761	0.504	0.710	0.420	0.266	-0.215	-160.156
0.246	-0.484	-0.339	-0.632	0.024	-0.420	-0.131	-0.380	-0.277	-0.323	-0.629	-0.502	0.043	0.142	0.103	0.140	0.089	0.278	0.238	0.094	0.221	0.709	0.750	0.541	0.781	0.646	0.417	-0.028	-156.250
0.246	-0.708	-0.327	-0.733	-0.100	-0.476	-0.188	-0.448	-0.368	-0.365	-0.571	-0.352	0.056	0.084	0.159	0.062	0.038	0.448	0.165	-0.002	0.115	0.603	0.698	0.553	0.814	0.826	0.532	0.166	-152.344
0.234	-0.834	-0.315	-0.739	-0.185	-0.503	-0.250	-0.509	-0.461	-0.415	-0.514	-0.201	0.083	0.057	0.140	0.027	0.045	0.445	0.142	-0.039	0.045	0.499	0.609	0.541	0.803	0.948	0.610	0.355	-148.438
0.209	-0.852	-0.289	-0.654	-0.224	-0.502	-0.308	-0.565	-0.551	-0.462	-0.463	-0.059	0.125	0.057	0.030	0.033	0.117	0.262	0.170	-0.018	0.008	0.410	0.494	0.509	0.746	1.006	0.651	0.525	-144.531
0.173	-0.773	-0.237	-0.496	-0.219	-0.477	-0.353	-0.619	-0.632	-0.498	-0.419	0.066	0.183	0.078	-0.155	0.071	0.238	-0.063	0.237	0.049	-0.003	0.342	0.364	0.464	0.649	1.000	0.662	0.667	-140.625
0.130	-0.617	-0.158	-0.293	-0.176	-0.434	-0.378	-0.671	-0.697	-0.514	-0.379	0.170	0.256	0.111	-0.376	0.122	0.371	-0.455	0.319	0.140	0.005	0.291	0.231	0.414	0.517	0.938	0.652	0.773	-136.719
0.081	-0.413	-0.058	-0.076	-0.108	-0.379	-0.377	-0.719	-0.738	-0.503	-0.336	0.250	0.340	0.146	-0.580	0.169	0.470	-0.826	0.383	0.234	0.019	0.249	0.104	0.363	0.365	0.830	0.631	0.837	-132.812
0.027	-0.192	0.048	0.125	-0.027	-0.315	-0.349	-0.754	-0.746	-0.463	-0.284	0.308	0.430	0.172	-0.720	0.195	0.495	-1.094	0.401	0.308	0.029	0.204	-0.012	0.316	0.205	0.692	0.608	0.857	-128.906
-0.031	0.017	0.143	0.286	0.051	-0.245	-0.297	-0.767	-0.717	-0.396	-0.214	0.350	0.513	0.180	-0.765	0.191	0.427	-1.208	0.357	0.345	0.026	0.145	-0.113	0.275	0.055	0.539	0.588	0.835	-125.000
-0.090	0.190	0.209	0.389	0.113	-0.169	-0.228	-0.745	-0.647	-0.309	-0.122	0.378	0.580	0.166	-0.713	0.154	0.275	-1.156	0.251	0.336	0.007	0.067	-0.199	0.235	-0.073	0.387	0.569	0.775	-121.094
-0.147	0.307	0.238	0.428	0.147	-0.088	-0.154	-0.678	-0.540	-0.211	-0.007	0.400	0.616	0.125	-0.583	0.091	0.074	-0.966	0.100	0.278	-0.030	-0.029	-0.267	0.194	-0.168	0.246	0.548	0.685	-117.188
-0.194	0.356	0.234	0.406	0.150	-0.005	-0.084	-0.561	-0.399	-0.111	0.125	0.416	0.611	0.059	-0.409	0.011	-0.131	-0.694	-0.070	0.180	-0.082	-0.136	-0.318	0.146	-0.230	0.124	0.516	0.578	-113.281
-0.224	0.335	0.209	0.337	0.122	0.078	-0.026	-0.394	-0.231	-0.020	0.264	0.429	0.559	-0.027	-0.225	-0.074	-0.293	-0.412	-0.228	0.055	-0.144	-0.245	-0.355	0.086	-0.261	0.022	0.464	0.463	-109.375
-0.226	0.251	0.181	0.240	0.069	0.159	0.018	-0.186	-0.043	0.060	0.401	0.437	0.461	-0.124	-0.060	-0.152	-0.387	-0.181	-0.353	-0.080	-0.209	-0.346	-0.380	0.011	-0.274	-0.063	0.385	0.350	-105.469
-0.195	0.121	0.171	0.142	0.006	0.236	0.053	0.052	0.156	0.129	0.524	0.436	0.328	-0.221	0.071	-0.217	-0.410	-0.046	-0.437	-0.208	-0.269	-0.433	-0.401	-0.078	-0.280	-0.139	0.277	0.243	-101.562
-0.131	-0.028	0.189	0.066	-0.053	0.309	0.087	0.304	0.361	0.192	0.623	0.423	0.175	-0.306	0.160	-0.265	-0.380	-0.021	-0.481	-0.317	-0.320	-0.505	-0.424	-0.178	-0.297	-0.211	0.141	0.142	-97.656
-0.041	-0.165	0.237	0.030	-0.094	0.376	0.133	0.555	0.565	0.257	0.695	0.395	0.022	-0.370	0.204	-0.296	-0.329	-0.096	-0.498	-0.400	-0.358	-0.560	-0.454	-0.282	-0.335	-0.286	-0.016	0.047	-93.750
0.059	-0.262	0.307	0.043	-0.107	0.438	0.200	0.791	0.760	0.331	0.738	0.348	-0.111	-0.404	0.200	-0.311	-0.286	-0.237	-0.506	-0.454	-0.382	-0.603	-0.496	-0.381	-0.397	-0.366	-0.184	-0.047	-89.844
0.147	-0.298	0.382	0.100	-0.086	0.496	0.295	0.998	0.937	0.418	0.753	0.285	-0.211	-0.406	0.146	-0.315	-0.272	-0.401	-0.516	-0.481	-0.393	-0.636	-0.548	-0.467	-0.481	-0.448	-0.349	-0.143	-85.938
0.204	-0.266	0.447	0.188	-0.037	0.549	0.411	1.162	1.084	0.516	0.742	0.204	-0.270	-0.378	0.046	-0.307	-0.292	-0.546	-0.536	-0.486	-0.391	-0.663	-0.605	-0.532	-0.574	-0.525	-0.498	-0.242	-82.031
0.216	-0.174	0.493	0.288	0.031	0.596	0.538	1.272	1.190	0.617	0.709	0.111	-0.289	-0.326	-0.094	-0.289	-0.337	-0.637	-0.565	-0.474	-0.377	-0.681	-0.658	-0.570	-0.663	-0.588	-0.619	-0.341	-78.125
0.183	-0.040	0.516	0.379	0.103	0.633	0.657	1.319	1.241	0.708	0.659	0.011	-0.277	-0.261	-0.256	-0.260	-0.390	-0.660	-0.593	-0.448	-0.352	-0.689	-0.694	-0.580	-0.731	-0.627	-0.706	-0.436	-74.219
0.115	0.111	0.520	0.444	0.163	0.657	0.748	1.297	1.227	0.774	0.594	-0.087	-0.247	-0.195	-0.419	-0.221	-0.429	-0.617	-0.607	-0.411	-0.318	-0.680	-0.703	-0.563	-0.768	-0.637	-0.755	-0.520	-70.312
0.027	0.254	0.510	0.475	0.201	0.661	0.794	1.204	1.144	0.803	0.520	-0.175	-0.211	-0.139	-0.562	-0.175	-0.434	-0.528	-0.592	-0.369	-0.276	-0.648	-0.679	-0.522	-0.768	-0.613	-0.763	-0.582	-66.406
-0.058	0.367	0.491	0.472	0.208	0.641	0.784	1.048	0.995	0.787	0.442	-0.242	-0.180	-0.102	-0.665	-0.126	-0.392	-0.422	-0.538	-0.327	-0.234	-0.590	-0.619	-0.461	-0.732	-0.553	-0.732	-0.614	-62.500
-0.125	0.438	0.461	0.440	0.183	0.594	0.718	0.840	0.792	0.723	0.366	-0.278	-0.157	-0.089	-0.716	-0.082	-0.299	-0.325	-0.441	-0.294	-0.198	-0.507	-0.528	-0.384	-0.663	-0.461	-0.663	-0.608	-58.594
-0.162	0.465	0.413	0.385	0.129	0.522	0.603	0.597	0.553	0.618	0.297	-0.278	-0.146	-0.102	-0.706	-0.053	-0.165	-0.254	-0.310	-0.278	-0.177	-0.407	-0.420	-0.298	-0.571	-0.339	-0.558	-0.556	-54.688
-0.164	0.451	0.343	0.315	0.054	0.427	0.452	0.341	0.301	0.483	0.239	-0.238	-0.144	-0.139	-0.633	-0.044	-0.010	-0.212	-0.165	-0.289	-0.179	-0.301	-0.307	-0.209	-0.461	-0.197	-0.424	-0.460	-50.781
-0.137	0.404	0.247	0.235	-0.037	0.314	0.282	0.095	0.062	0.335	0.196	-0.162	-0.149	-0.196	-0.498	-0.061	0.138	-0.183	-0.029	-0.331	-0.209	-0.206	-0.203	-0.124	-0.342	-0.045	-0.268	-0.324	-46.875
-0.089	0.335	0.132	0.146	-0.135	0.190	0.112	-0.119	-0.145	0.190	0.168	-0.055	-0.162	-0.266	-0.307	-0.103	0.248	-0.145	0.071	-0.402	-0.267	-0.136	-0.119	-0.051	-0.223	0.105	-0.103	-0.161	-42.969
-0.030	0.251	0.013	0.051	-0.233	0.062	-0.042	-0.283	-0.301	0.065	0.156	0.072	-0.184	-0.345	-0.070	-0.163	0.296	-0.074	0.114	-0.497	-0.349	-0.102	-0.058	-0.002	-0.110	0.236	0.053	0.011	-39.062
0.029	0.160	-0.093	-0.050	-0.326	-0.061	-0.169	-0.384	-0.400	-0.028	0.159	0.206	-0.222	-0.428	0.197	-0.234	0.270	0.048	0.091	-0.603	-0.446	-0.107	-0.019	0.014	-0.013	0.336	0.182	0.171	-35.156
0.084	0.066	-0.165	-0.156	-0.408	-0.172	-0.260	-0.416	-0.438	-0.082	0.177	0.338	-0.281	-0.511	0.470	-0.308	0.172	0.222	0.005	-0.707	-0.547	-0.151	0.001	-0.011	0.062	0.395	0.270	0.302	-31.250
0.135	-0.029	-0.190	-0.264	-0.476	-0.263	-0.315	-0.379	-0.422	-0.094	0.211	0.456	-0.368	-0.592	0.723	-0.378	0.024	0.431	-0.129	-0.797	-0.641	-0.227	0.010	-0.078	0.112	0.409	0.307	0.393	-27.344
0.181	-0.122	-0.165	-0.367	-0.527	-0.328	-0.337	-0.281	-0.360	-0.068	0.260	0.557	-0.488	-0.669	0.927	-0.440	-0.144	0.642	-0.291	-0.867	-0.720	-0.323	0.010	-0.184	0.135	0.383	0.293	0.439	-23.438
0.220	-0.209	-0.099	-0.460	-0.563	-0.362	-0.332	-0.132	-0.263	-0.010	0.327	0.640	-0.638	-0.743	1.058	-0.496	-0.294	0.809	-0.454	-0.914	-0.780	-0.426	0.002	-0.319	0.137	0.329	0.238	0.447	-19.531
0.245	-0.281	-0.007	-0.535	-0.581	-0.365	-0.307	0.053	-0.144	0.070	0.411	0.706	-0.812	-0.812	1.097	-0.547	-0.398	0.887	-0.595	-0.942	-0.820	-0.524	-0.014	-0.466	0.127	0.264	0.157	0.429	-15.625
0.243	-0.332	0.092	-0.583	-0.584	-0.338	-0.273	0.262	-0.011	0.163	0.512	0.761	-0.997	-0.877	1.036	-0.600	-0.438	0.844	-0.700	-0.961	-0.845	-0.607	-0.043	-0.607	0.114	0.205	0.069	0.403	-11.719
0.198	-0.351	0.183	-0.598	-0.572	-0.282	-0.234	0.482	0.125	0.257	0.628	0.808	-1.177	-0.940	0.881	-0.659	-0.415	0.673	-0.765	-0.979	-0.863	-0.671	-0.086	-0.723	0.109	0.167	-0.010	0.382	-7.812
0.102	-0.335	0.259	-0.579	-0.545	-0.203	-0.197	0.698	0.259	0.341	0.751	0.850	-1.336	-1.002	0.656	-0.727	-0.350	0.402	-0.794	-1.006	-0.883	-0.715	-0.142	-0.801	0.116	0.158	-0.073	0.377	-3.906
-0.039	-0.284	0.321	-0.526	-0.508	-0.108	-0.167	0.900	0.383	0.407	0.873	0.886	-1.461	-1.065	0.399	-0.805	-0.278	0.092	-0.803	-1.049	-0.914	-0.744	-0.209	-0.839	0.137	0.177	-0.122	0.389	0.000
-0.203	-0.206	0.376	-0.449	-0.465	-0.007	-0.146	1.075	0.491	0.447	0.982	0.911	-1.546	-1.132	0.159	-0.888	-0.237	-0.179	-0.810	-1.111	-0.961	-0.765	-0.281	-0.842	0.167	0.215	-0.166	0.410	3.906
-0.350	-0.115	0.435	-0.357	-0.421	0.094	-0.137	1.214	0.578	0.457	1.064	0.920	-1.590	-1.207	-0.018	-0.968	-0.259	-0.332	-0.829	-1.187	-1.030	-0.786	-0.351	-0.824	0.196	0.256	-0.223	0.426	7.812
-0.436	-0.030	0.502	-0.263	-0.384	0.185	-0.140	1.312	0.643	0.440	1.113	0.906	-1.599	-1.290	-0.099	-1.034	-0.356	-0.322	-0.869	-1.270	-1.116	-0.814	-0.412	-0.803	0.212	0.284	-0.309	0.423	11.719
-0.430	0.036	0.579	-0.178	-0.356	0.263	-0.151	1.369	0.688	0.400	1.123	0.865	-1.579	-1.379	-0.075	-1.074	-0.515	-0.143	-0.928	-1.344	-1.213	-0.850	-0.461	-0.795	0.207	0.284	-0.435	0.386	15.625
-0.323	0.073	0.657	-0.106	-0.337	0.327	-0.167	1.390	0.715	0.348	1.099	0.796	-1.538	-1.466	0.031	-1.080	-0.698	0.158	-0.993	-1.396	-1.306	-0.892	-0.494	-0.812	0.175	0.249	-0.600	0.310	19.531
-0.137	0.086	0.726	-0.048	-0.324	0.379	-0.181	1.384	0.728	0.293	1.048	0.702	-1.484	-1.541	0.175	-1.045	-0.854	0.503	-1.044	-1.408	-1.378	-0.933	-0.512	-0.858	0.122	0.181	-0.795	0.197	23.438
0.083	0.086	0.772	0.001	-0.310	0.420	-0.189	1.360	0.732	0.244	0.981	0.589	-1.423	-1.591	0.300	-0.970	-0.926	0.800	-1.061	-1.370	-1.413	-0.964	-0.515	-0.929	0.056	0.085	-1.004	0.056	27.344
0.277	0.089	0.786	0.048	-0.291	0.453	-0.192	1.328	0.727	0.207	0.909	0.467	-1.359	-1.607	0.356	-0.862	-0.875	0.976	-1.029	-1.279	-1.399	-0.975	-0.506	-1.012	-0.007	-0.024	-1.203	-0.096	31.250
0.394	0.107	0.767	0.097	-0.263	0.476	-0.189	1.292	0.712	0.180	0.839	0.343	-1.297	-1.586	0.318	-0.732	-0.690	0.992	-0.944	-1.140	-1.331	-0.961	-0.486	-1.095	-0.054	-0.135	-1.371	-0.240	35.156
0.404	0.145	0.723	0.145	-0.229	0.485	-0.186	1.255	0.683	0.163	0.777	0.228	-1.241	-1.533	0.194	-0.596	-0.391	0.855	-0.815	-0.969	-1.216	-0.920	-0.455	-1.162	-0.073	-0.230	-1.486	-0.359	39.062
0.308	0.195	0.665	0.185	-0.197	0.473	-0.190	1.214	0.635	0.149	0.722	0.128	-1.194	-1.460	0.023	-0.470	-0.027	0.615	-0.663	-0.787	-1.067	-0.859	-0.414	-1.199	-0.063	-0.297	-1.535	-0.435	42.969
0.134	0.236	0.608	0.208	-0.177	0.435	-0.204	1.164	0.565	0.135	0.671	0.045	-1.159	-1.384	-0.137	-0.370	0.334	0.343	-0.514	-0.619	-0.907	-0.787	-0.363	-1.200	-0.027	-0.324	-1.509	-0.458	46.875
-0.066	0.247	0.564	0.203	-0.181	0.366	-0.234	1.096	0.471	0.117	0.620	-0.019	-1.139	-1.321	-0.228	-0.305	0.628	0.115	-0.393	-0.488	-0.757	-0.714	-0.304	-1.160	0.026	-0.300	-1.406	-0.419	50.781
-0.240	0.206	0.534	0.163	-0.218	0.266	-0.276	1.005	0.355	0.095	0.564	-0.068	-1.135	-1.284	-0.206	-0.280	0.804	-0.011	-0.316	-0.408	-0.640	-0.652	-0.240	-1.082	0.083	-0.219	-1.231	-0.316	54.688
-0.343	0.105	0.508	0.089	-0.294	0.136	-0.327	0.888	0.222	0.071	0.503	-0.102	-1.145	-1.279	-0.062	-0.290	0.842	-0.012	-0.289	-0.383	-0.567	-0.606	-0.176	-0.973	0.137	-0.073	-0.991	-0.145	58.594
-0.352	-0.057	0.471	-0.013	-0.408	-0.019	-0.377	0.747	0.085	0.053	0.442	-0.121	-1.165	-1.306	0.178	-0.329	0.749	0.106	-0.307	-0.410	-0.544	-0.582	-0.119	-0.839	0.184	0.142	-0.698	0.092	62.500
-0.272	-0.268	0.401	-0.136	-0.558	-0.190	-0.416	0.590	-0.038	0.053	0.392	-0.121	-1.193	-1.360	0.460	-0.389	0.559	0.306	-0.358	-0.477	-0.567	-0.581	-0.078	-0.691	0.226	0.425	-0.366	0.391	66.406
-0.137	-0.512	0.278	-0.269	-0.734	-0.370	-0.432	0.430	-0.128	0.083	0.371	-0.093	-1.224	-1.432	0.711	-0.462	0.321	0.536	-0.425	-0.571	-0.629	-0.601	-0.062	-0.536	0.271	0.775	-0.004	0.748	70.312
-0.004	-0.769	0.090	-0.409	-0.928	-0.552	-0.418	0.286	-0.160	0.158	0.401	-0.024	-1.252	-1.516	0.861	-0.545	0.088	0.745	-0.492	-0.680	-0.716	-0.639	-0.078	-0.381	0.328	1.184	0.376	1.152	74.219
0.054	-1.021	-0.170	-0.556	-1.130	-0.730	-0.366	0.176	-0.112	0.292	0.506	0.098	-1.273	-1.605	0.864	-0.638	-0.102	0.888	-0.549	-0.796	-0.820	-0.692	-0.128	-0.228	0.409	1.643	0.769	1.595	78.125
-0.030	-1.258	-0.495	-0.714	-1.333	-0.904	-0.278	0.118	0.034	0.494	0.704	0.286	-1.280	-1.697	0.703	-0.748	-0.228	0.937	-0.594	-0.916	-0.930	-0.756	-0.206	-0.077	0.521	2.140	1.171	2.064	82.031
-0.299	-1.477	-0.869	-0.892	-1.528	-1.074	-0.153	0.127	0.291	0.771	1.008	0.544	-1.268	-1.790	0.399	-0.882	-0.292	0.878	-0.633	-1.046	-1.046	-0.829	-0.307	0.075	0.667	2.659	1.577	2.546	85.938
-0.754	-1.685	-1.268	-1.097	-1.711	-1.238	0.004	0.216	0.661	1.123	1.417	0.871	-1.232	-1.885	0.004	-1.052	-0.324	0.714	-0.685	-1.195	-1.170	-0.912	-0.420	0.226	0.842	3.182	1.982	3.028	89.844
-1.352	-1.890	-1.661	-1.331	-1.876	-1.392	0.188	0.390	1.139	1.545	1.918	1.256	-1.168	-1.986	-0.417	-1.267	-0.367	0.461	-0.774	-1.377	-1.309	-1.013	-0.541	0.374	1.038	3.689	2.378	3.496	93.750
-2.008	-2.102	-2.015	-1.588	-2.016	-1.529	0.395	0.651	1.711	2.024	2.487	1.683	-1.079	-2.095	-0.804	-1.534	-0.467	0.143	-0.923	-1.603	-1.474	-1.140	-0.667	0.509	1.237	4.158	2.751	3.935	97.656
-2.621	-2.322	-2.302	-1.856	-2.127	-1.639	0.623	0.998	2.358	2.542	3.092	2.131	-0.970	-2.216	-1.118	-1.853	-0.660	-0.212	-1.151	-1.881	-1.671	-1.303	-0.802	0.620	1.422	4.567	3.084	4.331	101.562
-3.094	-2.543	-2.499	-2.114	-2.205	-1.711	0.869	1.422	3.055	3.078	3.695	2.577	-0.846	-2.351	-1.347	-2.216	-0.960	-0.578	-1.463	-2.210	-1.907	-1.510	-0.951	0.696	1.573	4.899	3.355	4.669	105.469
-3.361	-2.752	-2.596	-2.341	-2.248	-1.736	1.131	1.908	3.772	3.606	4.256	2.997	-0.719	-2.499	-1.499	-2.609	-1.357	-0.927	-1.850	-2.580	-2.178	-1.760	-1.120	0.724	1.676	5.140	3.548	4.937	109.375
-3.398	-2.931	-2.594	-2.517	-2.259	-1.709	1.404	2.433	4.479	4.100	4.739	3.370	-0.594	-2.654	-1.593	-3.009	-1.817	-1.233	-2.285	-2.975	-2.477	-2.043	-1.312	0.700	1.720	5.281	3.647	5.123	113.281
-3.229	-3.065	-2.509	-2.628	-2.240	-1.634	1.681	2.968	5.142	4.536	5.115	3.675	-0.477	-2.809	-1.640	-3.390	-2.291	-1.467	-2.731	-3.368	-2.783	-2.342	-1.523	0.623	1.701	5.319	3.645	5.216	117.188
-2.913	-3.143	-2.367	-2.669	-2.195	-1.519	1.951	3.475	5.725	4.890	5.362	3.893	-0.369	-2.947	-1.643	-3.720	-2.728	-1.602	-3.145	-3.728	-3.072	-2.631	-1.742	0.501	1.620	5.256	3.544	5.209	121.094
-2.531	-3.160	-2.196	-2.643	-2.129	-1.377	2.203	3.918	6.197	5.144	5.470	4.013	-0.266	-3.053	-1.594	-3.970	-3.075	-1.619	-3.481	-4.022	-3.313	-2.879	-1.953	0.349	1.482	5.093	3.356	5.099	125.000
-2.160	-3.125	-2.028	-2.562	-2.047	-1.225	2.418	4.260	6.526	5.286	5.436	4.025	-0.163	-3.109	-1.482	-4.114	-3.292	-1.515	-3.701	-4.219	-3.476	-3.056	-2.133	0.183	1.296	4.839	3.098	4.890	128.906
-1.857	-3.053	-1.886	-2.445	-1.951	-1.082	2.582	4.473	6.689	5.309	5.273	3.932	-0.054	-3.100	-1.304	-4.134	-3.349	-1.307	-3.775	-4.295	-3.538	-3.135	-2.259	0.024	1.071	4.501	2.795	4.593	132.812
-1.648	-2.966	-1.785	-2.314	-1.849	-0.964	2.678	4.541	6.673	5.213	4.997	3.744	0.064	-3.019	-1.069	-4.024	-3.236	-1.028	-3.687	-4.240	-3.482	-3.098	-2.311	-0.112	0.820	4.090	2.474	4.226	136.719
-1.531	-2.883	-1.730	-2.188	-1.746	-0.881	2.694	4.462	6.477	5.005	4.638	3.483	0.188	-2.866	-0.798	-3.791	-2.960	-0.724	-3.440	-4.054	-3.310	-2.941	-2.273	-0.211	0.558	3.626	2.160	3.814	140.625
-1.482	-2.813	-1.719	-2.082	-1.650	-0.843	2.622	4.246	6.115	4.702	4.227	3.179	0.314	-2.651	-0.529	-3.456	-2.548	-0.441	-3.054	-3.755	-3.033	-2.672	-2.143	-0.267	0.298	3.131	1.876	3.389	144.531
-1.474	-2.754	-1.744	-2.000	-1.568	-0.849	2.464	3.918	5.618	4.325	3.801	2.865	0.427	-2.395	-0.301	-3.053	-2.041	-0.215	-2.563	-3.369	-2.676	-2.313	-1.928	-0.283	0.057	2.637	1.640	2.982	148.438
-1.484	-2.696	-1.798	-1.941	-1.509	-0.896	2.230	3.512	5.032	3.903	3.397	2.577	0.514	-2.121	-0.155	-2.619	-1.485	-0.072	-2.012	-2.936	-2.274	-1.899	-1.648	-0.265	-0.153	2.178	1.463	2.624	152.344
-1.500	-2.624	-1.875	-1.898	-1.480	-0.976	1.938	3.068	4.413	3.472	3.051	2.347	0.556	-1.860	-0.114	-2.198	-0.931	-0.015	-1.452	-2.495	-1.867	-1.473	-1.334	-0.227	-0.318	1.791	1.351	2.344	156.250
-1.524	-2.533	-1.969	-1.865	-1.488	-1.082	1.613	2.630	3.827	3.071	2.792	2.198	0.539	-1.639	-0.181	-1.828	-0.424	-0.036	-0.936	-2.090	-1.493	-1.077	-1.020	-0.185	-0.432	1.507	1.307	2.164	160.156
-1.565	-2.429	-2.079	-1.842	-1.538	-1.208	1.285	2.238	3.335	2.736	2.647	2.147	0.453	-1.483	-0.335	-1.542	-0.002	-0.115	-0.508	-1.757	-1.188	-0.753	-0.743	-0.152	-0.487	1.353	1.331	2.102	164.062
-1.635	-2.332	-2.206	-1.834	-1.635	-1.351	0.982	1.927	2.989	2.501	2.631	2.199	0.296	-1.408	-0.533	-1.361	0.303	-0.227	-0.204	-1.526	-0.978	-0.533	-0.536	-0.137	-0.480	1.345	1.421	2.166	167.969
-1.738	-2.271	-2.350	-1.852	-1.780	-1.512	0.727	1.719	2.825	2.391	2.751	2.348	0.072	-1.423	-0.722	-1.295	0.472	-0.347	-0.047	-1.413	-0.880	-0.434	-0.420	-0.143	-0.411	1.485	1.579	2.356	171.875
-1.874	-2.281	-2.514	-1.911	-1.973	-1.695	0.541	1.627	2.858	2.419	3.000	2.582	-0.203	-1.526	-0.853	-1.342	0.495	-0.455	-0.042	-1.425	-0.896	-0.459	-0.404	-0.166	-0.284	1.764	1.803	2.664	175.781
-2.036	-2.388	-2.699	-2.025	-2.206	-1.901	0.435	1.653	3.081	2.584	3.364	2.880	-0.506	-1.704	-0.897	-1.493	0.375	-0.539	-0.179	-1.553	-1.017	-0.596	-0.482	-0.195	-0.105	2.163	2.089	3.074	179.688
-2.217	-2.606	-2.906	-2.201	-2.467	-2.131	0.414	1.788	3.468	2.876	3.819	3.221	-0.813	-1.938	-0.849	-1.727	0.129	-0.592	-0.432	-1.781	-1.224	-0.819	-0.637	-0.217	0.113	2.651	2.433	3.564	183.594
-2.411	-2.935	-3.134	-2.442	-2.741	-2.377	0.476	2.015	3.985	3.273	4.336	3.586	-1.096	-2.200	-0.735	-2.023	-0.217	-0.614	-0.768	-2.083	-1.491	-1.094	-0.840	-0.215	0.356	3.196	2.824	4.112	187.500
-2.619	-3.356	-3.383	-2.740	-3.009	-2.627	0.616	2.316	4.588	3.747	4.888	3.959	-1.332	-2.463	-0.604	-2.359	-0.629	-0.612	-1.146	-2.430	-1.788	-1.384	-1.060	-0.176	0.610	3.767	3.249	4.695	191.406
-2.845	-3.841	-3.654	-3.082	-3.252	-2.864	0.823	2.666	5.238	4.272	5.445	4.328	-1.507	-2.701	-0.512	-2.714	-1.066	-0.600	-1.529	-2.794	-2.088	-1.655	-1.268	-0.089	0.863	4.337	3.695	5.293	195.312
-3.096	-4.354	-3.945	-3.451	-3.459	-3.070	1.081	3.045	5.898	4.818	5.983	4.689	-1.613	-2.897	-0.507	-3.074	-1.496	-0.593	-1.887	-3.153	-2.371	-1.882	-1.442	0.052	1.106	4.892	4.153	5.893	199.219
-3.378	-4.863	-4.255	-3.827	-3.622	-3.234	1.373	3.430	6.541	5.361	6.484	5.039	-1.653	-3.045	-0.617	-3.431	-1.892	-0.604	-2.198	-3.496	-2.625	-2.049	-1.567	0.247	1.340	5.426	4.617	6.490	203.125
-3.689	-5.342	-4.579	-4.197	-3.744	-3.352	1.676	3.802	7.147	5.878	6.933	5.380	-1.636	-3.150	-0.839	-3.785	-2.245	-0.640	-2.457	-3.820	-2.849	-2.155	-1.639	0.491	1.569	5.948	5.086	7.083	207.031
-4.023	-5.778	-4.912	-4.548	-3.835	-3.431	1.973	4.148	7.701	6.353	7.323	5.712	-1.578	-3.226	-1.146	-4.140	-2.555	-0.704	-2.667	-4.131	-3.053	-2.205	-1.659	0.775	1.805	6.468	5.564	7.672	210.938
-4.366	-6.170	-5.248	-4.874	-3.910	-3.487	2.246	4.459	8.199	6.774	7.651	6.035	-1.495	-3.294	-1.493	-4.505	-2.831	-0.792	-2.836	-4.442	-3.249	-2.214	-1.632	1.089	2.060	7.005	6.056	8.258	214.844
-4.697	-6.525	-5.584	-5.175	-3.985	-3.537	2.485	4.730	8.637	7.137	7.918	6.348	-1.403	-3.372	-1.837	-4.885	-3.086	-0.902	-2.977	-4.766	-3.453	-2.197	-1.567	1.419	2.349	7.569	6.565	8.836	218.750
-4.997	-6.856	-5.916	-5.455	-4.075	-3.601	2.686	4.961	9.017	7.443	8.131	6.648	-1.313	-3.474	-2.140	-5.285	-3.326	-1.035	-3.099	-5.114	-3.674	-2.168	-1.473	1.754	2.681	8.170	7.091	9.397	222.656
-5.245	-7.178	-6.247	-5.720	-4.191	-3.693	2.849	5.155	9.341	7.694	8.298	6.931	-1.234	-3.605	-2.385	-5.703	-3.556	-1.196	-3.209	-5.490	-3.919	-2.139	-1.357	2.081	3.062	8.806	7.631	9.925	226.562
-5.427	-7.502	-6.573	-5.979	-4.341	-3.819	2.980	5.313	9.613	7.898	8.425	7.195	-1.172	-3.763	-2.568	-6.133	-3.773	-1.387	-3.314	-5.892	-4.185	-2.115	-1.228	2.391	3.490	9.471	8.174	10.408	230.469
-5.538	-7.837	-6.890	-6.237	-4.523	-3.975	3.082	5.438	9.831	8.060	8.522	7.434	-1.133	-3.939	-2.691	-6.566	-3.974	-1.605	-3.418	-6.311	-4.466	-2.102	-1.097	2.676	3.957	10.148	8.705	10.832	234.375
-5.582	-8.181	-7.186	-6.496	-4.734	-4.153	3.158	5.528	9.995	8.183	8.592	7.647	-1.120	-4.121	-2.759	-6.992	-4.160	-1.838	-3.531	-6.736	-4.751	-2.102	-0.974	2.931	4.449	10.820	9.207	11.192	238.281
-5.575	-8.525	-7.449	-6.751	-4.961	-4.336	3.210	5.585	10.103	8.268	8.639	7.828	-1.137	-4.295	-2.771	-7.401	-4.336	-2.065	-3.664	-7.151	-5.030	-2.120	-0.869	3.150	4.947	11.464	9.660	11.491	242.188
-5.541	-8.852	-7.663	-6.991	-5.188	-4.509	3.240	5.610	10.151	8.314	8.664	7.977	-1.186	-4.451	-2.729	-7.785	-4.509	-2.259	-3.825	-7.541	-5.290	-2.158	-0.794	3.332	5.430	12.058	10.045	11.733	246.094
-5.501	-9.142	-7.815	-7.203	-5.399	-4.657	3.247	5.603	10.139	8.322	8.667	8.090	-1.263	-4.579	-2.632	-8.138	-4.690	-2.394	-4.020	-7.891	-5.520	-2.217	-0.752	3.477	5.878	12.581	10.349	11.931	250.000
-5.466	-9.379	-7.899	-7.375	-5.576	-4.770	3.233	5.568	10.069	8.291	8.648	8.165	-1.360	-4.673	-2.487	-8.453	-4.887	-2.454	-4.247	-8.191	-5.711	-2.294	-0.744	3.589	6.275	13.019	10.566	12.092	253.906
-5.434	-9.554	-7.915	-7.501	-5.707	-4.842	3.204	5.508	9.948	8.226	8.607	8.203	-1.463	-4.729	-2.307	-8.729	-5.104	-2.435	-4.495	-8.432	-5.855	-2.384	-0.764	3.674	6.612	13.364	10.699	12.222	257.812
-5.391	-9.669	-7.875	-7.582	-5.785	-4.878	3.167	5.426	9.785	8.137	8.548	8.203	-1.553	-4.743	-2.114	-8.962	-5.337	-2.352	-4.745	-8.611	-5.944	-2.475	-0.803	3.742	6.884	13.616	10.760	12.322	261.719
-5.325	-9.735	-7.802	-7.628	-5.809	-4.885	3.132	5.330	9.595	8.035	8.473	8.169	-1.612	-4.710	-1.941	-9.149	-5.576	-2.229	-4.975	-8.724	-5.973	-2.555	-0.849	3.804	7.093	13.787	10.771	12.390	265.625
-5.236	-9.764	-7.725	-7.648	-5.783	-4.876	3.111	5.227	9.395	7.938	8.391	8.109	-1.621	-4.626	-1.825	-9.289	-5.804	-2.097	-5.158	-8.770	-5.936	-2.607	-0.892	3.875	7.243	13.890	10.760	12.425	269.531
-5.144	-9.766	-7.675	-7.651	-5.716	-4.866	3.116	5.125	9.202	7.863	8.309	8.033	-1.563	-4.483	-1.807	-9.379	-6.001	-1.987	-5.276	-8.749	-5.830	-2.620	-0.925	3.967	7.336	13.947	10.755	12.430	273.438
-5.092	-9.749	-7.679	-7.642	-5.616	-4.866	3.157	5.032	9.034	7.827	8.237	7.953	-1.429	-4.277	-1.913	-9.419	-6.150	-1.922	-5.316	-8.660	-5.651	-2.585	-0.946	4.089	7.376	13.974	10.781	12.410	277.344
-5.127	-9.715	-7.754	-7.620	-5.491	-4.887	3.240	4.951	8.902	7.843	8.182	7.881	-1.215	-4.005	-2.155	-9.409	-6.241	-1.918	-5.274	-8.506	-5.402	-2.498	-0.956	4.247	7.364	13.987	10.855	12.376	281.250
-5.291	-9.667	-7.905	-7.584	-5.349	-4.931	3.366	4.881	8.812	7.918	8.149	7.828	-0.923	-3.668	-2.516	-9.352	-6.269	-1.979	-5.159	-8.291	-5.086	-2.360	-0.954	4.440	7.298	13.996	10.987	12.343	285.156
-5.596	-9.609	-8.121	-7.532	-5.197	-4.997	3.530	4.818	8.766	8.052	8.139	7.803	-0.560	-3.271	-2.963	-9.254	-6.241	-2.108	-4.982	-8.024	-4.714	-2.179	-0.945	4.664	7.182	14.002	11.173	12.325	289.062
-6.025	-9.546	-8.381	-7.466	-5.041	-5.080	3.722	4.755	8.754	8.236	8.147	7.805	-0.141	-2.829	-3.452	-9.122	-6.164	-2.302	-4.760	-7.715	-4.300	-1.965	-0.928	4.908	7.020	14.005	11.407	12.333	292.969
-6.533	-9.486	-8.659	-7.390	-4.887	-5.170	3.928	4.683	8.768	8.455	8.170	7.835	0.316	-2.360	-3.939	-8.964	-6.050	-2.557	-4.509	-7.376	-3.864	-1.730	-0.905	5.162	6.823	14.001	11.670	12.372	296.875
-7.060	-9.435	-8.926	-7.309	-4.740	-5.260	4.134	4.598	8.793	8.688	8.198	7.887	0.789	-1.887	-4.390	-8.790	-5.910	-2.865	-4.245	-7.022	-3.427	-1.488	-0.877	5.414	6.602	13.987	11.945	12.444	300.781
-7.551	-9.393	-9.158	-7.230	-4.607	-5.342	4.328	4.500	8.816	8.917	8.224	7.954	1.256	-1.434	-4.789	-8.608	-5.753	-3.210	-3.978	-6.669	-3.013	-1.254	-0.844	5.654	6.376	13.961	12.212	12.541	304.688
-7.969	-9.360	-9.340	-7.156	-4.491	-5.412	4.500	4.396	8.831	9.126	8.245	8.032	1.694	-1.024	-5.128	-8.424	-5.590	-3.566	-3.722	-6.330	-2.644	-1.039	-0.811	5.875	6.159	13.923	12.455	12.652	308.594
-8.298	-9.329	-9.462	-7.093	-4.397	-5.465	4.645	4.295	8.831	9.305	8.259	8.115	2.084	-0.675	-5.412	-8.244	-5.434	-3.901	-3.488	-6.016	-2.335	-0.854	-0.783	6.073	5.966	13.875	12.661	12.763	312.500
-8.548	-9.295	-9.528	-7.040	-4.326	-5.504	4.763	4.208	8.816	9.451	8.265	8.202	2.410	-0.399	-5.643	-8.071	-5.300	-4.174	-3.288	-5.737	-2.098	-0.710	-0.768	6.243	5.807	13.820	12.822	12.860	316.406
-8.743	-9.250	-9.548	-6.998	-4.279	-5.527	4.854	4.145	8.788	9.566	8.265	8.288	2.666	-0.198	-5.821	-7.907	-5.203	-4.354	-3.134	-5.496	-1.937	-0.612	-0.775	6.385	5.689	13.762	12.936	12.934	320.312
-8.917	-9.185	-9.538	-6.960	-4.253	-5.535	4.923	4.115	8.747	9.656	8.257	8.369	2.851	-0.068	-5.946	-7.753	-5.151	-4.422	-3.031	-5.295	-1.851	-0.563	-0.808	6.499	5.614	13.704	13.006	12.979	324.219
-9.098	-9.090	-9.517	-6.917	-4.243	-5.528	4.975	4.119	8.697	9.724	8.241	8.439	2.974	0.002	-6.027	-7.607	-5.143	-4.382	-2.977	-5.128	-1.828	-0.557	-0.866	6.586	5.578	13.647	13.039	12.996	328.125
-9.306	-8.953	-9.503	-6.857	-4.238	-5.505	5.015	4.156	8.638	9.774	8.213	8.491	3.047	0.028	-6.080	-7.465	-5.166	-4.264	-2.959	-4.987	-1.852	-0.584	-0.941	6.647	5.576	13.590	13.043	12.984	332.031
-9.541	-8.769	-9.507	-6.771	-4.228	-5.463	5.047	4.218	8.571	9.805	8.169	8.517	3.088	0.026	-6.133	-7.324	-5.196	-4.114	-2.957	-4.865	-1.905	-0.626	-1.020	6.684	5.599	13.532	13.028	12.945	335.938
-9.791	-8.537	-9.528	-6.651	-4.200	-5.403	5.074	4.296	8.496	9.813	8.106	8.511	3.111	0.014	-6.222	-7.179	-5.205	-3.990	-2.947	-4.751	-1.966	-0.666	-1.084	6.700	5.636	13.465	12.999	12.879	339.844
-10.030	-8.267	-9.552	-6.495	-4.145	-5.322	5.098	4.380	8.416	9.792	8.023	8.472	3.131	0.003	-6.374	-7.027	-5.170	-3.936	-2.910	-4.638	-2.019	-0.687	-1.119	6.696	5.675	13.382	12.959	12.786	343.750
-10.226	-7.975	-9.557	-6.307	-4.055	-5.221	5.119	4.464	8.334	9.739	7.927	8.403	3.160	0.002	-6.599	-6.867	-5.084	-3.979	-2.838	-4.524	-2.049	-0.682	-1.117	6.673	5.705	13.273	12.905	12.665	347.656
-10.351	-7.687	-9.517	-6.099	-3.929	-5.100	5.138	4.540	8.254	9.655	7.825	8.315	3.203	0.014	-6.883	-6.703	-4.958	-4.118	-2.735	-4.405	-2.048	-0.651	-1.076	6.632	5.713	13.129	12.833	12.516	351.562
-10.389	-7.426	-9.409	-5.882	-3.768	-4.963	5.153	4.610	8.183	9.548	7.731	8.220	3.265	0.042	-7.191	-6.536	-4.824	-4.326	-2.621	-4.283	-2.011	-0.601	-1.006	6.572	5.689	12.941	12.732	12.338	355.469
-10.335	-7.211	-9.223	-5.669	-3.580	-4.815	5.166	4.675	8.125	9.429	7.659	8.134	3.346	0.086	-7.477	-6.373	-4.720	-4.561	-2.520	-4.158	-1.940	-0.546	-0.922	6.495	5.624	12.703	12.593	12.133	359.375
-10.199	-7.049	-8.965	-5.470	-3.371	-4.660	5.177	4.741	8.087	9.313	7.621	8.069	3.445	0.146	-7.699	-6.219	-4.678	-4.775	-2.458	-4.031	-1.839	-0.498	-0.842	6.402	5.514	12.416	12.410	11.905	363.281
-10.005	-6.936	-8.659	-5.288	-3.154	-4.507	5.186	4.812	8.070	9.212	7.622	8.032	3.559	0.221	-7.833	-6.075	-4.715	-4.934	-2.448	-3.907	-1.715	-0.467	-0.781	6.297	5.360	12.084	12.179	11.659	367.188
-9.786	-6.854	-8.338	-5.126	-2.938	-4.361	5.192	4.892	8.074	9.137	7.662	8.023	3.683	0.311	-7.881	-5.943	-4.819	-5.021	-2.486	-3.785	-1.577	-0.455	-0.748	6.184	5.169	11.719	11.905	11.401	371.094
-9.580	-6.781	-8.044	-4.980	-2.733	-4.230	5.196	4.981	8.092	9.089	7.729	8.031	3.810	0.415	-7.867	-5.819	-4.955	-5.047	-2.554	-3.668	-1.432	-0.454	-0.744	6.071	4.956	11.339	11.598	11.140	375.000
-9.425	-6.699	-7.812	-4.849	-2.549	-4.115	5.197	5.077	8.119	9.064	7.809	8.043	3.933	0.532	-7.827	-5.701	-5.071	-5.040	-2.622	-3.558	-1.288	-0.455	-0.763	5.964	4.739	10.967	11.276	10.881	378.906
-9.345	-6.594	-7.667	-4.731	-2.394	-4.015	5.193	5.174	8.147	9.053	7.884	8.042	4.044	0.659	-7.793	-5.583	-5.123	-5.029	-2.657	-3.455	-1.151	-0.442	-0.795	5.869	4.539	10.626	10.962	10.632	382.812
-9.352	-6.469	-7.615	-4.630	-2.277	-3.928	5.184	5.265	8.172	9.046	7.936	8.014	4.134	0.792	-7.785	-5.465	-5.082	-5.032	-2.637	-3.363	-1.025	-0.405	-0.828	5.789	4.375	10.338	10.676	10.399	386.719
-9.434	-6.340	-7.646	-4.550	-2.201	-3.846	5.172	5.346	8.191	9.032	7.954	7.949	4.195	0.927	-7.802	-5.349	-4.951	-5.041	-2.555	-3.281	-0.913	-0.342	-0.851	5.726	4.259	10.115	10.434	10.185	390.625
-9.560	-6.229	-7.735	-4.496	-2.168	-3.765	5.159	5.412	8.207	9.008	7.933	7.840	4.226	1.057	-7.826	-5.242	-4.763	-5.026	-2.423	-3.214	-0.817	-0.256	-0.858	5.677	4.197	9.959	10.246	9.989	394.531
-9.688	-6.162	-7.846	-4.471	-2.174	-3.681	5.152	5.460	8.223	8.975	7.873	7.691	4.229	1.178	-7.829	-5.150	-4.568	-4.940	-2.268	-3.163	-0.738	-0.158	-0.845	5.640	4.183	9.863	10.111	9.808	398.438
-9.775	-6.155	-7.944	-4.473	-2.208	-3.593	5.156	5.493	8.244	8.938	7.780	7.506	4.213	1.289	-7.790	-5.084	-4.419	-4.746	-2.124	-3.128	-0.674	-0.061	-0.813	5.614	4.205	9.810	10.022	9.636	402.344
-9.792	-6.211	-7.998	-4.496	-2.257	-3.502	5.178	5.512	8.271	8.904	7.661	7.294	4.194	1.392	-7.701	-5.046	-4.354	-4.427	-2.016	-3.106	-0.619	0.025	-0.758	5.596	4.244	9.776	9.964	9.466	406.250
-9.728	-6.316	-7.989	-4.528	-2.305	-3.411	5.224	5.518	8.302	8.882	7.522	7.064	4.189	1.490	-7.577	-5.033	-4.382	-4.006	-1.959	-3.092	-0.568	0.094	-0.680	5.587	4.282	9.738	9.919	9.288	410.156
-9.599	-6.440	-7.914	-4.554	-2.333	-3.322	5.294	5.517	8.330	8.874	7.367	6.823	4.212	1.589	-7.449	-5.034	-4.480	-3.542	-1.946	-3.077	-0.509	0.149	-0.575	5.586	4.299	9.674	9.867	9.094	414.062
-9.442	-6.540	-7.780	-4.559	-2.328	-3.234	5.386	5.509	8.346	8.880	7.193	6.572	4.275	1.697	-7.358	-5.031	-4.600	-3.117	-1.956	-3.048	-0.434	0.197	-0.443	5.591	4.284	9.568	9.789	8.878	417.969
-9.307	-6.572	-7.607	-4.528	-2.281	-3.142	5.495	5.495	8.339	8.890	6.996	6.312	4.377	1.816	-7.344	-5.004	-4.678	-2.819	-1.956	-2.992	-0.333	0.252	-0.284	5.597	4.230	9.412	9.670	8.633	421.875
-9.239	-6.498	-7.422	-4.449	-2.185	-3.041	5.609	5.477	8.296	8.892	6.768	6.037	4.509	1.949	-7.425	-4.933	-4.657	-2.712	-1.914	-2.897	-0.197	0.324	-0.103	5.595	4.140	9.205	9.496	8.352	425.781
-9.270	-6.300	-7.247	-4.315	-2.040	-2.921	5.715	5.449	8.206	8.866	6.502	5.739	4.652	2.093	-7.593	-4.806	-4.501	-2.821	-1.804	-2.754	-0.023	0.421	0.092	5.575	4.018	8.950	9.261	8.033	429.688
-9.401	-5.978	-7.096	-4.123	-1.853	-2.776	5.798	5.407	8.057	8.793	6.191	5.409	4.781	2.243	-7.810	-4.619	-4.200	-3.116	-1.618	-2.559	0.189	0.546	0.289	5.528	3.873	8.656	8.962	7.674	433.594
-9.602	-5.560	-6.972	-3.879	-1.632	-2.607	5.841	5.341	7.840	8.653	5.829	5.040	4.871	2.390	-8.014	-4.377	-3.776	-3.520	-1.362	-2.316	0.435	0.697	0.471	5.444	3.716	8.328	8.601	7.274	437.500
-9.813	-5.091	-6.862	-3.595	-1.391	-2.416	5.829	5.241	7.548	8.431	5.415	4.628	4.900	2.523	-8.134	-4.096	-3.275	-3.922	-1.057	-2.032	0.704	0.863	0.628	5.319	3.551	7.973	8.184	6.838	441.406
-9.956	-4.624	-6.742	-3.287	-1.147	-2.210	5.752	5.097	7.180	8.120	4.956	4.177	4.855	2.629	-8.107	-3.793	-2.755	-4.204	-0.735	-1.725	0.981	1.033	0.749	5.152	3.382	7.590	7.720	6.370	445.312
-9.956	-4.210	-6.583	-2.976	-0.914	-1.998	5.603	4.907	6.741	7.720	4.460	3.699	4.730	2.696	-7.896	-3.491	-2.274	-4.267	-0.427	-1.412	1.247	1.193	0.832	4.945	3.207	7.182	7.221	5.879	449.219
-9.760	-3.885	-6.360	-2.681	-0.706	-1.786	5.383	4.676	6.248	7.243	3.946	3.211	4.532	2.714	-7.502	-3.207	-1.874	-4.060	-0.161	-1.111	1.485	1.329	0.878	4.704	3.020	6.746	6.698	5.377	453.125
-9.354	-3.664	-6.058	-2.418	-0.532	-1.580	5.102	4.416	5.722	6.708	3.434	2.737	4.278	2.679	-6.958	-2.955	-1.577	-3.587	0.048	-0.838	1.679	1.434	0.898	4.435	2.818	6.285	6.165	4.877	457.031
-8.772	-3.538	-5.678	-2.196	-0.394	-1.381	4.775	4.148	5.195	6.143	2.949	2.305	3.989	2.592	-6.325	-2.741	-1.384	-2.909	0.195	-0.604	1.819	1.502	0.903	4.147	2.598	5.804	5.636	4.394	460.938
-8.087	-3.478	-5.237	-2.018	-0.288	-1.191	4.424	3.895	4.697	5.579	2.516	1.937	3.689	2.460	-5.677	-2.563	-1.276	-2.130	0.288	-0.414	1.901	1.534	0.905	3.847	2.360	5.316	5.127	3.945	464.844
-7.393	-3.444	-4.770	-1.874	-0.206	-1.009	4.075	3.679	4.257	5.045	2.156	1.652	3.401	2.296	-5.084	-2.416	-1.223	-1.372	0.342	-0.266	1.932	1.538	0.914	3.546	2.110	4.834	4.650	3.545	468.750
-6.784	-3.393	-4.321	-1.751	-0.135	-0.839	3.749	3.514	3.897	4.568	1.885	1.461	3.141	2.118	-4.600	-2.290	-1.192	-0.755	0.379	-0.152	1.924	1.521	0.932	3.251	1.858	4.374	4.215	3.204	472.656
-6.332	-3.289	-3.931	-1.629	-0.063	-0.681	3.467	3.406	3.627	4.164	1.709	1.361	2.921	1.942	-4.259	-2.174	-1.152	-0.367	0.420	-0.058	1.895	1.496	0.961	2.970	1.613	3.952	3.829	2.929	476.562
-6.067	-3.114	-3.630	-1.493	0.021	-0.539	3.237	3.351	3.442	3.838	1.623	1.340	2.744	1.784	-4.067	-2.056	-1.080	-0.254	0.480	0.030	1.865	1.473	0.996	2.711	1.385	3.576	3.494	2.714	480.469
-5.978	-2.871	-3.432	-1.330	0.123	-0.415	3.060	3.333	3.327	3.586	1.610	1.378	2.607	1.657	-4.007	-1.925	-0.962	-0.407	0.570	0.128	1.850	1.461	1.034	2.478	1.181	3.250	3.204	2.547	484.375
-6.014	-2.583	-3.327	-1.139	0.240	-0.313	2.927	3.333	3.257	3.392	1.647	1.446	2.501	1.564	-4.042	-1.775	-0.798	-0.767	0.691	0.244	1.861	1.467	1.071	2.273	1.004	2.970	2.953	2.410	488.281
-6.100	-2.289	-3.289	-0.930	0.365	-0.234	2.823	3.330	3.204	3.236	1.706	1.516	2.413	1.505	-4.121	-1.607	-0.598	-1.238	0.834	0.384	1.899	1.493	1.103	2.096	0.855	2.729	2.732	2.281	492.188
-6.159	-2.031	-3.284	-0.719	0.482	-0.185	2.731	3.306	3.145	3.102	1.759	1.564	2.333	1.472	-4.188	-1.427	-0.381	-1.707	0.987	0.541	1.962	1.534	1.129	1.945	0.733	2.517	2.530	2.143	496.094
-6.128	-1.846	-3.280	-0.527	0.575	-0.171	2.634	3.253	3.064	2.973	1.786	1.572	2.249	1.454	-4.195	-1.246	-0.169	-2.067	1.132	0.706	2.036	1.587	1.148	1.815	0.635	2.324	2.339	1.983	500.000
-5.978	-1.751	-3.251	-0.376	0.624	-0.196	2.524	3.168	2.959	2.845	1.776	1.534	2.157	1.437	-4.107	-1.077	0.017	-2.239	1.254	0.864	2.110	1.645	1.161	1.701	0.560	2.141	2.149	1.801	503.906
-5.716	-1.745	-3.190	-0.280	0.619	-0.264	2.400	3.059	2.838	2.720	1.732	1.450	2.055	1.410	-3.913	-0.933	0.164	-2.184	1.343	1.004	2.171	1.703	1.170	1.596	0.504	1.962	1.955	1.601	507.812
-5.383	-1.802	-3.102	-0.244	0.554	-0.374	2.267	2.940	2.719	2.606	1.665	1.330	1.946	1.366	-3.623	-0.823	0.269	-1.914	1.398	1.113	2.211	1.755	1.180	1.495	0.464	1.783	1.753	1.395	511.719
-5.042	-1.889	-3.010	-0.263	0.438	-0.519	2.139	2.829	2.625	2.518	1.593	1.189	1.837	1.304	-3.271	-0.748	0.341	-1.482	1.427	1.190	2.227	1.803	1.198	1.392	0.436	1.604	1.543	1.194	515.625
-4.759	-1.969	-2.941	-0.326	0.287	-0.684	2.031	2.741	2.577	2.467	1.538	1.042	1.737	1.228	-2.902	-0.705	0.398	-0.975	1.441	1.235	2.223	1.844	1.229	1.287	0.415	1.427	1.328	1.009	519.531
-4.587	-2.013	-2.923	-0.414	0.123	-0.851	1.959	2.689	2.588	2.464	1.517	0.906	1.654	1.150	-2.564	-0.687	0.461	-0.491	1.457	1.255	2.208	1.881	1.279	1.179	0.398	1.257	1.113	0.846	523.438
-4.549	-2.015	-2.969	-0.511	-0.027	-1.001	1.930	2.678	2.663	2.512	1.538	0.792	1.596	1.082	-2.300	-0.685	0.550	-0.117	1.485	1.258	2.190	1.913	1.344	1.071	0.381	1.100	0.908	0.710	527.344
-4.636	-1.984	-3.077	-0.606	-0.142	-1.113	1.948	2.707	2.793	2.605	1.603	0.708	1.564	1.035	-2.133	-0.691	0.676	0.087	1.529	1.251	2.180	1.938	1.418	0.968	0.362	0.965	0.725	0.601	531.250
-4.809	-1.947	-3.226	-0.691	-0.206	-1.176	2.006	2.766	2.961	2.729	1.701	0.656	1.558	1.017	-2.071	-0.699	0.835	0.104	1.586	1.241	2.184	1.952	1.490	0.875	0.339	0.857	0.576	0.520	535.156
-5.008	-1.935	-3.380	-0.761	-0.214	-1.183	2.093	2.840	3.141	2.867	1.815	0.634	1.571	1.029	-2.101	-0.706	1.009	-0.044	1.640	1.231	2.202	1.950	1.546	0.796	0.310	0.779	0.471	0.467	539.062
-5.175	-1.968	-3.496	-0.813	-0.169	-1.137	2.190	2.911	3.303	2.997	1.924	0.636	1.596	1.066	-2.199	-0.712	1.172	-0.304	1.676	1.222	2.233	1.927	1.573	0.732	0.274	0.731	0.418	0.441	542.969
-5.263	-2.053	-3.542	-0.844	-0.080	-1.048	2.280	2.962	3.422	3.100	2.007	0.656	1.624	1.121	-2.333	-0.715	1.297	-0.607	1.681	1.217	2.272	1.882	1.563	0.684	0.231	0.708	0.415	0.441	546.875
-5.255	-2.172	-3.501	-0.848	0.039	-0.930	2.349	2.978	3.475	3.161	2.048	0.684	1.651	1.183	-2.471	-0.714	1.363	-0.884	1.648	1.217	2.312	1.820	1.516	0.648	0.179	0.699	0.457	0.460	550.781
-5.158	-2.296	-3.377	-0.821	0.172	-0.802	2.388	2.949	3.451	3.174	2.036	0.712	1.675	1.243	-2.586	-0.706	1.361	-1.082	1.581	1.225	2.348	1.748	1.438	0.620	0.118	0.692	0.532	0.491	554.688
-4.995	-2.391	-3.195	-0.761	0.303	-0.678	2.393	2.872	3.347	3.136	1.967	0.732	1.698	1.294	-2.655	-0.687	1.294	-1.168	1.493	1.243	2.378	1.674	1.342	0.593	0.047	0.674	0.621	0.522	558.594
-4.797	-2.428	-2.986	-0.671	0.418	-0.575	2.367	2.752	3.174	3.055	1.847	0.735	1.722	1.332	-2.660	-0.655	1.179	-1.133	1.401	1.269	2.401	1.611	1.242	0.564	-0.033	0.635	0.705	0.536	562.500
-4.590	-2.396	-2.783	-0.561	0.505	-0.500	2.315	2.597	2.947	2.940	1.685	0.717	1.752	1.355	-2.594	-0.608	1.041	-0.993	1.322	1.304	2.417	1.565	1.157	0.528	-0.120	0.569	0.766	0.520	566.406
-4.384	-2.301	-2.610	-0.443	0.555	-0.458	2.241	2.420	2.687	2.801	1.496	0.671	1.789	1.362	-2.457	-0.549	0.909	-0.779	1.272	1.345	2.428	1.543	1.100	0.484	-0.212	0.475	0.788	0.463	570.312
-4.181	-2.163	-2.479	-0.332	0.565	-0.449	2.149	2.231	2.414	2.646	1.292	0.595	1.829	1.354	-2.261	-0.477	0.812	-0.527	1.262	1.389	2.435	1.548	1.080	0.432	-0.304	0.355	0.759	0.359	574.219
-3.974	-2.007	-2.383	-0.239	0.535	-0.468	2.039	2.038	2.142	2.480	1.085	0.487	1.867	1.332	-2.020	-0.392	0.774	-0.274	1.299	1.439	2.442	1.580	1.104	0.371	-0.390	0.214	0.674	0.209	578.125
-3.759	-1.853	-2.312	-0.169	0.474	-0.508	1.906	1.847	1.880	2.303	0.881	0.349	1.891	1.297	-1.754	-0.292	0.808	-0.046	1.385	1.497	2.449	1.635	1.169	0.302	-0.467	0.060	0.533	0.020	582.031
-3.534	-1.717	-2.246	-0.119	0.394	-0.559	1.748	1.659	1.630	2.108	0.685	0.190	1.891	1.249	-1.478	-0.173	0.914	0.143	1.517	1.569	2.459	1.707	1.265	0.224	-0.532	-0.102	0.341	-0.193	585.938
-3.302	-1.602	-2.170	-0.082	0.309	-0.611	1.559	1.475	1.390	1.892	0.497	0.016	1.859	1.191	-1.203	-0.032	1.078	0.291	1.686	1.660	2.473	1.789	1.378	0.135	-0.584	-0.268	0.108	-0.417	589.844
-3.068	-1.503	-2.075	-0.046	0.235	-0.657	1.342	1.298	1.157	1.650	0.318	-0.159	1.791	1.126	-0.936	0.131	1.281	0.401	1.880	1.770	2.491	1.871	1.491	0.033	-0.624	-0.434	-0.152	-0.637	593.750
-2.838	-1.410	-1.959	0.000	0.186	-0.687	1.099	1.133	0.928	1.382	0.147	-0.325	1.688	1.058	-0.683	0.312	1.496	0.479	2.084	1.900	2.514	1.943	1.591	-0.082	-0.656	-0.601	-0.428	-0.841	597.656
-2.616	-1.310	-1.830	0.065	0.174	-0.698	0.843	0.987	0.703	1.094	-0.015	-0.474	1.559	0.996	-0.453	0.505	1.704	0.531	2.286	2.045	2.544	2.001	1.668	-0.210	-0.686	-0.771	-0.704	-1.026	601.562
-2.404	-1.193	-1.698	0.151	0.202	-0.688	0.585	0.868	0.485	0.794	-0.170	-0.601	1.417	0.946	-0.253	0.698	1.886	0.558	2.472	2.197	2.581	2.045	1.720	-0.347	-0.721	-0.947	-0.971	-1.193	605.469
-2.202	-1.054	-1.576	0.253	0.270	-0.660	0.341	0.780	0.278	0.495	-0.318	-0.707	1.277	0.918	-0.090	0.882	2.034	0.567	2.634	2.347	2.627	2.077	1.753	-0.486	-0.764	-1.131	-1.220	-1.346	609.375
-2.005	-0.899	-1.475	0.360	0.367	-0.618	0.122	0.722	0.084	0.209	-0.460	-0.796	1.153	0.915	0.038	1.047	2.145	0.565	2.767	2.487	2.679	2.104	1.778	-0.617	-0.814	-1.321	-1.445	-1.491	613.281
-1.808	-0.740	-1.401	0.459	0.478	-0.572	-0.063	0.687	-0.095	-0.054	-0.600	-0.873	1.051	0.933	0.141	1.185	2.217	0.569	2.867	2.610	2.734	2.130	1.808	-0.733	-0.866	-1.512	-1.641	-1.633	617.188
-1.606	-0.594	-1.354	0.535	0.580	-0.533	-0.212	0.664	-0.260	-0.289	-0.741	-0.945	0.973	0.964	0.236	1.294	2.255	0.595	2.934	2.710	2.783	2.161	1.856	-0.824	-0.908	-1.692	-1.804	-1.771	621.094
-1.392	-0.479	-1.329	0.575	0.653	-0.512	-0.328	0.640	-0.413	-0.495	-0.885	-1.020	0.915	0.994	0.343	1.374	2.264	0.662	2.970	2.787	2.818	2.196	1.925	-0.884	-0.930	-1.849	-1.934	-1.901	625.000
-1.168	-0.407	-1.318	0.578	0.682	-0.520	-0.417	0.602	-0.555	-0.676	-1.035	-1.105	0.868	1.008	0.477	1.431	2.248	0.779	2.978	2.843	2.833	2.234	2.016	-0.911	-0.920	-1.968	-2.027	-2.016	628.906
-0.939	-0.380	-1.313	0.546	0.660	-0.560	-0.487	0.542	-0.687	-0.836	-1.193	-1.205	0.823	0.996	0.645	1.475	2.215	0.947	2.965	2.886	2.829	2.272	2.119	-0.906	-0.873	-2.038	-2.085	-2.109	632.812
-0.714	-0.393	-1.308	0.491	0.590	-0.632	-0.543	0.461	-0.805	-0.978	-1.357	-1.324	0.772	0.956	0.840	1.517	2.174	1.149	2.939	2.927	2.811	2.306	2.220	-0.874	-0.791	-2.054	-2.112	-2.177	636.719
-0.502	-0.430	-1.297	0.430	0.486	-0.730	-0.588	0.365	-0.905	-1.101	-1.522	-1.461	0.712	0.893	1.041	1.565	2.129	1.362	2.906	2.974	2.791	2.333	2.305	-0.823	-0.682	-2.020	-2.113	-2.223	640.625
-0.306	-0.474	-1.280	0.377	0.369	-0.843	-0.623	0.268	-0.975	-1.200	-1.678	-1.616	0.644	0.819	1.220	1.625	2.086	1.552	2.870	3.037	2.783	2.348	2.358	-0.766	-0.562	-1.947	-2.098	-2.251	644.531
-0.124	-0.506	-1.255	0.345	0.262	-0.955	-0.646	0.185	-1.008	-1.267	-1.813	-1.779	0.569	0.746	1.351	1.698	2.047	1.688	2.833	3.118	2.797	2.349	2.371	-0.715	-0.447	-1.852	-2.077	-2.270	648.438
0.051	-0.514	-1.222	0.341	0.185	-1.052	-0.653	0.134	-0.995	-1.292	-1.916	-1.940	0.493	0.687	1.411	1.777	2.011	1.747	2.793	3.210	2.840	2.334	2.338	-0.681	-0.354	-1.753	-2.059	-2.287	652.344
0.226	-0.494	-1.185	0.363	0.150	-1.123	-0.642	0.124	-0.936	-1.269	-1.976	-2.086	0.420	0.649	1.394	1.855	1.979	1.723	2.750	3.305	2.906	2.303	2.264	-0.671	-0.298	-1.668	-2.049	-2.310	656.250
0.400	-0.452	-1.148	0.403	0.162	-1.161	-0.613	0.158	-0.834	-1.196	-1.988	-2.204	0.355	0.635	1.308	1.922	1.951	1.625	2.702	3.390	2.987	2.261	2.161	-0.686	-0.284	-1.607	-2.049	-2.340	660.156
0.561	-0.398	-1.116	0.451	0.211	-1.166	-0.569	0.226	-0.702	-1.077	-1.954	-2.284	0.305	0.642	1.172	1.971	1.926	1.479	2.651	3.454	3.068	2.212	2.048	-0.721	-0.310	-1.575	-2.055	-2.375	664.062
0.686	-0.346	-1.094	0.496	0.285	-1.143	-0.514	0.311	-0.559	-0.921	-1.879	-2.319	0.276	0.665	1.008	1.999	1.910	1.320	2.601	3.489	3.139	2.165	1.945	-0.765	-0.369	-1.567	-2.059	-2.407	667.969
0.741	-0.303	-1.085	0.531	0.367	-1.101	-0.453	0.391	-0.428	-0.746	-1.778	-2.308	0.273	0.702	0.835	2.010	1.905	1.177	2.559	3.499	3.191	2.129	1.871	-0.804	-0.446	-1.575	-2.051	-2.426	671.875
0.698	-0.268	-1.093	0.558	0.442	-1.050	-0.394	0.444	-0.329	-0.571	-1.663	-2.253	0.301	0.749	0.663	2.012	1.919	1.066	2.536	3.491	3.227	2.112	1.838	-0.823	-0.524	-1.586	-2.021	-2.422	675.781
0.536	-0.231	-1.121	0.585	0.500	-1.000	-0.340	0.453	-0.280	-0.415	-1.551	-2.162	0.361	0.805	0.490	2.014	1.959	0.983	2.540	3.481	3.254	2.120	1.853	-0.813	-0.590	-1.589	-1.965	-2.386	679.688
0.259	-0.177	-1.174	0.623	0.537	-0.957	-0.299	0.410	-0.294	-0.297	-1.455	-2.044	0.450	0.871	0.312	2.027	2.028	0.907	2.580	3.484	3.281	2.155	1.910	-0.767	-0.632	-1.573	-1.880	-2.313	683.594
-0.104	-0.092	-1.254	0.680	0.551	-0.925	-0.275	0.314	-0.372	-0.230	-1.386	-1.909	0.563	0.948	0.121	2.058	2.130	0.809	2.660	3.510	3.319	2.216	2.000	-0.686	-0.645	-1.536	-1.767	-2.203	687.500
-0.502	0.030	-1.358	0.760	0.546	-0.908	-0.272	0.177	-0.511	-0.222	-1.351	-1.771	0.689	1.032	-0.082	2.110	2.260	0.665	2.777	3.564	3.371	2.300	2.109	-0.578	-0.627	-1.479	-1.633	-2.063	691.406
-0.871	0.184	-1.481	0.857	0.524	-0.907	-0.294	0.013	-0.701	-0.273	-1.354	-1.639	0.816	1.119	-0.287	2.180	2.410	0.465	2.919	3.641	3.438	2.398	2.222	-0.452	-0.583	-1.408	-1.484	-1.903	695.312
-1.148	0.351	-1.608	0.957	0.488	-0.922	-0.343	-0.160	-0.924	-0.378	-1.395	-1.523	0.934	1.202	-0.479	2.262	2.565	0.221	3.072	3.730	3.512	2.505	2.326	-0.320	-0.517	-1.332	-1.331	-1.739	699.219
-1.286	0.505	-1.720	1.042	0.439	-0.951	-0.417	-0.323	-1.161	-0.523	-1.471	-1.430	1.034	1.274	-0.638	2.347	2.709	-0.039	3.215	3.815	3.582	2.613	2.413	-0.190	-0.438	-1.261	-1.183	-1.586	703.125
-1.263	0.618	-1.796	1.093	0.378	-0.993	-0.512	-0.462	-1.394	-0.691	-1.572	-1.365	1.112	1.326	-0.750	2.426	2.827	-0.278	3.330	3.880	3.638	2.714	2.477	-0.068	-0.354	-1.205	-1.049	-1.461	707.031
-1.084	0.667	-1.817	1.097	0.304	-1.042	-0.621	-0.565	-1.604	-0.863	-1.688	-1.330	1.165	1.353	-0.806	2.490	2.905	-0.457	3.404	3.912	3.670	2.804	2.518	0.041	-0.271	-1.168	-0.936	-1.374	710.938
-0.788	0.641	-1.771	1.049	0.217	-1.096	-0.736	-0.628	-1.778	-1.022	-1.806	-1.324	1.195	1.351	-0.801	2.535	2.937	-0.550	3.428	3.907	3.674	2.878	2.540	0.138	-0.193	-1.154	-0.852	-1.331	714.844
-0.425	0.546	-1.661	0.955	0.114	-1.151	-0.849	-0.652	-1.907	-1.152	-1.915	-1.346	1.205	1.320	-0.731	2.562	2.917	-0.541	3.404	3.868	3.650	2.932	2.547	0.220	-0.124	-1.162	-0.801	-1.333	718.750
-0.055	0.399	-1.497	0.826	-0.003	-1.204	-0.953	-0.645	-1.992	-1.248	-2.006	-1.395	1.197	1.262	-0.590	2.574	2.849	-0.427	3.336	3.805	3.601	2.962	2.545	0.284	-0.069	-1.189	-0.786	-1.379	722.656
0.276	0.229	-1.298	0.683	-0.133	-1.256	-1.046	-0.620	-2.042	-1.309	-2.077	-1.469	1.174	1.181	-0.366	2.582	2.736	-0.218	3.237	3.732	3.535	2.965	2.542	0.324	-0.030	-1.233	-0.810	-1.463	726.562
0.536	0.069	-1.087	0.547	-0.271	-1.306	-1.130	-0.594	-2.073	-1.346	-2.134	-1.568	1.140	1.083	-0.058	2.598	2.592	0.069	3.125	3.668	3.458	2.940	2.544	0.335	-0.013	-1.292	-0.876	-1.579	730.469
0.715	-0.051	-0.884	0.441	-0.406	-1.354	-1.207	-0.585	-2.103	-1.373	-2.184	-1.690	1.096	0.973	0.324	2.635	2.436	0.409	3.020	3.626	3.379	2.891	2.559	0.310	-0.024	-1.367	-0.982	-1.718	734.375
0.818	-0.106	-0.702	0.382	-0.529	-1.397	-1.284	-0.605	-2.151	-1.408	-2.240	-1.833	1.042	0.861	0.747	2.705	2.298	0.767	2.945	3.618	3.305	2.827	2.593	0.245	-0.067	-1.459	-1.127	-1.877	738.281
0.864	-0.086	-0.549	0.377	-0.627	-1.429	-1.364	-0.663	-2.227	-1.467	-2.314	-1.995	0.980	0.753	1.162	2.813	2.213	1.106	2.923	3.647	3.242	2.761	2.647	0.143	-0.142	-1.570	-1.306	-2.050	742.188
0.875	0.005	-0.423	0.425	-0.691	-1.447	-1.450	-0.756	-2.335	-1.558	-2.411	-2.170	0.912	0.659	1.514	2.958	2.211	1.387	2.965	3.712	3.195	2.707	2.719	0.011	-0.247	-1.701	-1.510	-2.234	746.094
0.878	0.151	-0.317	0.515	-0.718	-1.444	-1.538	-0.876	-2.469	-1.682	-2.534	-2.352	0.839	0.584	1.762	3.128	2.308	1.579	3.071	3.804	3.169	2.674	2.800	-0.138	-0.375	-1.850	-1.732	-2.425	750.000
0.895	0.321	-0.219	0.629	-0.706	-1.418	-1.626	-1.008	-2.615	-1.834	-2.676	-2.535	0.765	0.534	1.888	3.307	2.499	1.663	3.227	3.909	3.164	2.667	2.878	-0.290	-0.514	-2.013	-1.959	-2.619	753.906
0.942	0.487	-0.120	0.746	-0.663	-1.370	-1.708	-1.133	-2.756	-2.001	-2.828	-2.711	0.691	0.508	1.904	3.473	2.755	1.639	3.405	4.011	3.177	2.680	2.939	-0.431	-0.651	-2.184	-2.180	-2.811	757.812
1.024	0.624	-0.014	0.850	-0.598	-1.306	-1.777	-1.235	-2.876	-2.168	-2.978	-2.875	0.620	0.504	1.845	3.605	3.029	1.528	3.571	4.094	3.200	2.705	2.974	-0.550	-0.775	-2.349	-2.384	-2.994	761.719
1.137	0.722	0.093	0.931	-0.523	-1.234	-1.830	-1.300	-2.962	-2.321	-3.112	-3.017	0.554	0.513	1.753	3.689	3.268	1.367	3.692	4.146	3.222	2.727	2.973	-0.637	-0.871	-2.494	-2.558	-3.154	765.625
1.259	0.786	0.183	0.989	-0.453	-1.164	-1.863	-1.322	-3.008	-2.446	-3.218	-3.127	0.495	0.527	1.661	3.717	3.423	1.207	3.744	4.157	3.230	2.735	2.937	-0.687	-0.931	-2.601	-2.689	-3.278	769.531
1.360	0.838	0.228	1.029	-0.399	-1.104	-1.875	-1.299	-3.015	-2.533	-3.288	-3.195	0.448	0.538	1.583	3.694	3.465	1.096	3.721	4.126	3.213	2.722	2.866	-0.698	-0.948	-2.654	-2.766	-3.351	773.438
1.398	0.913	0.194	1.064	-0.369	-1.057	-1.864	-1.237	-2.987	-2.577	-3.315	-3.209	0.416	0.542	1.505	3.633	3.388	1.071	3.629	4.055	3.162	2.685	2.769	-0.671	-0.921	-2.638	-2.780	-3.358	777.344
1.336	1.046	0.047	1.107	-0.365	-1.025	-1.829	-1.141	-2.932	-2.575	-3.296	-3.159	0.406	0.536	1.394	3.549	3.210	1.148	3.493	3.955	3.074	2.631	2.655	-0.608	-0.855	-2.550	-2.728	-3.290	781.250
1.146	1.265	-0.234	1.170	-0.386	-1.005	-1.769	-1.019	-2.859	-2.531	-3.233	-3.044	0.420	0.521	1.211	3.463	2.966	1.318	3.340	3.836	2.953	2.570	2.537	-0.516	-0.757	-2.392	-2.612	-3.143	785.156
0.822	1.582	-0.649	1.260	-0.426	-0.994	-1.688	-0.881	-2.774	-2.452	-3.132	-2.869	0.458	0.503	0.932	3.388	2.692	1.561	3.194	3.709	2.806	2.510	2.422	-0.400	-0.636	-2.175	-2.444	-2.925	789.062
0.386	1.985	-1.174	1.377	-0.478	-0.988	-1.590	-0.734	-2.687	-2.348	-3.005	-2.649	0.515	0.482	0.560	3.330	2.418	1.847	3.071	3.582	2.642	2.457	2.316	-0.269	-0.504	-1.919	-2.239	-2.654	792.969
-0.114	2.443	-1.761	1.513	-0.535	-0.983	-1.485	-0.587	-2.602	-2.236	-2.868	-2.407	0.582	0.462	0.126	3.289	2.157	2.153	2.971	3.460	2.470	2.410	2.218	-0.134	-0.369	-1.644	-2.019	-2.357	796.875
