FP1	F3	F7	FC3	C3	C5	P3	P7	PO7	PO3	O1	Oz	Pz	CPz	FP2	Fz	F4	F8	FC4	FCz	Cz	C4	C6	P4	P8	PO8	PO4	O2	time
0.655	-0.205	0.467	0.025	0.472	0.424	0.124	-0.337	-0.171	-0.042	0.111	0.167	0.939	0.672	1.239	-0.049	-1.819	0.092	-0.851	0.594	0.940	-0.273	-0.682	0.721	0.270	-0.346	0.090	-0.493	-199.219
0.423	-0.292	0.283	-0.097	0.236	0.174	0.209	-0.336	-0.106	0.078	0.152	0.288	1.104	0.794	0.223	-0.119	-1.310	-0.227	-0.654	0.392	0.839	-0.109	-0.455	0.869	0.434	-0.054	0.389	-0.252	-195.312
0.203	-0.357	0.120	-0.202	0.021	-0.059	0.277	-0.347	-0.063	0.172	0.177	0.396	1.257	0.906	-0.638	-0.172	-0.872	-0.495	-0.489	0.220	0.757	0.025	-0.264	0.992	0.572	0.213	0.662	-0.023	-191.406
0.009	-0.386	-0.000	-0.280	-0.154	-0.257	0.318	-0.375	-0.055	0.222	0.176	0.479	1.385	0.999	-1.221	-0.196	-0.565	-0.677	-0.380	0.101	0.704	0.110	-0.129	1.070	0.662	0.426	0.881	0.178	-187.500
-0.152	-0.369	-0.066	-0.319	-0.271	-0.403	0.330	-0.419	-0.086	0.220	0.145	0.525	1.476	1.067	-1.471	-0.184	-0.411	-0.755	-0.333	0.050	0.689	0.139	-0.060	1.087	0.684	0.560	1.026	0.334	-183.594
-0.278	-0.302	-0.079	-0.310	-0.316	-0.482	0.319	-0.466	-0.152	0.172	0.082	0.524	1.520	1.106	-1.407	-0.136	-0.394	-0.732	-0.336	0.072	0.714	0.124	-0.047	1.038	0.628	0.598	1.083	0.428	-179.688
-0.368	-0.191	-0.047	-0.249	-0.286	-0.489	0.297	-0.502	-0.236	0.089	-0.005	0.472	1.513	1.117	-1.110	-0.056	-0.468	-0.626	-0.362	0.163	0.771	0.083	-0.072	0.927	0.492	0.530	1.044	0.445	-175.781
-0.414	-0.050	0.017	-0.138	-0.182	-0.421	0.278	-0.509	-0.318	-0.007	-0.106	0.369	1.452	1.100	-0.698	0.042	-0.577	-0.465	-0.381	0.306	0.848	0.040	-0.113	0.765	0.285	0.359	0.913	0.376	-171.875
-0.409	0.099	0.103	0.011	-0.019	-0.288	0.279	-0.472	-0.378	-0.094	-0.207	0.221	1.342	1.058	-0.289	0.144	-0.668	-0.285	-0.372	0.473	0.927	0.018	-0.148	0.567	0.026	0.099	0.705	0.222	-167.969
-0.346	0.234	0.203	0.181	0.183	-0.106	0.309	-0.383	-0.399	-0.153	-0.294	0.042	1.192	0.997	0.023	0.229	-0.703	-0.124	-0.321	0.636	0.990	0.029	-0.164	0.356	-0.260	-0.222	0.441	-0.006	-164.062
-0.233	0.336	0.308	0.356	0.396	0.103	0.371	-0.246	-0.372	-0.171	-0.357	-0.150	1.013	0.919	0.185	0.285	-0.668	-0.014	-0.228	0.769	1.021	0.076	-0.154	0.150	-0.541	-0.570	0.148	-0.284	-160.156
-0.095	0.400	0.414	0.518	0.595	0.314	0.461	-0.074	-0.299	-0.146	-0.389	-0.333	0.821	0.832	0.187	0.306	-0.565	0.018	-0.105	0.853	1.014	0.153	-0.121	-0.034	-0.791	-0.906	-0.143	-0.578	-156.250
0.029	0.430	0.510	0.657	0.757	0.502	0.566	0.112	-0.187	-0.081	-0.387	-0.488	0.629	0.741	0.054	0.296	-0.409	-0.037	0.034	0.884	0.969	0.246	-0.073	-0.181	-0.989	-1.192	-0.406	-0.851	-152.344
0.094	0.441	0.587	0.767	0.869	0.650	0.670	0.290	-0.051	0.010	-0.354	-0.598	0.453	0.651	-0.167	0.267	-0.220	-0.174	0.171	0.869	0.895	0.337	-0.024	-0.289	-1.121	-1.396	-0.621	-1.070	-148.438
0.072	0.448	0.635	0.847	0.925	0.742	0.754	0.439	0.091	0.111	-0.297	-0.655	0.300	0.564	-0.421	0.238	-0.019	-0.374	0.292	0.824	0.804	0.409	0.013	-0.358	-1.186	-1.501	-0.774	-1.210	-144.531
-0.040	0.464	0.646	0.897	0.927	0.777	0.802	0.545	0.223	0.205	-0.225	-0.660	0.174	0.482	-0.655	0.226	0.176	-0.603	0.383	0.770	0.709	0.446	0.027	-0.397	-1.188	-1.503	-0.863	-1.261	-140.625
-0.213	0.487	0.622	0.916	0.883	0.758	0.803	0.603	0.334	0.276	-0.146	-0.619	0.074	0.404	-0.823	0.244	0.347	-0.821	0.437	0.724	0.622	0.436	0.010	-0.416	-1.141	-1.411	-0.894	-1.227	-136.719
-0.391	0.507	0.571	0.899	0.805	0.696	0.752	0.618	0.414	0.316	-0.070	-0.545	-0.004	0.326	-0.889	0.294	0.472	-0.983	0.445	0.696	0.548	0.374	-0.041	-0.428	-1.059	-1.252	-0.880	-1.123	-132.812
-0.509	0.506	0.508	0.843	0.705	0.606	0.654	0.597	0.461	0.320	-0.002	-0.451	-0.068	0.247	-0.833	0.370	0.534	-1.051	0.403	0.687	0.485	0.261	-0.124	-0.443	-0.959	-1.057	-0.836	-0.974	-128.906
-0.514	0.471	0.448	0.748	0.595	0.507	0.520	0.552	0.473	0.290	0.050	-0.350	-0.122	0.165	-0.654	0.456	0.521	-1.000	0.312	0.690	0.432	0.104	-0.229	-0.465	-0.854	-0.859	-0.781	-0.807	-125.000
-0.386	0.399	0.404	0.620	0.484	0.414	0.365	0.492	0.454	0.232	0.084	-0.252	-0.169	0.081	-0.374	0.537	0.434	-0.829	0.181	0.696	0.382	-0.078	-0.341	-0.494	-0.754	-0.688	-0.729	-0.647	-121.094
-0.144	0.304	0.379	0.474	0.383	0.340	0.206	0.426	0.405	0.158	0.099	-0.164	-0.207	0.000	-0.036	0.595	0.291	-0.564	0.029	0.691	0.334	-0.261	-0.444	-0.525	-0.666	-0.566	-0.690	-0.510	-117.188
0.155	0.211	0.368	0.330	0.297	0.292	0.057	0.357	0.332	0.077	0.095	-0.092	-0.234	-0.073	0.304	0.624	0.124	-0.250	-0.116	0.669	0.285	-0.416	-0.516	-0.550	-0.593	-0.500	-0.670	-0.406	-113.281
0.438	0.152	0.360	0.210	0.229	0.271	-0.070	0.286	0.238	-0.002	0.073	-0.037	-0.246	-0.133	0.591	0.622	-0.024	0.051	-0.226	0.626	0.236	-0.518	-0.538	-0.560	-0.536	-0.490	-0.669	-0.339	-109.375
0.636	0.152	0.344	0.131	0.178	0.272	-0.173	0.210	0.127	-0.073	0.034	-0.001	-0.244	-0.177	0.783	0.595	-0.115	0.285	-0.274	0.562	0.188	-0.546	-0.496	-0.547	-0.493	-0.521	-0.681	-0.304	-105.469
0.707	0.221	0.313	0.102	0.137	0.282	-0.254	0.125	0.003	-0.137	-0.019	0.013	-0.232	-0.207	0.858	0.558	-0.120	0.417	-0.242	0.485	0.143	-0.491	-0.382	-0.508	-0.456	-0.574	-0.699	-0.295	-101.562
0.645	0.349	0.269	0.118	0.097	0.289	-0.324	0.025	-0.130	-0.201	-0.087	0.006	-0.218	-0.223	0.822	0.524	-0.030	0.439	-0.127	0.404	0.101	-0.355	-0.202	-0.443	-0.417	-0.626	-0.715	-0.304	-97.656
0.483	0.508	0.220	0.164	0.045	0.278	-0.392	-0.091	-0.268	-0.272	-0.165	-0.022	-0.213	-0.233	0.697	0.505	0.147	0.373	0.059	0.327	0.061	-0.158	0.029	-0.357	-0.367	-0.656	-0.720	-0.322	-93.750
0.277	0.660	0.178	0.217	-0.026	0.238	-0.469	-0.221	-0.408	-0.359	-0.250	-0.070	-0.226	-0.242	0.525	0.509	0.384	0.265	0.290	0.264	0.021	0.075	0.284	-0.257	-0.295	-0.651	-0.710	-0.343	-89.844
0.089	0.763	0.157	0.250	-0.122	0.165	-0.559	-0.357	-0.541	-0.466	-0.339	-0.133	-0.266	-0.255	0.353	0.536	0.645	0.170	0.533	0.216	-0.018	0.310	0.531	-0.155	-0.198	-0.603	-0.685	-0.363	-85.938
-0.028	0.787	0.164	0.244	-0.239	0.063	-0.661	-0.486	-0.662	-0.591	-0.425	-0.205	-0.336	-0.278	0.223	0.581	0.891	0.137	0.755	0.184	-0.062	0.514	0.739	-0.064	-0.077	-0.518	-0.647	-0.381	-82.031
-0.045	0.720	0.196	0.187	-0.366	-0.058	-0.767	-0.591	-0.759	-0.727	-0.501	-0.279	-0.435	-0.314	0.168	0.630	1.086	0.200	0.923	0.161	-0.112	0.659	0.882	0.003	0.063	-0.405	-0.605	-0.395	-78.125
0.037	0.568	0.243	0.085	-0.488	-0.183	-0.862	-0.653	-0.823	-0.857	-0.561	-0.348	-0.557	-0.365	0.198	0.670	1.208	0.369	1.017	0.135	-0.172	0.727	0.943	0.035	0.208	-0.281	-0.565	-0.406	-74.219
0.188	0.359	0.285	-0.047	-0.586	-0.293	-0.929	-0.660	-0.843	-0.962	-0.598	-0.403	-0.693	-0.430	0.300	0.686	1.249	0.623	1.028	0.096	-0.246	0.710	0.922	0.024	0.344	-0.161	-0.533	-0.409	-70.312
0.360	0.130	0.303	-0.183	-0.642	-0.371	-0.953	-0.605	-0.813	-1.023	-0.607	-0.440	-0.831	-0.507	0.444	0.667	1.215	0.924	0.961	0.034	-0.335	0.616	0.828	-0.031	0.456	-0.058	-0.510	-0.400	-66.406
0.495	-0.078	0.279	-0.298	-0.647	-0.408	-0.924	-0.493	-0.731	-1.024	-0.585	-0.453	-0.955	-0.591	0.592	0.605	1.124	1.218	0.832	-0.056	-0.438	0.463	0.682	-0.122	0.533	0.025	-0.491	-0.370	-62.500
0.547	-0.234	0.203	-0.374	-0.596	-0.399	-0.839	-0.338	-0.600	-0.956	-0.532	-0.439	-1.052	-0.675	0.710	0.498	0.994	1.448	0.660	-0.175	-0.552	0.272	0.507	-0.234	0.570	0.089	-0.465	-0.309	-58.594
0.491	-0.324	0.075	-0.402	-0.499	-0.352	-0.705	-0.159	-0.429	-0.819	-0.447	-0.397	-1.109	-0.751	0.778	0.347	0.841	1.572	0.468	-0.318	-0.671	0.071	0.327	-0.348	0.568	0.147	-0.418	-0.208	-54.688
0.332	-0.353	-0.099	-0.389	-0.371	-0.280	-0.536	0.019	-0.232	-0.622	-0.334	-0.326	-1.117	-0.811	0.792	0.159	0.673	1.562	0.272	-0.477	-0.788	-0.118	0.161	-0.440	0.539	0.214	-0.333	-0.062	-50.781
0.107	-0.345	-0.303	-0.355	-0.236	-0.201	-0.351	0.175	-0.025	-0.379	-0.195	-0.228	-1.073	-0.849	0.760	-0.060	0.489	1.416	0.083	-0.644	-0.894	-0.277	0.021	-0.490	0.498	0.307	-0.202	0.130	-46.875
-0.132	-0.330	-0.517	-0.324	-0.118	-0.136	-0.171	0.292	0.177	-0.111	-0.035	-0.106	-0.983	-0.859	0.694	-0.300	0.288	1.155	-0.091	-0.808	-0.984	-0.397	-0.086	-0.486	0.461	0.440	-0.019	0.362	-42.969
-0.328	-0.336	-0.720	-0.319	-0.039	-0.101	-0.015	0.364	0.359	0.160	0.141	0.035	-0.858	-0.844	0.605	-0.551	0.069	0.817	-0.249	-0.963	-1.055	-0.473	-0.161	-0.425	0.445	0.618	0.209	0.622	-39.062
-0.438	-0.383	-0.893	-0.354	-0.013	-0.104	0.102	0.389	0.510	0.412	0.323	0.187	-0.713	-0.806	0.500	-0.801	-0.161	0.451	-0.389	-1.104	-1.107	-0.511	-0.208	-0.313	0.461	0.838	0.468	0.892	-35.156
-0.446	-0.472	-1.022	-0.435	-0.046	-0.148	0.171	0.375	0.623	0.625	0.501	0.340	-0.569	-0.754	0.384	-1.035	-0.388	0.108	-0.508	-1.229	-1.142	-0.519	-0.235	-0.167	0.512	1.088	0.735	1.153	-31.250
-0.368	-0.589	-1.100	-0.550	-0.136	-0.227	0.187	0.334	0.694	0.785	0.660	0.483	-0.447	-0.701	0.264	-1.240	-0.593	-0.170	-0.606	-1.335	-1.167	-0.509	-0.251	-0.008	0.596	1.352	0.987	1.387	-27.344
-0.243	-0.710	-1.125	-0.683	-0.268	-0.328	0.154	0.278	0.725	0.882	0.788	0.609	-0.363	-0.659	0.151	-1.401	-0.758	-0.353	-0.681	-1.423	-1.189	-0.494	-0.264	0.140	0.704	1.606	1.201	1.578	-23.438
-0.120	-0.805	-1.102	-0.809	-0.425	-0.435	0.079	0.219	0.719	0.914	0.876	0.711	-0.330	-0.644	0.056	-1.509	-0.870	-0.428	-0.734	-1.492	-1.213	-0.489	-0.284	0.256	0.820	1.831	1.358	1.719	-19.531
-0.034	-0.853	-1.037	-0.907	-0.584	-0.531	-0.029	0.168	0.683	0.886	0.920	0.790	-0.353	-0.663	-0.007	-1.557	-0.925	-0.399	-0.772	-1.542	-1.243	-0.504	-0.319	0.324	0.928	2.007	1.448	1.809	-15.625
0.002	-0.842	-0.938	-0.960	-0.720	-0.600	-0.156	0.129	0.624	0.810	0.920	0.846	-0.426	-0.721	-0.030	-1.547	-0.929	-0.283	-0.801	-1.574	-1.282	-0.547	-0.371	0.335	1.008	2.123	1.468	1.850	-11.719
0.000	-0.778	-0.813	-0.961	-0.814	-0.633	-0.287	0.106	0.550	0.701	0.884	0.885	-0.538	-0.814	-0.010	-1.487	-0.898	-0.104	-0.834	-1.589	-1.327	-0.623	-0.443	0.286	1.043	2.172	1.420	1.851	-7.812
-0.006	-0.681	-0.667	-0.912	-0.854	-0.622	-0.410	0.101	0.470	0.576	0.825	0.912	-0.669	-0.932	0.049	-1.391	-0.854	0.109	-0.881	-1.589	-1.373	-0.728	-0.528	0.186	1.023	2.151	1.315	1.820	-3.906
0.021	-0.575	-0.508	-0.821	-0.833	-0.567	-0.513	0.115	0.393	0.454	0.757	0.930	-0.796	-1.058	0.139	-1.276	-0.821	0.321	-0.948	-1.576	-1.413	-0.856	-0.618	0.046	0.941	2.066	1.164	1.765	0.000
0.107	-0.484	-0.340	-0.702	-0.755	-0.471	-0.588	0.148	0.326	0.348	0.693	0.940	-0.897	-1.173	0.245	-1.160	-0.812	0.500	-1.036	-1.555	-1.438	-0.990	-0.698	-0.117	0.802	1.923	0.982	1.691	3.906
0.257	-0.420	-0.172	-0.567	-0.629	-0.342	-0.631	0.200	0.276	0.265	0.644	0.939	-0.956	-1.261	0.346	-1.057	-0.830	0.618	-1.134	-1.527	-1.441	-1.114	-0.757	-0.285	0.617	1.734	0.780	1.602	7.812
0.450	-0.382	-0.013	-0.425	-0.470	-0.189	-0.643	0.269	0.245	0.206	0.614	0.922	-0.967	-1.309	0.420	-0.974	-0.862	0.655	-1.224	-1.494	-1.419	-1.208	-0.782	-0.445	0.405	1.511	0.568	1.497	11.719
0.644	-0.352	0.128	-0.281	-0.295	-0.024	-0.630	0.350	0.234	0.166	0.601	0.883	-0.934	-1.316	0.444	-0.911	-0.883	0.606	-1.284	-1.455	-1.371	-1.256	-0.766	-0.588	0.189	1.267	0.353	1.374	15.625
0.789	-0.304	0.239	-0.136	-0.123	0.141	-0.601	0.434	0.237	0.136	0.597	0.817	-0.873	-1.286	0.401	-0.862	-0.863	0.484	-1.294	-1.407	-1.303	-1.250	-0.710	-0.709	-0.012	1.017	0.140	1.231	19.531
0.843	-0.212	0.316	0.013	0.032	0.296	-0.568	0.510	0.250	0.103	0.591	0.724	-0.807	-1.234	0.289	-0.817	-0.776	0.316	-1.239	-1.348	-1.227	-1.192	-0.619	-0.810	-0.178	0.773	-0.066	1.069	23.438
0.783	-0.061	0.357	0.163	0.155	0.431	-0.540	0.569	0.265	0.057	0.572	0.606	-0.760	-1.180	0.120	-0.766	-0.610	0.140	-1.118	-1.279	-1.156	-1.092	-0.507	-0.896	-0.302	0.551	-0.258	0.892	27.344
0.614	0.146	0.368	0.309	0.238	0.538	-0.524	0.603	0.278	-0.004	0.532	0.471	-0.751	-1.142	-0.079	-0.706	-0.373	-0.007	-0.945	-1.205	-1.105	-0.972	-0.392	-0.969	-0.380	0.361	-0.429	0.709	31.250
0.371	0.389	0.361	0.441	0.277	0.614	-0.522	0.607	0.285	-0.079	0.469	0.333	-0.792	-1.136	-0.271	-0.639	-0.096	-0.092	-0.748	-1.134	-1.087	-0.855	-0.291	-1.032	-0.416	0.218	-0.566	0.533	35.156
0.110	0.630	0.349	0.543	0.272	0.658	-0.530	0.586	0.289	-0.159	0.386	0.206	-0.883	-1.170	-0.420	-0.576	0.178	-0.097	-0.564	-1.080	-1.112	-0.765	-0.219	-1.084	-0.417	0.130	-0.659	0.383	39.062
-0.106	0.824	0.340	0.596	0.229	0.671	-0.543	0.546	0.291	-0.228	0.293	0.106	-1.012	-1.244	-0.499	-0.533	0.400	-0.019	-0.429	-1.058	-1.183	-0.717	-0.185	-1.119	-0.391	0.106	-0.691	0.280	42.969
-0.223	0.925	0.340	0.584	0.154	0.658	-0.551	0.501	0.298	-0.270	0.205	0.046	-1.159	-1.352	-0.501	-0.529	0.528	0.129	-0.372	-1.083	-1.297	-0.717	-0.189	-1.127	-0.345	0.151	-0.650	0.241	46.875
-0.212	0.900	0.343	0.497	0.055	0.622	-0.545	0.463	0.316	-0.265	0.135	0.035	-1.299	-1.479	-0.440	-0.579	0.540	0.324	-0.405	-1.163	-1.448	-0.758	-0.222	-1.097	-0.284	0.268	-0.525	0.284	50.781
-0.081	0.733	0.341	0.331	-0.060	0.566	-0.515	0.443	0.353	-0.200	0.098	0.075	-1.407	-1.609	-0.347	-0.693	0.436	0.533	-0.525	-1.300	-1.621	-0.829	-0.271	-1.021	-0.207	0.459	-0.310	0.416	54.688
0.129	0.431	0.320	0.096	-0.184	0.492	-0.454	0.449	0.417	-0.064	0.108	0.165	-1.465	-1.726	-0.263	-0.871	0.235	0.722	-0.714	-1.491	-1.804	-0.911	-0.323	-0.895	-0.113	0.724	-0.006	0.639	58.594
0.348	0.021	0.271	-0.191	-0.310	0.401	-0.358	0.489	0.518	0.146	0.176	0.303	-1.463	-1.818	-0.227	-1.106	-0.031	0.861	-0.945	-1.724	-1.984	-0.992	-0.371	-0.721	0.004	1.060	0.378	0.947	62.500
0.504	-0.450	0.186	-0.504	-0.435	0.294	-0.227	0.563	0.665	0.426	0.310	0.482	-1.401	-1.881	-0.261	-1.386	-0.330	0.925	-1.195	-1.987	-2.153	-1.067	-0.414	-0.510	0.146	1.462	0.824	1.331	66.406
0.533	-0.931	0.062	-0.817	-0.554	0.173	-0.065	0.672	0.867	0.770	0.518	0.702	-1.288	-1.917	-0.369	-1.697	-0.640	0.896	-1.445	-2.266	-2.309	-1.139	-0.458	-0.278	0.315	1.922	1.308	1.773	70.312
0.405	-1.373	-0.096	-1.105	-0.666	0.044	0.123	0.810	1.132	1.164	0.805	0.961	-1.142	-1.938	-0.536	-2.027	-0.949	0.767	-1.686	-2.554	-2.456	-1.217	-0.516	-0.043	0.510	2.429	1.803	2.256	74.219
0.122	-1.740	-0.284	-1.353	-0.771	-0.089	0.328	0.974	1.462	1.595	1.169	1.259	-0.981	-1.956	-0.736	-2.367	-1.256	0.537	-1.917	-2.845	-2.602	-1.315	-0.602	0.177	0.725	2.969	2.286	2.761	78.125
-0.286	-2.015	-0.498	-1.555	-0.872	-0.221	0.544	1.156	1.855	2.048	1.608	1.594	-0.821	-1.985	-0.943	-2.711	-1.567	0.219	-2.145	-3.138	-2.757	-1.444	-0.724	0.369	0.953	3.527	2.735	3.272	82.031
-0.770	-2.198	-0.735	-1.715	-0.973	-0.346	0.763	1.355	2.305	2.511	2.109	1.962	-0.676	-2.034	-1.141	-3.054	-1.885	-0.162	-2.374	-3.433	-2.928	-1.607	-0.888	0.529	1.185	4.087	3.139	3.773	85.938
-1.279	-2.304	-0.996	-1.843	-1.078	-0.463	0.981	1.566	2.801	2.972	2.655	2.357	-0.552	-2.109	-1.333	-3.391	-2.205	-0.574	-2.606	-3.731	-3.120	-1.802	-1.086	0.655	1.407	4.633	3.492	4.252	89.844
-1.772	-2.358	-1.278	-1.953	-1.190	-0.570	1.194	1.790	3.328	3.421	3.225	2.767	-0.455	-2.210	-1.532	-3.717	-2.513	-0.976	-2.834	-4.029	-3.332	-2.020	-1.303	0.753	1.610	5.147	3.795	4.698	93.750
-2.218	-2.388	-1.577	-2.060	-1.312	-0.667	1.401	2.028	3.869	3.854	3.792	3.180	-0.384	-2.332	-1.757	-4.022	-2.792	-1.332	-3.051	-4.324	-3.560	-2.246	-1.520	0.826	1.782	5.613	4.050	5.102	97.656
-2.596	-2.419	-1.880	-2.176	-1.442	-0.755	1.599	2.281	4.408	4.263	4.332	3.582	-0.339	-2.467	-2.019	-4.299	-3.025	-1.612	-3.248	-4.608	-3.796	-2.468	-1.719	0.879	1.914	6.014	4.258	5.460	101.562
-2.886	-2.475	-2.169	-2.307	-1.581	-0.835	1.787	2.551	4.929	4.644	4.823	3.961	-0.319	-2.608	-2.312	-4.541	-3.204	-1.797	-3.421	-4.874	-4.030	-2.679	-1.887	0.911	2.000	6.337	4.418	5.766	105.469
-3.066	-2.572	-2.420	-2.453	-1.723	-0.906	1.961	2.836	5.419	4.993	5.248	4.308	-0.321	-2.744	-2.609	-4.744	-3.336	-1.881	-3.572	-5.113	-4.252	-2.873	-2.019	0.920	2.035	6.568	4.527	6.015	109.375
-3.115	-2.719	-2.611	-2.611	-1.864	-0.967	2.117	3.130	5.867	5.303	5.597	4.613	-0.344	-2.868	-2.865	-4.906	-3.436	-1.865	-3.708	-5.318	-4.450	-3.050	-2.119	0.900	2.018	6.698	4.577	6.201	113.281
-3.017	-2.910	-2.724	-2.771	-1.998	-1.015	2.249	3.425	6.259	5.564	5.863	4.870	-0.383	-2.972	-3.028	-5.026	-3.528	-1.764	-3.839	-5.480	-4.614	-3.210	-2.193	0.845	1.946	6.717	4.561	6.314	117.188
-2.772	-3.128	-2.752	-2.917	-2.120	-1.049	2.351	3.710	6.584	5.766	6.044	5.071	-0.429	-3.050	-3.055	-5.101	-3.628	-1.597	-3.968	-5.591	-4.736	-3.351	-2.251	0.754	1.819	6.618	4.472	6.343	121.094
-2.400	-3.346	-2.700	-3.034	-2.220	-1.063	2.415	3.969	6.828	5.898	6.140	5.207	-0.473	-3.094	-2.927	-5.125	-3.737	-1.392	-4.088	-5.641	-4.806	-3.464	-2.302	0.626	1.637	6.398	4.308	6.275	125.000
-1.945	-3.526	-2.584	-3.103	-2.290	-1.057	2.437	4.183	6.978	5.948	6.151	5.270	-0.502	-3.098	-2.659	-5.092	-3.838	-1.180	-4.183	-5.622	-4.815	-3.537	-2.349	0.471	1.404	6.057	4.071	6.101	128.906
-1.463	-3.634	-2.424	-3.111	-2.321	-1.026	2.414	4.334	7.023	5.911	6.080	5.255	-0.503	-3.056	-2.299	-4.992	-3.895	-0.990	-4.229	-5.526	-4.759	-3.557	-2.389	0.298	1.125	5.605	3.769	5.815	132.812
-1.017	-3.637	-2.239	-3.049	-2.308	-0.973	2.347	4.408	6.955	5.786	5.930	5.159	-0.468	-2.965	-1.915	-4.820	-3.866	-0.843	-4.201	-5.352	-4.635	-3.512	-2.416	0.121	0.811	5.055	3.416	5.426	136.719
-0.662	-3.520	-2.044	-2.914	-2.248	-0.898	2.238	4.394	6.772	5.579	5.708	4.985	-0.393	-2.827	-1.576	-4.576	-3.718	-0.746	-4.082	-5.104	-4.449	-3.397	-2.423	-0.045	0.474	4.430	3.031	4.952	140.625
-0.442	-3.283	-1.847	-2.715	-2.146	-0.811	2.093	4.288	6.480	5.303	5.425	4.745	-0.279	-2.648	-1.332	-4.269	-3.434	-0.691	-3.868	-4.793	-4.210	-3.216	-2.402	-0.191	0.127	3.759	2.636	4.422	144.531
-0.377	-2.943	-1.655	-2.467	-2.012	-0.720	1.921	4.097	6.094	4.976	5.098	4.454	-0.140	-2.442	-1.201	-3.912	-3.020	-0.661	-3.572	-4.437	-3.934	-2.986	-2.351	-0.312	-0.214	3.076	2.253	3.874	148.438
-0.462	-2.532	-1.471	-2.191	-1.863	-0.639	1.731	3.834	5.638	4.621	4.746	4.134	0.009	-2.225	-1.167	-3.527	-2.509	-0.635	-3.220	-4.055	-3.640	-2.727	-2.272	-0.409	-0.532	2.418	1.905	3.350	152.344
-0.666	-2.094	-1.303	-1.912	-1.714	-0.580	1.532	3.520	5.144	4.261	4.395	3.810	0.147	-2.017	-1.190	-3.137	-1.949	-0.597	-2.845	-3.669	-3.350	-2.468	-2.173	-0.488	-0.816	1.824	1.612	2.889	156.250
-0.930	-1.677	-1.159	-1.657	-1.585	-0.551	1.334	3.182	4.649	3.920	4.069	3.503	0.250	-1.839	-1.222	-2.766	-1.397	-0.540	-2.486	-3.303	-3.084	-2.235	-2.066	-0.558	-1.054	1.325	1.387	2.520	160.156
-1.185	-1.328	-1.049	-1.446	-1.488	-0.556	1.145	2.850	4.197	3.620	3.795	3.235	0.301	-1.711	-1.224	-2.436	-0.909	-0.466	-2.179	-2.979	-2.862	-2.052	-1.964	-0.631	-1.239	0.948	1.238	2.262	164.062
-1.370	-1.084	-0.980	-1.299	-1.434	-0.594	0.975	2.554	3.828	3.382	3.598	3.022	0.285	-1.647	-1.179	-2.167	-0.527	-0.383	-1.951	-2.717	-2.703	-1.939	-1.881	-0.713	-1.366	0.709	1.169	2.124	167.969
-1.446	-0.969	-0.956	-1.226	-1.428	-0.659	0.830	2.323	3.582	3.222	3.497	2.877	0.193	-1.659	-1.091	-1.975	-0.278	-0.298	-1.821	-2.537	-2.618	-1.905	-1.828	-0.811	-1.434	0.616	1.179	2.103	171.875
-1.412	-0.991	-0.981	-1.232	-1.471	-0.743	0.718	2.182	3.489	3.155	3.507	2.808	0.024	-1.750	-0.982	-1.871	-0.167	-0.221	-1.793	-2.453	-2.617	-1.951	-1.813	-0.921	-1.441	0.668	1.261	2.195	175.781
-1.312	-1.136	-1.057	-1.316	-1.558	-0.840	0.642	2.146	3.570	3.189	3.636	2.820	-0.216	-1.918	-0.881	-1.859	-0.185	-0.156	-1.861	-2.473	-2.699	-2.066	-1.836	-1.037	-1.387	0.857	1.411	2.390	179.688
-1.217	-1.381	-1.183	-1.469	-1.684	-0.945	0.607	2.219	3.826	3.328	3.885	2.913	-0.514	-2.153	-0.820	-1.940	-0.311	-0.107	-2.009	-2.598	-2.860	-2.234	-1.892	-1.148	-1.276	1.172	1.627	2.684	183.594
-1.210	-1.690	-1.361	-1.678	-1.842	-1.058	0.613	2.397	4.247	3.568	4.243	3.086	-0.852	-2.442	-0.819	-2.109	-0.517	-0.076	-2.216	-2.820	-3.090	-2.434	-1.971	-1.237	-1.112	1.599	1.906	3.071	187.500
-1.362	-2.026	-1.590	-1.928	-2.022	-1.180	0.659	2.661	4.804	3.900	4.695	3.337	-1.209	-2.767	-0.896	-2.355	-0.777	-0.072	-2.456	-3.123	-3.373	-2.645	-2.061	-1.288	-0.900	2.125	2.253	3.548	191.406
-1.705	-2.362	-1.868	-2.204	-2.218	-1.315	0.744	2.989	5.461	4.308	5.219	3.660	-1.560	-3.107	-1.059	-2.668	-1.065	-0.107	-2.708	-3.486	-3.693	-2.847	-2.150	-1.287	-0.651	2.734	2.668	4.112	195.312
-2.219	-2.680	-2.188	-2.492	-2.425	-1.465	0.866	3.352	6.170	4.775	5.788	4.048	-1.880	-3.442	-1.311	-3.033	-1.364	-0.197	-2.954	-3.889	-4.031	-3.025	-2.229	-1.221	-0.374	3.412	3.156	4.754	199.219
-2.836	-2.979	-2.542	-2.784	-2.641	-1.633	1.020	3.718	6.886	5.282	6.370	4.491	-2.148	-3.755	-1.651	-3.437	-1.659	-0.359	-3.181	-4.310	-4.373	-3.173	-2.295	-1.083	-0.078	4.140	3.715	5.462	203.125
-3.455	-3.272	-2.919	-3.078	-2.864	-1.820	1.203	4.059	7.564	5.808	6.939	4.975	-2.346	-4.028	-2.068	-3.869	-1.942	-0.604	-3.387	-4.734	-4.705	-3.288	-2.348	-0.870	0.228	4.900	4.339	6.218	207.031
-3.973	-3.582	-3.305	-3.373	-3.096	-2.025	1.410	4.354	8.171	6.336	7.468	5.484	-2.463	-4.251	-2.538	-4.317	-2.216	-0.925	-3.573	-5.153	-5.019	-3.375	-2.396	-0.586	0.540	5.673	5.015	6.998	210.938
-4.311	-3.932	-3.686	-3.675	-3.337	-2.244	1.634	4.589	8.683	6.849	7.937	6.003	-2.494	-4.416	-3.022	-4.776	-2.490	-1.298	-3.749	-5.565	-5.307	-3.442	-2.443	-0.242	0.857	6.439	5.727	7.775	214.844
-4.438	-4.339	-4.048	-3.986	-3.583	-2.470	1.870	4.762	9.091	7.336	8.334	6.513	-2.439	-4.520	-3.472	-5.238	-2.781	-1.683	-3.931	-5.974	-5.568	-3.498	-2.496	0.149	1.179	7.177	6.451	8.520	218.750
-4.380	-4.806	-4.380	-4.305	-3.829	-2.694	2.115	4.877	9.398	7.786	8.654	6.997	-2.307	-4.565	-3.834	-5.701	-3.110	-2.033	-4.131	-6.383	-5.800	-3.551	-2.556	0.569	1.507	7.870	7.161	9.209	222.656
-4.205	-5.324	-4.675	-4.628	-4.065	-2.902	2.361	4.949	9.615	8.192	8.901	7.444	-2.110	-4.556	-4.064	-6.160	-3.491	-2.306	-4.358	-6.797	-6.004	-3.606	-2.622	0.997	1.838	8.504	7.832	9.824	226.562
-4.002	-5.865	-4.931	-4.945	-4.280	-3.082	2.605	4.992	9.757	8.547	9.081	7.842	-1.866	-4.503	-4.138	-6.612	-3.929	-2.476	-4.615	-7.213	-6.179	-3.665	-2.686	1.414	2.171	9.071	8.439	10.351	230.469
-3.861	-6.397	-5.150	-5.243	-4.462	-3.224	2.837	5.022	9.843	8.845	9.206	8.185	-1.596	-4.420	-4.059	-7.049	-4.412	-2.538	-4.891	-7.626	-6.326	-3.722	-2.739	1.802	2.502	9.566	8.961	10.788	234.375
-3.843	-6.880	-5.338	-5.511	-4.603	-3.320	3.051	5.049	9.885	9.079	9.283	8.468	-1.324	-4.321	-3.857	-7.464	-4.915	-2.510	-5.167	-8.023	-6.444	-3.769	-2.767	2.147	2.824	9.991	9.385	11.137	238.281
-3.969	-7.283	-5.501	-5.738	-4.702	-3.369	3.237	5.077	9.891	9.242	9.319	8.687	-1.074	-4.223	-3.585	-7.849	-5.400	-2.424	-5.420	-8.392	-6.534	-3.797	-2.759	2.439	3.133	10.353	9.708	11.407	242.188
-4.219	-7.585	-5.638	-5.919	-4.762	-3.375	3.385	5.105	9.861	9.327	9.317	8.841	-0.868	-4.139	-3.304	-8.192	-5.828	-2.314	-5.627	-8.718	-6.596	-3.797	-2.705	2.675	3.425	10.659	9.934	11.606	246.094
-4.536	-7.779	-5.748	-6.055	-4.790	-3.348	3.486	5.123	9.794	9.331	9.278	8.927	-0.723	-4.078	-3.073	-8.488	-6.167	-2.211	-5.771	-8.990	-6.634	-3.764	-2.600	2.855	3.697	10.920	10.077	11.749	250.000
-4.852	-7.877	-5.827	-6.151	-4.798	-3.300	3.538	5.124	9.686	9.258	9.201	8.947	-0.646	-4.043	-2.932	-8.730	-6.401	-2.135	-5.845	-9.200	-6.647	-3.699	-2.447	2.988	3.947	11.146	10.157	11.844	253.906
-5.100	-7.904	-5.872	-6.219	-4.795	-3.243	3.540	5.100	9.537	9.118	9.090	8.903	-0.637	-4.028	-2.900	-8.920	-6.531	-2.091	-5.853	-9.347	-6.637	-3.606	-2.257	3.082	4.173	11.345	10.198	11.903	257.812
-5.240	-7.890	-5.884	-6.268	-4.789	-3.187	3.499	5.048	9.354	8.929	8.951	8.806	-0.680	-4.022	-2.968	-9.065	-6.580	-2.074	-5.812	-9.433	-6.603	-3.499	-2.049	3.150	4.373	11.526	10.223	11.938	261.719
-5.260	-7.866	-5.873	-6.308	-4.782	-3.139	3.429	4.971	9.150	8.719	8.797	8.668	-0.754	-4.007	-3.114	-9.176	-6.581	-2.075	-5.746	-9.465	-6.544	-3.391	-1.850	3.206	4.545	11.697	10.255	11.961	265.625
-5.182	-7.856	-5.854	-6.345	-4.772	-3.104	3.349	4.880	8.944	8.516	8.646	8.509	-0.829	-3.967	-3.304	-9.267	-6.574	-2.088	-5.680	-9.452	-6.460	-3.297	-1.685	3.262	4.688	11.864	10.310	11.984	269.531
-5.050	-7.875	-5.847	-6.384	-4.754	-3.081	3.280	4.789	8.761	8.352	8.519	8.352	-0.875	-3.887	-3.512	-9.351	-6.596	-2.117	-5.636	-9.407	-6.351	-3.227	-1.577	3.331	4.803	12.033	10.401	12.022	273.438
-4.920	-7.928	-5.876	-6.422	-4.722	-3.072	3.242	4.713	8.623	8.254	8.434	8.222	-0.864	-3.757	-3.722	-9.440	-6.670	-2.181	-5.630	-9.340	-6.219	-3.187	-1.543	3.422	4.895	12.213	10.535	12.085	277.344
-4.845	-8.007	-5.958	-6.459	-4.675	-3.074	3.250	4.667	8.552	8.242	8.408	8.140	-0.775	-3.575	-3.934	-9.540	-6.806	-2.305	-5.667	-9.262	-6.070	-3.176	-1.587	3.542	4.972	12.410	10.714	12.181	281.250
-4.867	-8.099	-6.103	-6.490	-4.614	-3.088	3.317	4.663	8.563	8.325	8.452	8.122	-0.600	-3.343	-4.159	-9.654	-7.001	-2.515	-5.745	-9.181	-5.909	-3.189	-1.706	3.697	5.046	12.629	10.937	12.314	285.156
-5.009	-8.193	-6.310	-6.517	-4.542	-3.114	3.444	4.706	8.661	8.502	8.569	8.174	-0.340	-3.073	-4.413	-9.781	-7.240	-2.823	-5.857	-9.105	-5.740	-3.217	-1.882	3.890	5.129	12.871	11.197	12.482	289.062
-5.274	-8.280	-6.563	-6.542	-4.471	-3.152	3.628	4.798	8.844	8.763	8.752	8.295	-0.008	-2.778	-4.710	-9.917	-7.507	-3.225	-5.992	-9.041	-5.570	-3.248	-2.094	4.119	5.232	13.137	11.485	12.680	292.969
-5.647	-8.363	-6.841	-6.573	-4.412	-3.202	3.859	4.937	9.098	9.089	8.990	8.474	0.377	-2.476	-5.055	-10.057	-7.784	-3.690	-6.138	-8.989	-5.403	-3.271	-2.314	4.381	5.360	13.420	11.791	12.899	296.875
-6.098	-8.449	-7.118	-6.620	-4.373	-3.264	4.124	5.115	9.408	9.460	9.264	8.692	0.788	-2.182	-5.438	-10.194	-8.057	-4.172	-6.283	-8.953	-5.245	-3.277	-2.516	4.667	5.512	13.707	12.099	13.126	300.781
-6.587	-8.553	-7.369	-6.689	-4.361	-3.337	4.408	5.321	9.752	9.852	9.554	8.932	1.203	-1.911	-5.838	-10.321	-8.315	-4.614	-6.416	-8.929	-5.099	-3.259	-2.683	4.965	5.674	13.983	12.397	13.352	304.688
-7.075	-8.686	-7.580	-6.783	-4.373	-3.418	4.695	5.541	10.109	10.244	9.839	9.173	1.602	-1.671	-6.228	-10.434	-8.549	-4.967	-6.526	-8.915	-4.967	-3.216	-2.803	5.261	5.829	14.230	12.670	13.564	308.594
-7.526	-8.850	-7.745	-6.900	-4.403	-3.502	4.974	5.761	10.460	10.619	10.102	9.400	1.971	-1.466	-6.586	-10.524	-8.750	-5.202	-6.604	-8.903	-4.852	-3.149	-2.876	5.541	5.956	14.430	12.908	13.753	312.500
-7.922	-9.037	-7.871	-7.027	-4.439	-3.583	5.234	5.967	10.787	10.960	10.327	9.602	2.303	-1.297	-6.901	-10.586	-8.906	-5.315	-6.638	-8.886	-4.753	-3.059	-2.906	5.792	6.034	14.570	13.104	13.912	316.406
-8.260	-9.225	-7.978	-7.148	-4.469	-3.656	5.464	6.144	11.079	11.258	10.506	9.773	2.598	-1.157	-7.182	-10.611	-8.998	-5.330	-6.617	-8.855	-4.666	-2.949	-2.902	6.006	6.052	14.643	13.258	14.036	320.312
-8.550	-9.384	-8.085	-7.245	-4.481	-3.719	5.659	6.281	11.323	11.505	10.632	9.912	2.858	-1.039	-7.447	-10.594	-9.009	-5.291	-6.531	-8.800	-4.586	-2.818	-2.873	6.180	6.008	14.652	13.372	14.124	324.219
-8.808	-9.485	-8.215	-7.303	-4.471	-3.769	5.810	6.371	11.512	11.694	10.704	10.018	3.087	-0.935	-7.715	-10.530	-8.928	-5.244	-6.376	-8.714	-4.509	-2.668	-2.825	6.314	5.911	14.605	13.454	14.176	328.125
-9.046	-9.506	-8.378	-7.313	-4.437	-3.807	5.915	6.409	11.637	11.821	10.723	10.091	3.287	-0.842	-7.997	-10.417	-8.755	-5.227	-6.157	-8.595	-4.429	-2.502	-2.763	6.412	5.780	14.517	13.510	14.195	332.031
-9.269	-9.441	-8.572	-7.274	-4.384	-3.834	5.970	6.399	11.697	11.886	10.695	10.133	3.460	-0.757	-8.285	-10.256	-8.508	-5.261	-5.890	-8.444	-4.343	-2.326	-2.691	6.480	5.637	14.402	13.546	14.182	335.938
-9.476	-9.299	-8.780	-7.191	-4.319	-3.849	5.978	6.345	11.692	11.891	10.626	10.144	3.604	-0.682	-8.553	-10.055	-8.222	-5.343	-5.603	-8.265	-4.251	-2.152	-2.616	6.521	5.505	14.274	13.563	14.139	339.844
-9.663	-9.103	-8.973	-7.077	-4.250	-3.852	5.946	6.258	11.631	11.842	10.529	10.127	3.717	-0.620	-8.766	-9.823	-7.938	-5.452	-5.327	-8.069	-4.155	-1.993	-2.541	6.539	5.399	14.138	13.559	14.067	343.750
-9.826	-8.879	-9.118	-6.946	-4.183	-3.841	5.885	6.153	11.526	11.751	10.419	10.086	3.800	-0.572	-8.892	-9.572	-7.698	-5.557	-5.095	-7.863	-4.056	-1.866	-2.474	6.533	5.327	13.996	13.526	13.962	347.656
-9.966	-8.653	-9.185	-6.809	-4.117	-3.811	5.810	6.046	11.395	11.630	10.313	10.029	3.854	-0.537	-8.919	-9.314	-7.528	-5.631	-4.927	-7.657	-3.957	-1.779	-2.419	6.504	5.284	13.839	13.458	13.822	351.562
-10.087	-8.444	-9.156	-6.672	-4.050	-3.759	5.736	5.952	11.256	11.495	10.224	9.961	3.884	-0.509	-8.861	-9.058	-7.432	-5.659	-4.829	-7.455	-3.855	-1.739	-2.378	6.451	5.257	13.658	13.346	13.643	355.469
-10.191	-8.259	-9.032	-6.537	-3.973	-3.683	5.677	5.885	11.122	11.362	10.164	9.889	3.898	-0.479	-8.761	-8.810	-7.389	-5.646	-4.790	-7.257	-3.747	-1.739	-2.351	6.372	5.225	13.441	13.185	13.423	359.375
-10.278	-8.094	-8.830	-6.396	-3.875	-3.583	5.644	5.854	11.002	11.241	10.136	9.814	3.904	-0.436	-8.680	-8.568	-7.360	-5.612	-4.784	-7.059	-3.628	-1.766	-2.334	6.270	5.168	13.174	12.973	13.160	363.281
-10.346	-7.934	-8.582	-6.242	-3.746	-3.462	5.641	5.862	10.900	11.139	10.137	9.738	3.909	-0.373	-8.679	-8.329	-7.300	-5.589	-4.777	-6.854	-3.491	-1.800	-2.320	6.148	5.069	12.855	12.712	12.857	367.188
-10.391	-7.760	-8.325	-6.067	-3.580	-3.326	5.666	5.905	10.810	11.060	10.158	9.658	3.919	-0.285	-8.802	-8.087	-7.171	-5.606	-4.734	-6.638	-3.336	-1.822	-2.305	6.010	4.920	12.482	12.410	12.519	371.094
-10.405	-7.557	-8.091	-5.867	-3.382	-3.184	5.711	5.973	10.727	10.999	10.182	9.571	3.936	-0.176	-9.055	-7.836	-6.958	-5.676	-4.635	-6.411	-3.165	-1.816	-2.282	5.863	4.722	12.068	12.075	12.154	375.000
-10.377	-7.322	-7.899	-5.649	-3.161	-3.044	5.763	6.052	10.640	10.950	10.193	9.469	3.960	-0.054	-9.402	-7.577	-6.672	-5.786	-4.474	-6.177	-2.989	-1.773	-2.250	5.712	4.487	11.627	11.723	11.771	378.906
-10.295	-7.065	-7.753	-5.425	-2.939	-2.917	5.807	6.124	10.544	10.903	10.177	9.349	3.984	0.064	-9.770	-7.319	-6.349	-5.894	-4.265	-5.950	-2.824	-1.694	-2.208	5.564	4.232	11.181	11.368	11.381	382.812
-10.150	-6.810	-7.641	-5.215	-2.741	-2.810	5.829	6.173	10.434	10.847	10.124	9.207	4.003	0.164	-10.072	-7.074	-6.041	-5.943	-4.036	-5.747	-2.688	-1.587	-2.156	5.424	3.978	10.754	11.026	10.995	386.719
-9.933	-6.589	-7.545	-5.043	-2.592	-2.731	5.820	6.188	10.312	10.776	10.031	9.042	4.009	0.230	-10.227	-6.861	-5.800	-5.870	-3.820	-5.587	-2.598	-1.465	-2.095	5.296	3.747	10.366	10.711	10.626	390.625
-9.652	-6.433	-7.448	-4.926	-2.512	-2.685	5.773	6.164	10.182	10.684	9.902	8.858	3.998	0.256	-10.185	-6.695	-5.664	-5.633	-3.647	-5.482	-2.563	-1.339	-2.021	5.185	3.555	10.035	10.435	10.285	394.531
-9.328	-6.362	-7.340	-4.875	-2.511	-2.672	5.692	6.102	10.050	10.573	9.748	8.660	3.972	0.244	-9.938	-6.585	-5.645	-5.219	-3.533	-5.438	-2.580	-1.217	-1.933	5.093	3.412	9.770	10.204	9.982	398.438
-9.004	-6.376	-7.223	-4.889	-2.585	-2.689	5.584	6.010	9.921	10.448	9.578	8.452	3.939	0.207	-9.527	-6.531	-5.722	-4.660	-3.478	-5.445	-2.635	-1.100	-1.824	5.025	3.321	9.571	10.022	9.723	402.344
-8.730	-6.459	-7.107	-4.953	-2.717	-2.728	5.464	5.896	9.800	10.316	9.400	8.239	3.910	0.166	-9.026	-6.520	-5.850	-4.025	-3.462	-5.484	-2.702	-0.982	-1.689	4.984	3.279	9.433	9.887	9.509	406.250
-8.562	-6.581	-7.008	-5.045	-2.881	-2.780	5.344	5.769	9.685	10.186	9.220	8.024	3.901	0.147	-8.527	-6.529	-5.965	-3.402	-3.456	-5.527	-2.749	-0.855	-1.527	4.970	3.273	9.343	9.791	9.337	410.156
-8.540	-6.701	-6.943	-5.137	-3.044	-2.833	5.239	5.633	9.574	10.063	9.033	7.802	3.921	0.170	-8.118	-6.533	-6.005	-2.883	-3.424	-5.546	-2.749	-0.707	-1.338	4.983	3.292	9.283	9.726	9.199	414.062
-8.678	-6.783	-6.926	-5.207	-3.176	-2.876	5.158	5.493	9.460	9.949	8.831	7.568	3.976	0.250	-7.860	-6.505	-5.921	-2.540	-3.335	-5.514	-2.680	-0.533	-1.128	5.018	3.322	9.238	9.678	9.082	417.969
-8.958	-6.796	-6.965	-5.234	-3.254	-2.902	5.104	5.348	9.334	9.842	8.604	7.315	4.062	0.390	-7.779	-6.427	-5.693	-2.405	-3.172	-5.416	-2.534	-0.331	-0.908	5.068	3.350	9.191	9.632	8.968	421.875
-9.328	-6.725	-7.057	-5.210	-3.265	-2.905	5.073	5.199	9.190	9.731	8.338	7.033	4.168	0.582	-7.860	-6.293	-5.328	-2.474	-2.934	-5.246	-2.317	-0.103	-0.689	5.122	3.368	9.131	9.575	8.842	425.781
-9.718	-6.566	-7.191	-5.133	-3.210	-2.884	5.056	5.046	9.019	9.606	8.025	6.718	4.276	0.809	-8.057	-6.104	-4.865	-2.701	-2.633	-5.011	-2.044	0.140	-0.485	5.167	3.372	9.049	9.490	8.688	429.688
-10.043	-6.333	-7.339	-5.008	-3.095	-2.837	5.038	4.888	8.814	9.450	7.659	6.368	4.369	1.048	-8.302	-5.876	-4.356	-3.014	-2.298	-4.726	-1.741	0.384	-0.307	5.190	3.358	8.936	9.362	8.492	433.594
-10.228	-6.048	-7.466	-4.845	-2.937	-2.764	5.002	4.725	8.571	9.250	7.242	5.987	4.432	1.277	-8.517	-5.626	-3.864	-3.331	-1.961	-4.415	-1.433	0.613	-0.167	5.178	3.327	8.786	9.178	8.248	437.500
-10.218	-5.740	-7.529	-4.657	-2.753	-2.665	4.932	4.557	8.286	8.993	6.784	5.582	4.455	1.477	-8.628	-5.378	-3.443	-3.569	-1.659	-4.103	-1.148	0.812	-0.070	5.117	3.277	8.590	8.928	7.949	441.406
-9.989	-5.438	-7.484	-4.455	-2.560	-2.540	4.816	4.384	7.959	8.674	6.300	5.165	4.434	1.637	-8.573	-5.149	-3.140	-3.656	-1.421	-3.814	-0.904	0.966	-0.015	4.998	3.203	8.341	8.605	7.595	445.312
-9.551	-5.166	-7.301	-4.248	-2.369	-2.389	4.649	4.205	7.596	8.294	5.809	4.751	4.373	1.750	-8.315	-4.954	-2.980	-3.550	-1.269	-3.568	-0.714	1.067	0.005	4.818	3.100	8.032	8.208	7.190	449.219
-8.947	-4.940	-6.966	-4.045	-2.189	-2.211	4.431	4.023	7.204	7.864	5.334	4.356	4.277	1.818	-7.847	-4.796	-2.969	-3.236	-1.210	-3.375	-0.580	1.113	0.002	4.579	2.962	7.660	7.744	6.742	453.125
-8.248	-4.759	-6.497	-3.846	-2.020	-2.010	4.174	3.842	6.800	7.401	4.897	3.996	4.155	1.850	-7.202	-4.670	-3.087	-2.740	-1.231	-3.233	-0.496	1.110	-0.008	4.288	2.783	7.228	7.224	6.266	457.031
-7.537	-4.609	-5.933	-3.651	-1.858	-1.790	3.893	3.665	6.400	6.926	4.520	3.683	4.014	1.855	-6.446	-4.560	-3.289	-2.123	-1.304	-3.131	-0.446	1.073	-0.008	3.959	2.562	6.745	6.667	5.780	460.938
-6.894	-4.466	-5.334	-3.451	-1.698	-1.556	3.607	3.499	6.025	6.462	4.216	3.426	3.860	1.842	-5.677	-4.445	-3.510	-1.472	-1.387	-3.049	-0.412	1.021	0.016	3.609	2.302	6.224	6.095	5.306	464.844
-6.383	-4.298	-4.768	-3.240	-1.532	-1.317	3.333	3.346	5.689	6.029	3.991	3.226	3.694	1.816	-4.999	-4.301	-3.676	-0.882	-1.432	-2.961	-0.376	0.978	0.072	3.255	2.010	5.684	5.527	4.862	468.750
-6.036	-4.083	-4.292	-3.011	-1.357	-1.080	3.086	3.209	5.405	5.640	3.844	3.080	3.517	1.780	-4.507	-4.113	-3.716	-0.433	-1.398	-2.849	-0.323	0.963	0.159	2.912	1.695	5.143	4.983	4.463	472.656
-5.849	-3.810	-3.943	-2.763	-1.174	-0.855	2.874	3.092	5.180	5.302	3.767	2.981	3.328	1.731	-4.256	-3.872	-3.584	-0.175	-1.262	-2.698	-0.249	0.985	0.266	2.590	1.369	4.617	4.477	4.114	476.562
-5.783	-3.490	-3.729	-2.502	-0.991	-0.646	2.701	2.995	5.012	5.015	3.747	2.919	3.125	1.666	-4.247	-3.588	-3.273	-0.114	-1.026	-2.511	-0.156	1.047	0.374	2.296	1.045	4.122	4.017	3.816	480.469
-5.779	-3.150	-3.635	-2.243	-0.819	-0.460	2.562	2.921	4.896	4.773	3.766	2.884	2.911	1.580	-4.431	-3.279	-2.815	-0.214	-0.717	-2.299	-0.054	1.136	0.461	2.033	0.736	3.670	3.610	3.564	484.375
-5.777	-2.829	-3.624	-2.004	-0.672	-0.300	2.452	2.870	4.821	4.568	3.809	2.868	2.691	1.476	-4.717	-2.977	-2.279	-0.413	-0.382	-2.086	0.045	1.237	0.510	1.804	0.455	3.271	3.262	3.351	488.281
-5.728	-2.564	-3.653	-1.804	-0.560	-0.169	2.359	2.843	4.772	4.392	3.860	2.863	2.472	1.358	-5.001	-2.713	-1.751	-0.639	-0.070	-1.894	0.127	1.330	0.510	1.611	0.213	2.934	2.976	3.174	492.188
-5.614	-2.378	-3.688	-1.654	-0.490	-0.067	2.276	2.837	4.736	4.237	3.905	2.865	2.267	1.238	-5.194	-2.512	-1.313	-0.835	0.174	-1.745	0.186	1.401	0.464	1.460	0.019	2.667	2.756	3.029	496.094
-5.443	-2.278	-3.707	-1.557	-0.458	0.006	2.193	2.847	4.699	4.099	3.934	2.869	2.089	1.132	-5.248	-2.388	-1.025	-0.971	0.325	-1.648	0.222	1.445	0.389	1.357	-0.121	2.476	2.606	2.918	500.000
-5.250	-2.249	-3.707	-1.508	-0.457	0.049	2.108	2.864	4.650	3.974	3.941	2.868	1.949	1.054	-5.156	-2.339	-0.906	-1.047	0.380	-1.599	0.243	1.465	0.307	1.305	-0.206	2.361	2.523	2.845	503.906
-5.081	-2.268	-3.694	-1.495	-0.474	0.066	2.019	2.880	4.586	3.863	3.924	2.858	1.856	1.016	-4.956	-2.347	-0.938	-1.082	0.358	-1.584	0.263	1.471	0.241	1.304	-0.240	2.315	2.502	2.809	507.812
-4.976	-2.305	-3.680	-1.503	-0.493	0.059	1.928	2.884	4.504	3.767	3.884	2.834	1.810	1.027	-4.709	-2.384	-1.071	-1.109	0.290	-1.577	0.298	1.476	0.209	1.346	-0.233	2.325	2.528	2.807	511.719
-4.960	-2.340	-3.675	-1.517	-0.503	0.032	1.839	2.866	4.407	3.688	3.824	2.790	1.806	1.082	-4.477	-2.418	-1.237	-1.149	0.216	-1.553	0.361	1.492	0.219	1.414	-0.202	2.369	2.584	2.831	515.625
-5.033	-2.362	-3.678	-1.528	-0.494	-0.009	1.757	2.820	4.300	3.626	3.750	2.724	1.831	1.174	-4.302	-2.419	-1.374	-1.210	0.164	-1.490	0.462	1.524	0.263	1.486	-0.167	2.423	2.645	2.864	519.531
-5.171	-2.370	-3.683	-1.530	-0.462	-0.057	1.687	2.742	4.190	3.581	3.667	2.635	1.868	1.286	-4.197	-2.369	-1.438	-1.281	0.154	-1.376	0.598	1.569	0.325	1.537	-0.149	2.458	2.689	2.888	523.438
-5.330	-2.370	-3.679	-1.518	-0.410	-0.106	1.632	2.635	4.084	3.552	3.581	2.524	1.899	1.397	-4.144	-2.258	-1.414	-1.335	0.187	-1.209	0.762	1.618	0.381	1.543	-0.165	2.453	2.696	2.882	527.344
-5.458	-2.368	-3.657	-1.493	-0.343	-0.147	1.594	2.507	3.988	3.535	3.495	2.396	1.909	1.490	-4.109	-2.092	-1.317	-1.344	0.253	-1.002	0.938	1.658	0.408	1.491	-0.226	2.391	2.652	2.832	531.250
-5.509	-2.369	-3.612	-1.457	-0.268	-0.176	1.575	2.369	3.908	3.528	3.414	2.254	1.886	1.549	-4.054	-1.887	-1.178	-1.288	0.334	-0.772	1.110	1.678	0.390	1.373	-0.331	2.268	2.552	2.730	535.156
-5.456	-2.377	-3.547	-1.413	-0.195	-0.188	1.574	2.236	3.847	3.530	3.340	2.106	1.826	1.567	-3.958	-1.663	-1.030	-1.165	0.415	-0.538	1.263	1.674	0.324	1.200	-0.469	2.087	2.400	2.580	539.062
-5.298	-2.388	-3.472	-1.365	-0.133	-0.181	1.589	2.117	3.805	3.538	3.275	1.958	1.735	1.542	-3.820	-1.443	-0.899	-0.993	0.486	-0.319	1.389	1.649	0.218	0.990	-0.619	1.863	2.206	2.394	542.969
-5.063	-2.399	-3.399	-1.317	-0.088	-0.158	1.614	2.019	3.778	3.551	3.216	1.814	1.620	1.485	-3.655	-1.243	-0.795	-0.796	0.546	-0.123	1.485	1.612	0.089	0.770	-0.760	1.613	1.990	2.189	546.875
-4.795	-2.405	-3.340	-1.274	-0.065	-0.123	1.642	1.941	3.756	3.564	3.160	1.677	1.492	1.406	-3.482	-1.073	-0.713	-0.599	0.601	0.046	1.555	1.579	-0.036	0.568	-0.869	1.358	1.769	1.982	550.781
-4.540	-2.399	-3.305	-1.240	-0.064	-0.083	1.665	1.875	3.724	3.570	3.098	1.546	1.363	1.320	-3.315	-0.937	-0.641	-0.415	0.661	0.195	1.608	1.564	-0.134	0.404	-0.935	1.115	1.563	1.787	554.688
-4.330	-2.379	-3.295	-1.215	-0.083	-0.047	1.673	1.812	3.667	3.563	3.022	1.417	1.241	1.241	-3.157	-0.828	-0.569	-0.244	0.731	0.328	1.650	1.577	-0.182	0.292	-0.955	0.895	1.384	1.611	558.594
-4.175	-2.346	-3.302	-1.199	-0.118	-0.023	1.657	1.737	3.571	3.533	2.923	1.287	1.129	1.176	-3.002	-0.739	-0.488	-0.077	0.814	0.454	1.690	1.624	-0.168	0.234	-0.938	0.705	1.237	1.455	562.500
-4.064	-2.302	-3.310	-1.191	-0.160	-0.016	1.612	1.642	3.426	3.474	2.795	1.152	1.028	1.130	-2.842	-0.656	-0.394	0.095	0.910	0.576	1.729	1.699	-0.090	0.222	-0.902	0.545	1.122	1.312	566.406
-3.967	-2.248	-3.302	-1.185	-0.204	-0.026	1.536	1.521	3.229	3.378	2.637	1.009	0.934	1.099	-2.676	-0.567	-0.282	0.280	1.014	0.696	1.768	1.795	0.043	0.240	-0.866	0.410	1.031	1.175	570.312
-3.856	-2.184	-3.262	-1.175	-0.239	-0.049	1.429	1.375	2.982	3.245	2.451	0.862	0.843	1.076	-2.510	-0.461	-0.147	0.474	1.123	0.810	1.803	1.899	0.214	0.268	-0.849	0.290	0.951	1.032	574.219
-3.706	-2.106	-3.183	-1.153	-0.259	-0.077	1.298	1.211	2.698	3.073	2.244	0.714	0.751	1.053	-2.357	-0.330	0.016	0.664	1.234	0.918	1.831	1.998	0.402	0.286	-0.862	0.172	0.866	0.874	578.125
-3.511	-2.011	-3.062	-1.112	-0.260	-0.099	1.147	1.037	2.391	2.867	2.026	0.572	0.656	1.022	-2.224	-0.170	0.211	0.834	1.343	1.018	1.853	2.084	0.585	0.279	-0.911	0.046	0.763	0.698	582.031
-3.284	-1.899	-2.908	-1.048	-0.238	-0.105	0.984	0.866	2.078	2.630	1.808	0.444	0.558	0.980	-2.114	0.019	0.434	0.971	1.449	1.110	1.868	2.149	0.744	0.236	-0.990	-0.099	0.630	0.504	585.938
-3.051	-1.769	-2.732	-0.956	-0.196	-0.090	0.817	0.704	1.776	2.372	1.599	0.335	0.458	0.928	-2.018	0.232	0.674	1.064	1.552	1.198	1.881	2.193	0.866	0.154	-1.092	-0.268	0.463	0.299	589.844
-2.844	-1.622	-2.549	-0.837	-0.137	-0.051	0.650	0.559	1.500	2.099	1.410	0.249	0.361	0.871	-1.927	0.463	0.918	1.109	1.652	1.287	1.897	2.218	0.946	0.036	-1.203	-0.460	0.264	0.094	593.750
-2.693	-1.458	-2.371	-0.695	-0.067	0.007	0.488	0.433	1.259	1.823	1.244	0.188	0.271	0.818	-1.833	0.703	1.148	1.106	1.750	1.380	1.921	2.230	0.983	-0.110	-1.315	-0.668	0.040	-0.098	597.656
-2.610	-1.276	-2.209	-0.534	0.010	0.075	0.335	0.326	1.062	1.555	1.105	0.147	0.194	0.776	-1.736	0.941	1.347	1.062	1.847	1.478	1.957	2.235	0.983	-0.272	-1.418	-0.884	-0.198	-0.265	601.562
-2.588	-1.079	-2.070	-0.366	0.085	0.145	0.194	0.237	0.912	1.305	0.996	0.122	0.131	0.751	-1.641	1.166	1.504	0.986	1.942	1.577	2.003	2.239	0.955	-0.435	-1.511	-1.095	-0.435	-0.401	605.469
-2.597	-0.871	-1.958	-0.203	0.154	0.207	0.068	0.166	0.808	1.085	0.914	0.106	0.083	0.743	-1.554	1.365	1.612	0.890	2.030	1.668	2.052	2.245	0.909	-0.587	-1.594	-1.291	-0.661	-0.506	609.375
-2.594	-0.664	-1.872	-0.062	0.209	0.253	-0.040	0.114	0.747	0.902	0.856	0.088	0.051	0.749	-1.482	1.526	1.672	0.790	2.105	1.741	2.095	2.252	0.857	-0.716	-1.666	-1.464	-0.864	-0.586	613.281
-2.535	-0.476	-1.808	0.040	0.243	0.280	-0.129	0.081	0.722	0.761	0.818	0.061	0.030	0.760	-1.425	1.644	1.688	0.702	2.158	1.785	2.123	2.257	0.807	-0.815	-1.728	-1.605	-1.037	-0.652	617.188
-2.387	-0.332	-1.755	0.088	0.251	0.290	-0.200	0.065	0.720	0.658	0.791	0.018	0.018	0.769	-1.378	1.717	1.667	0.642	2.181	1.796	2.127	2.255	0.764	-0.877	-1.776	-1.710	-1.174	-0.716	621.094
-2.141	-0.249	-1.703	0.074	0.227	0.283	-0.254	0.062	0.727	0.588	0.766	-0.047	0.010	0.769	-1.331	1.748	1.616	0.622	2.168	1.773	2.106	2.241	0.734	-0.900	-1.802	-1.776	-1.274	-0.786	625.000
-1.816	-0.236	-1.639	0.001	0.171	0.263	-0.299	0.069	0.728	0.538	0.731	-0.132	0.002	0.755	-1.273	1.751	1.545	0.648	2.119	1.727	2.060	2.213	0.717	-0.885	-1.798	-1.805	-1.335	-0.868	628.906
-1.457	-0.287	-1.557	-0.118	0.083	0.235	-0.340	0.077	0.706	0.496	0.678	-0.237	-0.008	0.727	-1.198	1.738	1.459	0.723	2.036	1.673	1.997	2.172	0.715	-0.837	-1.760	-1.797	-1.360	-0.961	632.812
-1.119	-0.378	-1.461	-0.260	-0.031	0.200	-0.386	0.079	0.649	0.446	0.598	-0.358	-0.024	0.687	-1.103	1.728	1.367	0.844	1.930	1.631	1.931	2.126	0.731	-0.765	-1.686	-1.760	-1.355	-1.058	636.719
-0.855	-0.476	-1.358	-0.401	-0.163	0.159	-0.447	0.066	0.550	0.376	0.488	-0.490	-0.046	0.641	-0.992	1.737	1.278	1.005	1.818	1.619	1.874	2.084	0.770	-0.678	-1.583	-1.704	-1.330	-1.151	640.625
-0.701	-0.544	-1.266	-0.515	-0.304	0.113	-0.530	0.030	0.405	0.276	0.346	-0.632	-0.078	0.592	-0.872	1.777	1.202	1.202	1.718	1.651	1.841	2.059	0.837	-0.589	-1.464	-1.642	-1.297	-1.233	644.531
-0.661	-0.555	-1.199	-0.583	-0.442	0.066	-0.638	-0.035	0.219	0.142	0.173	-0.784	-0.122	0.546	-0.745	1.854	1.151	1.429	1.649	1.734	1.840	2.062	0.935	-0.512	-1.346	-1.592	-1.273	-1.302	648.438
-0.712	-0.494	-1.168	-0.595	-0.565	0.021	-0.772	-0.132	0.003	-0.025	-0.023	-0.948	-0.178	0.501	-0.608	1.970	1.132	1.678	1.624	1.863	1.871	2.099	1.064	-0.459	-1.249	-1.572	-1.274	-1.363	652.344
-0.807	-0.366	-1.173	-0.552	-0.664	-0.014	-0.924	-0.258	-0.225	-0.217	-0.236	-1.125	-0.248	0.457	-0.454	2.117	1.148	1.942	1.649	2.027	1.931	2.169	1.218	-0.443	-1.191	-1.599	-1.317	-1.426	656.250
-0.892	-0.187	-1.202	-0.460	-0.727	-0.031	-1.083	-0.401	-0.447	-0.420	-0.452	-1.316	-0.330	0.412	-0.283	2.281	1.200	2.205	1.719	2.206	2.007	2.266	1.386	-0.470	-1.184	-1.682	-1.410	-1.503	660.156
-0.919	0.015	-1.238	-0.336	-0.749	-0.021	-1.235	-0.547	-0.642	-0.621	-0.657	-1.515	-0.422	0.364	-0.104	2.447	1.287	2.443	1.827	2.379	2.085	2.375	1.554	-0.541	-1.229	-1.825	-1.556	-1.604	664.062
-0.858	0.211	-1.257	-0.197	-0.728	0.021	-1.363	-0.678	-0.797	-0.801	-0.838	-1.715	-0.517	0.317	0.057	2.598	1.406	2.625	1.959	2.527	2.150	2.483	1.705	-0.651	-1.321	-2.015	-1.744	-1.733	667.969
-0.707	0.375	-1.245	-0.061	-0.670	0.092	-1.456	-0.779	-0.901	-0.948	-0.980	-1.903	-0.604	0.274	0.163	2.716	1.558	2.721	2.101	2.634	2.191	2.577	1.824	-0.783	-1.441	-2.232	-1.954	-1.883	671.875
-0.484	0.490	-1.196	0.057	-0.585	0.186	-1.503	-0.840	-0.953	-1.051	-1.074	-2.060	-0.672	0.241	0.180	2.789	1.734	2.704	2.240	2.690	2.201	2.645	1.900	-0.916	-1.564	-2.444	-2.156	-2.039	675.781
-0.224	0.542	-1.117	0.142	-0.487	0.289	-1.502	-0.859	-0.959	-1.105	-1.112	-2.170	-0.709	0.226	0.093	2.803	1.919	2.569	2.361	2.689	2.178	2.681	1.925	-1.025	-1.666	-2.617	-2.314	-2.179	679.688
0.033	0.524	-1.026	0.188	-0.394	0.385	-1.454	-0.839	-0.929	-1.108	-1.095	-2.217	-0.707	0.231	-0.082	2.753	2.083	2.335	2.447	2.630	2.124	2.683	1.898	-1.088	-1.723	-2.719	-2.399	-2.277	683.594
0.249	0.438	-0.945	0.189	-0.325	0.459	-1.369	-0.790	-0.878	-1.067	-1.027	-2.192	-0.662	0.256	-0.298	2.636	2.187	2.048	2.484	2.516	2.045	2.649	1.822	-1.088	-1.721	-2.731	-2.389	-2.312	687.500
0.400	0.289	-0.893	0.145	-0.293	0.500	-1.258	-0.725	-0.821	-0.990	-0.917	-2.093	-0.578	0.294	-0.488	2.457	2.193	1.769	2.456	2.353	1.946	2.585	1.707	-1.021	-1.656	-2.646	-2.280	-2.269	691.406
0.476	0.090	-0.882	0.058	-0.310	0.501	-1.138	-0.656	-0.767	-0.887	-0.782	-1.927	-0.467	0.338	-0.587	2.230	2.073	1.562	2.359	2.152	1.835	2.496	1.568	-0.897	-1.536	-2.477	-2.084	-2.146	695.312
0.482	-0.139	-0.914	-0.067	-0.378	0.466	-1.022	-0.588	-0.726	-0.771	-0.634	-1.711	-0.345	0.373	-0.551	1.974	1.819	1.478	2.197	1.926	1.717	2.395	1.425	-0.733	-1.377	-2.250	-1.832	-1.953	699.219
0.439	-0.377	-0.980	-0.221	-0.495	0.402	-0.925	-0.528	-0.701	-0.655	-0.492	-1.466	-0.231	0.389	-0.367	1.713	1.455	1.542	1.987	1.692	1.596	2.293	1.301	-0.557	-1.203	-2.002	-1.559	-1.712	703.125
0.375	-0.601	-1.063	-0.394	-0.652	0.320	-0.857	-0.475	-0.695	-0.549	-0.368	-1.216	-0.141	0.376	-0.058	1.471	1.025	1.752	1.754	1.464	1.474	2.205	1.216	-0.396	-1.037	-1.768	-1.307	-1.453	707.031
0.323	-0.791	-1.145	-0.575	-0.835	0.231	-0.825	-0.428	-0.706	-0.466	-0.273	-0.985	-0.087	0.328	0.324	1.266	0.594	2.074	1.531	1.255	1.352	2.144	1.188	-0.271	-0.900	-1.580	-1.106	-1.208	710.938
0.314	-0.935	-1.208	-0.752	-1.029	0.144	-0.831	-0.387	-0.733	-0.412	-0.213	-0.789	-0.072	0.248	0.707	1.112	0.229	2.450	1.350	1.075	1.233	2.118	1.224	-0.195	-0.804	-1.455	-0.977	-1.008	714.844
0.364	-1.027	-1.242	-0.916	-1.218	0.067	-0.875	-0.352	-0.774	-0.393	-0.190	-0.640	-0.091	0.141	1.022	1.014	-0.014	2.812	1.234	0.933	1.117	2.129	1.323	-0.168	-0.751	-1.393	-0.922	-0.872	718.750
0.477	-1.068	-1.244	-1.056	-1.391	0.004	-0.950	-0.327	-0.825	-0.412	-0.201	-0.542	-0.133	0.021	1.213	0.973	-0.097	3.094	1.196	0.833	1.011	2.173	1.468	-0.179	-0.731	-1.381	-0.930	-0.812	722.656
0.634	-1.066	-1.220	-1.165	-1.537	-0.045	-1.049	-0.315	-0.883	-0.466	-0.242	-0.490	-0.182	-0.095	1.251	0.982	-0.015	3.250	1.232	0.777	0.922	2.238	1.638	-0.211	-0.732	-1.398	-0.977	-0.824	726.562
0.802	-1.027	-1.180	-1.238	-1.650	-0.083	-1.163	-0.321	-0.945	-0.552	-0.308	-0.480	-0.223	-0.192	1.137	1.034	0.209	3.262	1.325	0.766	0.857	2.310	1.807	-0.246	-0.737	-1.416	-1.037	-0.898	730.469
0.940	-0.963	-1.138	-1.272	-1.728	-0.114	-1.281	-0.347	-1.011	-0.662	-0.392	-0.503	-0.240	-0.252	0.905	1.119	0.531	3.145	1.450	0.797	0.826	2.373	1.949	-0.266	-0.730	-1.414	-1.086	-1.012	734.375
1.011	-0.881	-1.104	-1.269	-1.772	-0.142	-1.396	-0.396	-1.082	-0.787	-0.490	-0.551	-0.228	-0.266	0.607	1.227	0.891	2.942	1.577	0.868	0.835	2.417	2.049	-0.262	-0.704	-1.380	-1.107	-1.145	738.281
0.997	-0.789	-1.084	-1.233	-1.786	-0.174	-1.502	-0.464	-1.159	-0.920	-0.597	-0.618	-0.184	-0.228	0.305	1.349	1.228	2.710	1.680	0.972	0.882	2.436	2.099	-0.232	-0.658	-1.312	-1.093	-1.273	742.188
0.904	-0.693	-1.077	-1.172	-1.777	-0.211	-1.596	-0.545	-1.245	-1.052	-0.711	-0.700	-0.115	-0.141	0.056	1.477	1.495	2.501	1.745	1.097	0.965	2.430	2.100	-0.180	-0.597	-1.218	-1.051	-1.378	746.094
0.760	-0.598	-1.076	-1.091	-1.751	-0.255	-1.674	-0.632	-1.340	-1.177	-0.829	-0.795	-0.031	-0.018	-0.103	1.604	1.664	2.354	1.767	1.233	1.071	2.408	2.063	-0.118	-0.534	-1.115	-0.993	-1.448	750.000
0.612	-0.506	-1.073	-0.999	-1.716	-0.304	-1.737	-0.715	-1.442	-1.289	-0.949	-0.901	0.056	0.125	-0.155	1.724	1.732	2.281	1.756	1.365	1.185	2.380	2.002	-0.058	-0.477	-1.021	-0.938	-1.479	753.906
0.509	-0.418	-1.062	-0.905	-1.679	-0.356	-1.785	-0.783	-1.546	-1.384	-1.067	-1.017	0.131	0.266	-0.100	1.833	1.711	2.274	1.723	1.481	1.288	2.357	1.932	-0.012	-0.438	-0.954	-0.904	-1.476	757.812
0.495	-0.339	-1.039	-0.819	-1.647	-0.405	-1.818	-0.830	-1.644	-1.459	-1.176	-1.137	0.182	0.384	0.047	1.927	1.624	2.315	1.683	1.568	1.364	2.343	1.867	0.010	-0.422	-0.924	-0.905	-1.448	761.719
0.591	-0.273	-1.003	-0.748	-1.628	-0.446	-1.838	-0.852	-1.725	-1.510	-1.269	-1.256	0.200	0.462	0.262	2.006	1.495	2.381	1.642	1.619	1.400	2.341	1.817	0.008	-0.428	-0.932	-0.943	-1.410	765.625
0.794	-0.229	-0.957	-0.703	-1.626	-0.475	-1.843	-0.847	-1.782	-1.537	-1.337	-1.368	0.183	0.493	0.511	2.067	1.344	2.458	1.599	1.633	1.391	2.346	1.785	-0.015	-0.453	-0.971	-1.013	-1.376	769.531
1.073	-0.214	-0.903	-0.689	-1.647	-0.484	-1.832	-0.818	-1.806	-1.536	-1.371	-1.463	0.134	0.479	0.749	2.113	1.190	2.538	1.547	1.613	1.341	2.351	1.772	-0.047	-0.489	-1.026	-1.098	-1.352	773.438
1.375	-0.232	-0.848	-0.706	-1.691	-0.471	-1.805	-0.769	-1.793	-1.506	-1.365	-1.537	0.063	0.431	0.923	2.147	1.049	2.619	1.473	1.569	1.262	2.349	1.778	-0.074	-0.528	-1.081	-1.181	-1.344	777.344
1.640	-0.281	-0.797	-0.750	-1.755	-0.431	-1.759	-0.706	-1.743	-1.447	-1.317	-1.586	-0.019	0.368	0.983	2.174	0.936	2.702	1.371	1.514	1.171	2.335	1.801	-0.081	-0.563	-1.120	-1.241	-1.350	781.250
1.815	-0.353	-0.752	-0.813	-1.835	-0.365	-1.693	-0.635	-1.660	-1.361	-1.227	-1.610	-0.100	0.307	0.895	2.199	0.859	2.788	1.234	1.460	1.086	2.306	1.838	-0.059	-0.591	-1.132	-1.265	-1.363	785.156
1.874	-0.438	-0.717	-0.886	-1.926	-0.276	-1.608	-0.561	-1.552	-1.253	-1.105	-1.613	-0.174	0.263	0.653	2.227	0.820	2.875	1.064	1.416	1.017	2.264	1.886	-0.005	-0.610	-1.116	-1.250	-1.379	789.062
1.823	-0.528	-0.689	-0.962	-2.022	-0.168	-1.509	-0.489	-1.428	-1.130	-0.959	-1.601	-0.236	0.240	0.285	2.261	0.813	2.965	0.866	1.386	0.969	2.212	1.942	0.078	-0.621	-1.072	-1.199	-1.392	792.969
1.698	-0.620	-0.666	-1.037	-2.120	-0.051	-1.402	-0.419	-1.299	-1.001	-0.803	-1.583	-0.288	0.236	-0.153	2.301	0.820	3.058	0.651	1.367	0.938	2.152	2.000	0.178	-0.626	-1.012	-1.126	-1.402	796.875
