FP1	F3	F7	FC3	C3	C5	P3	P7	PO7	PO3	O1	Oz	Pz	CPz	FP2	Fz	F4	F8	FC4	FCz	Cz	C4	C6	P4	P8	PO8	PO4	O2	time
-2.119	0.533	1.084	1.062	0.068	0.284	0.423	0.953	0.430	0.182	-0.023	0.213	1.134	0.276	1.636	-0.301	-0.906	-0.198	-1.767	-0.116	-0.200	-0.801	-0.876	-0.022	-0.348	0.185	0.939	-0.576	-199.219
-1.620	0.349	0.545	0.814	0.076	0.233	0.559	0.860	0.707	0.453	0.359	0.587	1.173	0.535	1.133	-0.350	-0.968	-0.448	-1.709	-0.125	-0.063	-0.604	-0.774	-0.065	-0.462	-0.026	0.618	-0.501	-195.312
-1.145	0.177	0.055	0.574	0.074	0.175	0.674	0.742	0.931	0.690	0.707	0.919	1.199	0.775	0.699	-0.383	-0.992	-0.651	-1.647	-0.123	0.067	-0.413	-0.677	-0.105	-0.579	-0.226	0.316	-0.440	-191.406
-0.713	0.028	-0.344	0.351	0.055	0.107	0.752	0.583	1.066	0.860	0.989	1.173	1.201	0.978	0.375	-0.386	-0.950	-0.770	-1.578	-0.100	0.187	-0.233	-0.584	-0.141	-0.694	-0.404	0.049	-0.402	-187.500
-0.337	-0.091	-0.618	0.151	0.017	0.029	0.779	0.377	1.091	0.940	1.182	1.322	1.171	1.136	0.180	-0.352	-0.825	-0.784	-1.497	-0.046	0.294	-0.069	-0.493	-0.169	-0.801	-0.548	-0.169	-0.392	-183.594
-0.028	-0.178	-0.753	-0.017	-0.032	-0.053	0.751	0.129	1.004	0.919	1.275	1.359	1.103	1.246	0.111	-0.280	-0.619	-0.694	-1.404	0.043	0.389	0.077	-0.398	-0.187	-0.888	-0.654	-0.327	-0.406	-179.688
0.205	-0.229	-0.749	-0.144	-0.082	-0.131	0.671	-0.147	0.824	0.796	1.267	1.287	1.000	1.315	0.149	-0.176	-0.352	-0.521	-1.298	0.171	0.473	0.203	-0.292	-0.193	-0.942	-0.720	-0.424	-0.439	-175.781
0.354	-0.242	-0.620	-0.222	-0.118	-0.190	0.547	-0.430	0.579	0.582	1.166	1.121	0.865	1.353	0.264	-0.046	-0.050	-0.296	-1.180	0.333	0.549	0.309	-0.172	-0.188	-0.955	-0.752	-0.466	-0.485	-171.875
0.413	-0.212	-0.394	-0.246	-0.125	-0.218	0.389	-0.694	0.301	0.295	0.988	0.885	0.704	1.368	0.426	0.101	0.256	-0.055	-1.052	0.520	0.620	0.394	-0.040	-0.176	-0.923	-0.759	-0.467	-0.538	-167.969
0.383	-0.136	-0.110	-0.217	-0.096	-0.204	0.212	-0.915	0.024	-0.040	0.751	0.604	0.527	1.369	0.603	0.256	0.537	0.170	-0.918	0.719	0.686	0.460	0.098	-0.160	-0.850	-0.753	-0.448	-0.595	-164.062
0.273	-0.018	0.188	-0.143	-0.032	-0.145	0.030	-1.071	-0.227	-0.395	0.479	0.306	0.344	1.360	0.769	0.409	0.773	0.358	-0.781	0.911	0.747	0.509	0.232	-0.144	-0.747	-0.745	-0.428	-0.651	-160.156
0.104	0.127	0.452	-0.040	0.059	-0.047	-0.140	-1.147	-0.432	-0.738	0.198	0.019	0.169	1.342	0.898	0.553	0.951	0.498	-0.650	1.079	0.799	0.545	0.348	-0.128	-0.626	-0.741	-0.419	-0.704	-156.250
-0.093	0.280	0.638	0.070	0.161	0.076	-0.282	-1.135	-0.579	-1.039	-0.063	-0.231	0.019	1.312	0.968	0.678	1.066	0.586	-0.532	1.203	0.840	0.573	0.436	-0.111	-0.498	-0.742	-0.427	-0.749	-152.344
-0.286	0.416	0.715	0.166	0.257	0.206	-0.382	-1.039	-0.665	-1.269	-0.279	-0.424	-0.093	1.269	0.963	0.778	1.120	0.627	-0.437	1.270	0.865	0.594	0.486	-0.088	-0.373	-0.743	-0.445	-0.779	-148.438
-0.444	0.508	0.671	0.232	0.329	0.324	-0.431	-0.870	-0.691	-1.408	-0.431	-0.547	-0.158	1.211	0.876	0.847	1.118	0.624	-0.372	1.275	0.872	0.609	0.492	-0.052	-0.255	-0.736	-0.460	-0.789	-144.531
-0.546	0.541	0.515	0.261	0.367	0.412	-0.426	-0.649	-0.664	-1.445	-0.510	-0.597	-0.169	1.139	0.712	0.881	1.067	0.579	-0.340	1.217	0.859	0.613	0.454	-0.000	-0.148	-0.714	-0.455	-0.771	-140.625
-0.582	0.504	0.277	0.254	0.367	0.458	-0.371	-0.402	-0.592	-1.382	-0.518	-0.580	-0.132	1.057	0.487	0.874	0.971	0.497	-0.340	1.102	0.826	0.603	0.379	0.071	-0.052	-0.669	-0.411	-0.724	-136.719
-0.549	0.400	0.003	0.218	0.330	0.456	-0.279	-0.155	-0.488	-1.230	-0.468	-0.511	-0.055	0.968	0.230	0.824	0.834	0.385	-0.363	0.940	0.772	0.570	0.279	0.161	0.034	-0.597	-0.319	-0.647	-132.812
-0.452	0.241	-0.258	0.160	0.262	0.408	-0.165	0.066	-0.363	-1.012	-0.381	-0.408	0.046	0.877	-0.020	0.731	0.660	0.255	-0.398	0.745	0.698	0.512	0.168	0.261	0.106	-0.499	-0.176	-0.547	-128.906
-0.302	0.048	-0.458	0.088	0.172	0.322	-0.047	0.244	-0.230	-0.755	-0.282	-0.292	0.155	0.787	-0.224	0.594	0.453	0.125	-0.428	0.529	0.607	0.427	0.060	0.364	0.158	-0.380	0.006	-0.432	-125.000
-0.118	-0.154	-0.567	0.008	0.071	0.212	0.059	0.369	-0.099	-0.488	-0.191	-0.183	0.256	0.701	-0.350	0.422	0.225	0.012	-0.439	0.307	0.502	0.318	-0.030	0.456	0.183	-0.253	0.207	-0.316	-121.094
0.075	-0.337	-0.570	-0.075	-0.032	0.097	0.144	0.440	0.020	-0.234	-0.122	-0.091	0.340	0.618	-0.383	0.227	-0.006	-0.069	-0.417	0.093	0.388	0.194	-0.095	0.525	0.170	-0.132	0.401	-0.212	-117.188
0.248	-0.476	-0.477	-0.158	-0.125	-0.006	0.205	0.465	0.122	-0.011	-0.082	-0.026	0.400	0.538	-0.329	0.029	-0.215	-0.111	-0.357	-0.098	0.272	0.068	-0.131	0.563	0.111	-0.035	0.559	-0.131	-113.281
0.373	-0.553	-0.314	-0.234	-0.200	-0.082	0.245	0.455	0.202	0.172	-0.064	0.013	0.435	0.458	-0.214	-0.151	-0.374	-0.115	-0.255	-0.255	0.164	-0.047	-0.138	0.565	0.006	0.025	0.656	-0.080	-109.375
0.427	-0.560	-0.120	-0.299	-0.250	-0.121	0.271	0.426	0.263	0.315	-0.057	0.032	0.447	0.375	-0.078	-0.290	-0.460	-0.088	-0.117	-0.369	0.071	-0.139	-0.122	0.531	-0.141	0.037	0.677	-0.059	-105.469
0.399	-0.504	0.065	-0.352	-0.274	-0.124	0.288	0.390	0.306	0.420	-0.045	0.040	0.440	0.284	0.041	-0.374	-0.459	-0.044	0.047	-0.437	-0.003	-0.199	-0.088	0.466	-0.313	0.002	0.618	-0.060	-101.562
0.291	-0.401	0.207	-0.391	-0.274	-0.102	0.298	0.355	0.334	0.490	-0.016	0.047	0.415	0.177	0.116	-0.397	-0.374	0.008	0.223	-0.463	-0.058	-0.225	-0.045	0.378	-0.488	-0.070	0.486	-0.069	-97.656
0.122	-0.276	0.285	-0.421	-0.258	-0.070	0.299	0.324	0.347	0.529	0.038	0.063	0.372	0.048	0.137	-0.365	-0.222	0.059	0.397	-0.458	-0.100	-0.220	0.000	0.278	-0.641	-0.158	0.301	-0.068	-93.750
-0.079	-0.158	0.292	-0.446	-0.236	-0.049	0.282	0.295	0.344	0.538	0.117	0.093	0.307	-0.107	0.112	-0.292	-0.033	0.106	0.555	-0.435	-0.137	-0.193	0.042	0.176	-0.747	-0.238	0.094	-0.037	-89.844
-0.271	-0.069	0.239	-0.468	-0.219	-0.056	0.237	0.263	0.321	0.516	0.210	0.138	0.215	-0.288	0.059	-0.197	0.158	0.148	0.686	-0.408	-0.178	-0.155	0.074	0.078	-0.791	-0.285	-0.107	0.035	-85.938
-0.411	-0.022	0.148	-0.487	-0.214	-0.102	0.153	0.218	0.271	0.462	0.298	0.192	0.092	-0.492	0.004	-0.098	0.318	0.184	0.787	-0.387	-0.227	-0.117	0.091	-0.011	-0.766	-0.280	-0.273	0.151	-82.031
-0.463	-0.018	0.048	-0.497	-0.223	-0.188	0.026	0.156	0.187	0.373	0.358	0.243	-0.062	-0.708	-0.036	-0.006	0.427	0.215	0.857	-0.374	-0.287	-0.088	0.089	-0.092	-0.678	-0.218	-0.387	0.303	-78.125
-0.405	-0.045	-0.035	-0.489	-0.240	-0.302	-0.138	0.073	0.064	0.249	0.365	0.274	-0.242	-0.921	-0.050	0.073	0.475	0.242	0.903	-0.366	-0.351	-0.072	0.070	-0.166	-0.544	-0.109	-0.443	0.467	-74.219
-0.240	-0.083	-0.078	-0.451	-0.254	-0.423	-0.330	-0.028	-0.097	0.094	0.302	0.269	-0.439	-1.115	-0.041	0.144	0.470	0.266	0.936	-0.354	-0.409	-0.070	0.035	-0.237	-0.383	0.026	-0.450	0.615	-70.312
0.009	-0.108	-0.071	-0.377	-0.253	-0.524	-0.529	-0.140	-0.293	-0.082	0.158	0.212	-0.639	-1.274	-0.021	0.216	0.430	0.292	0.968	-0.327	-0.452	-0.077	-0.008	-0.308	-0.217	0.160	-0.423	0.716	-66.406
0.301	-0.102	-0.018	-0.264	-0.226	-0.581	-0.715	-0.251	-0.511	-0.268	-0.064	0.097	-0.829	-1.386	-0.006	0.296	0.376	0.323	1.009	-0.279	-0.470	-0.089	-0.050	-0.376	-0.059	0.268	-0.382	0.745	-62.500
0.584	-0.051	0.068	-0.120	-0.170	-0.579	-0.870	-0.351	-0.735	-0.446	-0.346	-0.075	-0.995	-1.446	-0.007	0.385	0.329	0.364	1.063	-0.208	-0.464	-0.098	-0.080	-0.437	0.085	0.336	-0.345	0.693	-58.594
0.812	0.045	0.166	0.039	-0.089	-0.514	-0.978	-0.428	-0.946	-0.600	-0.661	-0.293	-1.128	-1.459	-0.030	0.480	0.301	0.415	1.132	-0.121	-0.436	-0.103	-0.090	-0.483	0.219	0.364	-0.320	0.567	-54.688
0.950	0.175	0.250	0.190	0.005	-0.395	-1.032	-0.477	-1.124	-0.714	-0.974	-0.536	-1.223	-1.435	-0.073	0.564	0.294	0.470	1.205	-0.035	-0.399	-0.101	-0.072	-0.505	0.353	0.369	-0.305	0.393	-50.781
0.981	0.318	0.303	0.312	0.097	-0.242	-1.031	-0.494	-1.251	-0.774	-1.246	-0.775	-1.277	-1.387	-0.130	0.617	0.297	0.515	1.271	0.032	-0.367	-0.096	-0.027	-0.494	0.501	0.374	-0.288	0.210	-46.875
0.912	0.445	0.311	0.388	0.169	-0.082	-0.978	-0.480	-1.310	-0.770	-1.442	-0.982	-1.291	-1.332	-0.192	0.616	0.294	0.530	1.313	0.058	-0.355	-0.092	0.038	-0.444	0.672	0.408	-0.252	0.060	-42.969
0.765	0.529	0.277	0.408	0.212	0.062	-0.880	-0.434	-1.289	-0.695	-1.535	-1.127	-1.263	-1.282	-0.254	0.538	0.262	0.497	1.313	0.027	-0.374	-0.096	0.109	-0.357	0.868	0.491	-0.182	-0.020	-39.062
0.571	0.550	0.210	0.376	0.218	0.170	-0.740	-0.355	-1.180	-0.550	-1.510	-1.192	-1.192	-1.245	-0.315	0.375	0.184	0.404	1.260	-0.068	-0.429	-0.114	0.170	-0.239	1.079	0.629	-0.071	-0.006	-35.156
0.363	0.500	0.127	0.304	0.192	0.234	-0.566	-0.244	-0.981	-0.339	-1.362	-1.167	-1.079	-1.223	-0.379	0.131	0.051	0.250	1.152	-0.221	-0.518	-0.152	0.204	-0.105	1.283	0.810	0.077	0.107	-31.250
0.168	0.390	0.046	0.212	0.145	0.256	-0.361	-0.100	-0.698	-0.073	-1.102	-1.055	-0.927	-1.211	-0.453	-0.176	-0.135	0.044	0.994	-0.417	-0.631	-0.211	0.202	0.029	1.452	1.008	0.246	0.302	-27.344
0.003	0.244	-0.020	0.122	0.091	0.245	-0.132	0.072	-0.344	0.233	-0.755	-0.871	-0.744	-1.204	-0.547	-0.510	-0.357	-0.194	0.805	-0.630	-0.753	-0.288	0.160	0.142	1.555	1.185	0.410	0.550	-23.438
-0.127	0.092	-0.062	0.048	0.043	0.217	0.113	0.265	0.059	0.561	-0.350	-0.637	-0.542	-1.190	-0.667	-0.831	-0.588	-0.440	0.605	-0.832	-0.868	-0.379	0.083	0.217	1.568	1.306	0.539	0.813	-19.531
-0.224	-0.038	-0.082	-0.001	0.013	0.186	0.361	0.465	0.486	0.891	0.076	-0.378	-0.342	-1.163	-0.810	-1.098	-0.797	-0.673	0.418	-0.994	-0.958	-0.475	-0.020	0.239	1.482	1.341	0.607	1.053	-15.625
-0.289	-0.126	-0.091	-0.023	0.006	0.163	0.601	0.658	0.910	1.204	0.491	-0.118	-0.162	-1.116	-0.967	-1.284	-0.958	-0.873	0.263	-1.097	-1.013	-0.569	-0.136	0.202	1.298	1.277	0.596	1.242	-11.719
-0.324	-0.167	-0.101	-0.024	0.022	0.157	0.818	0.829	1.304	1.485	0.866	0.124	-0.022	-1.049	-1.115	-1.374	-1.057	-1.029	0.149	-1.133	-1.026	-0.654	-0.254	0.105	1.036	1.115	0.502	1.364	-7.812
-0.325	-0.168	-0.128	-0.012	0.058	0.170	1.000	0.966	1.646	1.722	1.185	0.337	0.064	-0.966	-1.227	-1.373	-1.092	-1.132	0.077	-1.104	-0.998	-0.730	-0.370	-0.045	0.721	0.869	0.330	1.413	-3.906
-0.283	-0.143	-0.182	0.006	0.112	0.202	1.141	1.065	1.921	1.908	1.439	0.512	0.091	-0.873	-1.272	-1.299	-1.076	-1.182	0.039	-1.022	-0.934	-0.795	-0.482	-0.238	0.383	0.564	0.099	1.394	0.000
-0.193	-0.106	-0.265	0.026	0.179	0.250	1.237	1.126	2.121	2.039	1.628	0.647	0.062	-0.778	-1.228	-1.179	-1.026	-1.186	0.022	-0.903	-0.842	-0.853	-0.594	-0.459	0.050	0.228	-0.172	1.317	3.906
-0.060	-0.067	-0.372	0.047	0.258	0.309	1.290	1.155	2.246	2.116	1.760	0.743	-0.011	-0.684	-1.085	-1.038	-0.959	-1.155	0.014	-0.766	-0.730	-0.904	-0.708	-0.693	-0.258	-0.109	-0.457	1.195	7.812
0.105	-0.026	-0.491	0.074	0.346	0.370	1.307	1.161	2.298	2.139	1.842	0.798	-0.109	-0.595	-0.850	-0.893	-0.886	-1.103	0.008	-0.623	-0.606	-0.946	-0.827	-0.922	-0.527	-0.424	-0.736	1.039	11.719
0.277	0.022	-0.602	0.115	0.444	0.427	1.292	1.155	2.286	2.111	1.882	0.813	-0.214	-0.508	-0.547	-0.757	-0.813	-1.047	0.004	-0.486	-0.477	-0.975	-0.948	-1.130	-0.748	-0.696	-0.989	0.862	15.625
0.428	0.084	-0.689	0.174	0.550	0.471	1.250	1.144	2.218	2.031	1.884	0.786	-0.308	-0.421	-0.214	-0.630	-0.737	-1.001	0.006	-0.358	-0.346	-0.985	-1.062	-1.300	-0.921	-0.912	-1.205	0.671	19.531
0.531	0.165	-0.734	0.257	0.661	0.499	1.183	1.133	2.104	1.902	1.845	0.720	-0.377	-0.332	0.103	-0.511	-0.657	-0.972	0.021	-0.240	-0.221	-0.969	-1.157	-1.421	-1.045	-1.066	-1.375	0.476	23.438
0.576	0.264	-0.728	0.364	0.773	0.509	1.089	1.122	1.951	1.722	1.764	0.614	-0.416	-0.247	0.353	-0.396	-0.570	-0.958	0.058	-0.133	-0.107	-0.921	-1.217	-1.482	-1.116	-1.153	-1.495	0.289	27.344
0.565	0.371	-0.667	0.486	0.877	0.501	0.962	1.107	1.767	1.492	1.634	0.473	-0.428	-0.172	0.493	-0.288	-0.479	-0.949	0.119	-0.036	-0.013	-0.839	-1.227	-1.480	-1.128	-1.173	-1.566	0.119	31.250
0.520	0.465	-0.559	0.610	0.959	0.475	0.796	1.082	1.558	1.216	1.453	0.299	-0.423	-0.119	0.492	-0.191	-0.387	-0.933	0.201	0.046	0.053	-0.721	-1.173	-1.415	-1.066	-1.124	-1.587	-0.018	35.156
0.472	0.524	-0.419	0.715	1.006	0.427	0.591	1.044	1.332	0.900	1.224	0.100	-0.416	-0.102	0.343	-0.115	-0.303	-0.898	0.295	0.109	0.083	-0.572	-1.051	-1.292	-0.916	-1.007	-1.560	-0.111	39.062
0.449	0.525	-0.270	0.775	1.003	0.354	0.347	0.991	1.098	0.558	0.958	-0.117	-0.421	-0.127	0.064	-0.074	-0.235	-0.840	0.389	0.143	0.069	-0.400	-0.865	-1.119	-0.661	-0.820	-1.482	-0.145	42.969
0.468	0.450	-0.138	0.767	0.937	0.246	0.078	0.928	0.868	0.213	0.673	-0.341	-0.453	-0.200	-0.300	-0.080	-0.190	-0.767	0.467	0.142	0.006	-0.213	-0.629	-0.907	-0.289	-0.564	-1.350	-0.112	46.875
0.525	0.291	-0.048	0.671	0.804	0.097	-0.196	0.862	0.656	-0.107	0.398	-0.554	-0.519	-0.315	-0.690	-0.139	-0.177	-0.691	0.516	0.098	-0.107	-0.023	-0.366	-0.667	0.201	-0.240	-1.163	-0.007	50.781
0.591	0.051	-0.026	0.478	0.605	-0.099	-0.449	0.804	0.480	-0.367	0.166	-0.738	-0.617	-0.461	-1.041	-0.255	-0.204	-0.631	0.523	0.004	-0.269	0.158	-0.105	-0.408	0.803	0.147	-0.916	0.171	54.688
0.622	-0.261	-0.089	0.188	0.350	-0.344	-0.650	0.760	0.358	-0.532	0.012	-0.869	-0.736	-0.621	-1.305	-0.425	-0.279	-0.605	0.483	-0.144	-0.474	0.320	0.127	-0.138	1.495	0.594	-0.611	0.423	58.594
0.571	-0.628	-0.247	-0.183	0.053	-0.631	-0.769	0.733	0.307	-0.569	-0.036	-0.921	-0.854	-0.779	-1.460	-0.644	-0.410	-0.626	0.393	-0.344	-0.711	0.456	0.310	0.137	2.248	1.094	-0.250	0.747	62.500
0.394	-1.030	-0.500	-0.611	-0.265	-0.949	-0.785	0.718	0.338	-0.459	0.046	-0.870	-0.944	-0.917	-1.516	-0.903	-0.603	-0.699	0.255	-0.596	-0.968	0.560	0.431	0.416	3.022	1.640	0.165	1.143	66.406
0.070	-1.441	-0.838	-1.062	-0.583	-1.281	-0.688	0.704	0.452	-0.196	0.262	-0.702	-0.980	-1.022	-1.513	-1.190	-0.855	-0.823	0.074	-0.893	-1.229	0.631	0.489	0.700	3.773	2.224	0.625	1.610	70.312
-0.398	-1.834	-1.240	-1.500	-0.880	-1.607	-0.480	0.680	0.645	0.207	0.604	-0.409	-0.938	-1.088	-1.508	-1.493	-1.157	-0.991	-0.140	-1.225	-1.481	0.669	0.491	0.987	4.458	2.836	1.123	2.146	74.219
-0.981	-2.185	-1.680	-1.895	-1.139	-1.907	-0.178	0.636	0.904	0.718	1.049	-0.002	-0.810	-1.114	-1.562	-1.800	-1.488	-1.191	-0.376	-1.579	-1.709	0.674	0.448	1.278	5.040	3.466	1.648	2.743	78.125
-1.630	-2.473	-2.127	-2.223	-1.348	-2.161	0.187	0.573	1.212	1.295	1.565	0.499	-0.601	-1.107	-1.729	-2.101	-1.825	-1.413	-0.622	-1.942	-1.906	0.647	0.371	1.568	5.496	4.101	2.187	3.389	82.031
-2.283	-2.692	-2.550	-2.476	-1.502	-2.359	0.581	0.504	1.555	1.885	2.115	1.063	-0.333	-1.086	-2.044	-2.388	-2.144	-1.647	-0.869	-2.299	-2.071	0.587	0.270	1.848	5.826	4.734	2.724	4.069	85.938
-2.881	-2.850	-2.923	-2.659	-1.603	-2.495	0.967	0.455	1.925	2.440	2.665	1.655	-0.044	-1.074	-2.519	-2.664	-2.429	-1.885	-1.111	-2.643	-2.212	0.488	0.149	2.108	6.053	5.359	3.241	4.765	89.844
-3.378	-2.971	-3.228	-2.791	-1.661	-2.569	1.314	0.459	2.317	2.922	3.190	2.242	0.222	-1.102	-3.139	-2.934	-2.679	-2.123	-1.351	-2.967	-2.341	0.345	0.008	2.333	6.216	5.976	3.716	5.457	93.750
-3.746	-3.084	-3.454	-2.897	-1.693	-2.591	1.599	0.556	2.734	3.305	3.672	2.797	0.418	-1.200	-3.859	-3.209	-2.905	-2.354	-1.595	-3.272	-2.479	0.148	-0.155	2.507	6.364	6.586	4.130	6.122	97.656
-3.982	-3.219	-3.599	-3.003	-1.716	-2.573	1.812	0.774	3.181	3.581	4.105	3.301	0.507	-1.392	-4.612	-3.503	-3.129	-2.571	-1.853	-3.563	-2.644	-0.110	-0.345	2.616	6.538	7.183	4.461	6.738	101.562
-4.101	-3.400	-3.669	-3.130	-1.748	-2.528	1.955	1.132	3.659	3.761	4.490	3.742	0.468	-1.691	-5.316	-3.824	-3.377	-2.767	-2.139	-3.847	-2.853	-0.434	-0.564	2.647	6.761	7.756	4.693	7.283	105.469
-4.126	-3.635	-3.674	-3.290	-1.802	-2.470	2.043	1.627	4.165	3.868	4.833	4.117	0.304	-2.090	-5.892	-4.173	-3.670	-2.936	-2.461	-4.131	-3.113	-0.819	-0.814	2.595	7.032	8.285	4.816	7.733	109.375
-4.084	-3.918	-3.628	-3.482	-1.881	-2.411	2.095	2.235	4.688	3.934	5.144	4.429	0.035	-2.565	-6.273	-4.544	-4.012	-3.077	-2.818	-4.422	-3.422	-1.252	-1.087	2.464	7.326	8.740	4.832	8.072	113.281
-3.996	-4.224	-3.544	-3.693	-1.982	-2.354	2.135	2.909	5.204	3.990	5.429	4.681	-0.298	-3.073	-6.424	-4.919	-4.393	-3.190	-3.198	-4.719	-3.763	-1.709	-1.375	2.265	7.600	9.084	4.748	8.286	117.188
-3.878	-4.518	-3.433	-3.897	-2.092	-2.300	2.182	3.590	5.683	4.061	5.690	4.879	-0.646	-3.558	-6.347	-5.271	-4.778	-3.279	-3.577	-5.011	-4.112	-2.157	-1.659	2.019	7.805	9.285	4.580	8.370	121.094
-3.745	-4.759	-3.307	-4.065	-2.192	-2.247	2.248	4.208	6.091	4.159	5.922	5.026	-0.961	-3.968	-6.077	-5.567	-5.123	-3.349	-3.920	-5.282	-4.436	-2.559	-1.921	1.754	7.895	9.316	4.348	8.327	125.000
-3.614	-4.908	-3.173	-4.164	-2.263	-2.188	2.336	4.699	6.394	4.283	6.115	5.124	-1.200	-4.254	-5.677	-5.777	-5.376	-3.404	-4.188	-5.507	-4.703	-2.879	-2.142	1.499	7.842	9.165	4.077	8.168	128.906
-3.502	-4.939	-3.039	-4.172	-2.290	-2.118	2.437	5.012	6.568	4.414	6.256	5.175	-1.334	-4.390	-5.220	-5.875	-5.497	-3.443	-4.351	-5.662	-4.885	-3.089	-2.301	1.279	7.636	8.841	3.791	7.914	132.812
-3.428	-4.847	-2.912	-4.079	-2.265	-2.037	2.536	5.117	6.596	4.530	6.332	5.178	-1.352	-4.368	-4.774	-5.852	-5.465	-3.459	-4.389	-5.729	-4.968	-3.174	-2.386	1.117	7.292	8.368	3.514	7.588	136.719
-3.397	-4.647	-2.797	-3.893	-2.193	-1.947	2.613	5.008	6.479	4.601	6.329	5.136	-1.255	-4.207	-4.390	-5.713	-5.281	-3.444	-4.301	-5.700	-4.949	-3.132	-2.387	1.027	6.843	7.787	3.270	7.217	140.625
-3.404	-4.372	-2.696	-3.638	-2.085	-1.853	2.650	4.702	6.224	4.598	6.239	5.046	-1.060	-3.939	-4.092	-5.476	-4.972	-3.386	-4.100	-5.577	-4.837	-2.976	-2.301	1.013	6.338	7.149	3.076	6.820	144.531
-3.425	-4.065	-2.609	-3.348	-1.959	-1.764	2.631	4.232	5.847	4.499	6.052	4.901	-0.793	-3.606	-3.879	-5.167	-4.576	-3.275	-3.813	-5.373	-4.650	-2.725	-2.130	1.072	5.826	6.502	2.945	6.409	148.438
-3.422	-3.767	-2.529	-3.058	-1.834	-1.688	2.545	3.640	5.364	4.287	5.760	4.688	-0.486	-3.250	-3.723	-4.814	-4.136	-3.107	-3.467	-5.104	-4.407	-2.404	-1.884	1.193	5.353	5.890	2.878	5.985	152.344
-3.354	-3.508	-2.446	-2.797	-1.723	-1.629	2.388	2.964	4.789	3.954	5.355	4.389	-0.172	-2.901	-3.581	-4.438	-3.688	-2.881	-3.088	-4.787	-4.125	-2.033	-1.574	1.356	4.950	5.338	2.866	5.539	156.250
-3.187	-3.299	-2.347	-2.577	-1.632	-1.589	2.160	2.238	4.132	3.498	4.828	3.983	0.114	-2.575	-3.409	-4.051	-3.254	-2.605	-2.688	-4.435	-3.814	-1.626	-1.212	1.539	4.629	4.857	2.890	5.053	160.156
-2.905	-3.133	-2.215	-2.399	-1.557	-1.566	1.867	1.486	3.403	2.928	4.176	3.452	0.344	-2.276	-3.169	-3.656	-2.840	-2.292	-2.267	-4.054	-3.479	-1.190	-0.811	1.722	4.388	4.445	2.924	4.512	164.062
-2.514	-2.985	-2.036	-2.246	-1.487	-1.553	1.522	0.728	2.612	2.261	3.403	2.787	0.498	-1.997	-2.839	-3.253	-2.440	-1.956	-1.816	-3.648	-3.118	-0.726	-0.382	1.886	4.210	4.086	2.939	3.905	167.969
-2.046	-2.828	-1.802	-2.095	-1.406	-1.542	1.138	-0.020	1.774	1.527	2.528	1.994	0.562	-1.729	-2.425	-2.840	-2.046	-1.611	-1.326	-3.221	-2.732	-0.236	0.065	2.018	4.076	3.767	2.910	3.237	171.875
-1.546	-2.638	-1.514	-1.924	-1.302	-1.524	0.738	-0.737	0.918	0.764	1.586	1.101	0.535	-1.468	-1.956	-2.422	-1.651	-1.269	-0.792	-2.782	-2.326	0.272	0.516	2.116	3.970	3.478	2.825	2.530	175.781
-1.072	-2.407	-1.186	-1.717	-1.169	-1.494	0.348	-1.392	0.084	0.022	0.634	0.156	0.427	-1.218	-1.482	-2.013	-1.260	-0.944	-0.228	-2.349	-1.914	0.783	0.955	2.183	3.886	3.222	2.682	1.824	179.688
-0.677	-2.145	-0.844	-1.474	-1.010	-1.450	-0.004	-1.949	-0.670	-0.645	-0.258	-0.775	0.257	-0.993	-1.066	-1.640	-0.893	-0.647	0.340	-1.950	-1.523	1.272	1.359	2.228	3.829	3.015	2.497	1.174	183.594
-0.403	-1.883	-0.525	-1.210	-0.839	-1.394	-0.286	-2.364	-1.283	-1.179	-1.010	-1.615	0.048	-0.815	-0.770	-1.333	-0.582	-0.398	0.869	-1.619	-1.185	1.709	1.707	2.262	3.815	2.883	2.299	0.641	187.500
-0.273	-1.666	-0.270	-0.957	-0.677	-1.336	-0.472	-2.598	-1.687	-1.533	-1.543	-2.285	-0.171	-0.708	-0.639	-1.128	-0.364	-0.216	1.310	-1.393	-0.939	2.059	1.974	2.297	3.865	2.857	2.124	0.280	191.406
-0.289	-1.542	-0.119	-0.756	-0.551	-1.288	-0.536	-2.616	-1.830	-1.667	-1.795	-2.718	-0.372	-0.690	-0.696	-1.057	-0.279	-0.123	1.612	-1.302	-0.817	2.292	2.142	2.342	3.997	2.961	2.008	0.133	195.312
-0.432	-1.554	-0.095	-0.646	-0.482	-1.261	-0.466	-2.403	-1.677	-1.564	-1.732	-2.869	-0.531	-0.770	-0.929	-1.143	-0.361	-0.135	1.740	-1.368	-0.842	2.385	2.196	2.400	4.226	3.209	1.978	0.215	199.219
-0.668	-1.728	-0.207	-0.657	-0.484	-1.262	-0.260	-1.960	-1.223	-1.224	-1.352	-2.724	-0.631	-0.946	-1.298	-1.395	-0.627	-0.257	1.672	-1.597	-1.019	2.327	2.134	2.468	4.550	3.592	2.048	0.513	203.125
-0.957	-2.065	-0.434	-0.801	-0.557	-1.290	0.074	-1.313	-0.494	-0.674	-0.692	-2.300	-0.664	-1.208	-1.746	-1.804	-1.074	-0.482	1.409	-1.979	-1.334	2.119	1.958	2.537	4.957	4.079	2.211	0.986	207.031
-1.257	-2.537	-0.738	-1.069	-0.684	-1.333	0.509	-0.507	0.452	0.040	0.181	-1.647	-0.636	-1.532	-2.203	-2.343	-1.674	-0.786	0.975	-2.482	-1.757	1.777	1.684	2.592	5.419	4.623	2.444	1.572	210.938
-1.536	-3.091	-1.064	-1.428	-0.837	-1.375	1.011	0.396	1.536	0.853	1.174	-0.840	-0.562	-1.895	-2.612	-2.968	-2.373	-1.134	0.415	-3.063	-2.242	1.327	1.334	2.616	5.898	5.161	2.705	2.195	214.844
-1.771	-3.657	-1.355	-1.830	-0.984	-1.396	1.532	1.328	2.662	1.689	2.187	0.032	-0.468	-2.270	-2.928	-3.622	-3.098	-1.487	-0.214	-3.669	-2.740	0.808	0.939	2.590	6.347	5.631	2.949	2.781	218.750
-1.954	-4.158	-1.560	-2.219	-1.091	-1.380	2.025	2.217	3.732	2.468	3.119	0.878	-0.382	-2.631	-3.125	-4.242	-3.770	-1.805	-0.847	-4.243	-3.202	0.265	0.535	2.501	6.722	5.980	3.128	3.265	222.656
-2.084	-4.526	-1.647	-2.541	-1.135	-1.318	2.439	3.001	4.659	3.116	3.888	1.613	-0.336	-2.959	-3.196	-4.767	-4.311	-2.059	-1.424	-4.734	-3.587	-0.256	0.155	2.342	6.984	6.170	3.209	3.600	226.562
-2.167	-4.714	-1.606	-2.754	-1.105	-1.214	2.736	3.628	5.373	3.574	4.436	2.175	-0.354	-3.239	-3.143	-5.150	-4.665	-2.231	-1.898	-5.102	-3.868	-0.712	-0.172	2.113	7.111	6.190	3.171	3.761	230.469
-2.208	-4.705	-1.451	-2.836	-1.007	-1.080	2.887	4.067	5.831	3.802	4.734	2.524	-0.447	-3.463	-2.978	-5.361	-4.803	-2.315	-2.241	-5.327	-4.035	-1.072	-0.426	1.829	7.101	6.053	3.015	3.749	234.375
-2.211	-4.516	-1.213	-2.784	-0.862	-0.939	2.880	4.304	6.018	3.786	4.779	2.648	-0.616	-3.628	-2.716	-5.394	-4.727	-2.318	-2.447	-5.407	-4.091	-1.315	-0.598	1.511	6.971	5.795	2.764	3.583	238.281
-2.170	-4.191	-0.937	-2.619	-0.700	-0.816	2.719	4.347	5.948	3.539	4.595	2.555	-0.845	-3.733	-2.376	-5.267	-4.472	-2.249	-2.524	-5.360	-4.052	-1.436	-0.689	1.192	6.760	5.465	2.453	3.300	242.188
-2.076	-3.797	-0.671	-2.377	-0.551	-0.734	2.425	4.223	5.657	3.094	4.220	2.276	-1.108	-3.780	-1.986	-5.015	-4.093	-2.127	-2.495	-5.213	-3.939	-1.442	-0.705	0.906	6.516	5.118	2.127	2.942	246.094
-1.917	-3.407	-0.461	-2.105	-0.444	-0.711	2.031	3.969	5.198	2.502	3.702	1.847	-1.369	-3.768	-1.574	-4.690	-3.651	-1.966	-2.384	-5.005	-3.776	-1.349	-0.661	0.689	6.289	4.804	1.832	2.552	250.000
-1.689	-3.090	-0.342	-1.853	-0.396	-0.752	1.580	3.632	4.633	1.826	3.091	1.318	-1.590	-3.697	-1.176	-4.343	-3.208	-1.782	-2.214	-4.770	-3.583	-1.176	-0.568	0.568	6.122	4.559	1.607	2.168	253.906
-1.401	-2.893	-0.336	-1.661	-0.407	-0.854	1.120	3.259	4.024	1.136	2.438	0.734	-1.735	-3.562	-0.824	-4.022	-2.812	-1.588	-2.004	-4.539	-3.377	-0.949	-0.442	0.561	6.043	4.405	1.481	1.823	257.812
-1.082	-2.839	-0.448	-1.555	-0.468	-1.002	0.698	2.888	3.431	0.500	1.787	0.145	-1.775	-3.356	-0.549	-3.762	-2.493	-1.396	-1.766	-4.334	-3.166	-0.687	-0.292	0.670	6.056	4.342	1.464	1.539	261.719
-0.777	-2.918	-0.664	-1.543	-0.555	-1.177	0.359	2.548	2.903	-0.023	1.180	-0.407	-1.691	-3.074	-0.372	-3.582	-2.264	-1.218	-1.508	-4.166	-2.956	-0.409	-0.128	0.883	6.143	4.358	1.553	1.328	265.625
-0.539	-3.098	-0.955	-1.613	-0.642	-1.355	0.138	2.257	2.474	-0.383	0.653	-0.885	-1.480	-2.715	-0.304	-3.486	-2.120	-1.065	-1.237	-4.038	-2.747	-0.132	0.037	1.177	6.268	4.424	1.732	1.193	269.531
-0.416	-3.328	-1.287	-1.737	-0.701	-1.516	0.056	2.015	2.167	-0.549	0.236	-1.261	-1.150	-2.285	-0.341	-3.461	-2.047	-0.951	-0.960	-3.942	-2.537	0.133	0.195	1.517	6.381	4.508	1.976	1.130	273.438
-0.442	-3.555	-1.622	-1.883	-0.715	-1.644	0.119	1.817	1.990	-0.511	-0.051	-1.515	-0.723	-1.799	-0.464	-3.489	-2.025	-0.889	-0.685	-3.868	-2.324	0.375	0.332	1.869	6.435	4.575	2.255	1.125	277.344
-0.626	-3.732	-1.932	-2.017	-0.675	-1.732	0.319	1.649	1.937	-0.277	-0.193	-1.639	-0.228	-1.278	-0.646	-3.544	-2.035	-0.892	-0.425	-3.807	-2.107	0.587	0.437	2.203	6.389	4.600	2.544	1.164	281.250
-0.951	-3.834	-2.199	-2.112	-0.585	-1.779	0.633	1.497	1.993	0.125	-0.191	-1.633	0.299	-0.748	-0.851	-3.606	-2.062	-0.967	-0.191	-3.748	-1.888	0.763	0.501	2.495	6.224	4.569	2.822	1.228	285.156
-1.374	-3.855	-2.417	-2.155	-0.459	-1.789	1.028	1.354	2.134	0.655	-0.050	-1.506	0.824	-0.239	-1.051	-3.660	-2.101	-1.118	0.001	-3.689	-1.675	0.899	0.520	2.735	5.945	4.483	3.076	1.308	289.062
-1.841	-3.812	-2.592	-2.148	-0.317	-1.775	1.464	1.216	2.331	1.264	0.210	-1.273	1.316	0.226	-1.229	-3.698	-2.152	-1.338	0.143	-3.630	-1.474	0.997	0.500	2.923	5.580	4.358	3.303	1.394	292.969
-2.294	-3.733	-2.737	-2.103	-0.182	-1.748	1.900	1.087	2.558	1.898	0.566	-0.955	1.748	0.628	-1.381	-3.722	-2.220	-1.614	0.228	-3.578	-1.297	1.062	0.452	3.066	5.174	4.219	3.506	1.487	296.875
-2.680	-3.654	-2.871	-2.039	-0.071	-1.719	2.300	0.973	2.786	2.510	0.986	-0.576	2.106	0.955	-1.517	-3.734	-2.309	-1.928	0.259	-3.537	-1.150	1.105	0.396	3.178	4.780	4.094	3.688	1.587	300.781
-2.963	-3.602	-3.009	-1.976	0.005	-1.694	2.636	0.883	2.993	3.054	1.434	-0.164	2.379	1.203	-1.652	-3.740	-2.420	-2.255	0.244	-3.511	-1.040	1.141	0.351	3.273	4.444	4.001	3.856	1.698	304.688
-3.128	-3.590	-3.161	-1.927	0.046	-1.675	2.887	0.818	3.158	3.495	1.872	0.250	2.565	1.371	-1.800	-3.738	-2.546	-2.569	0.199	-3.500	-0.966	1.183	0.336	3.358	4.204	3.951	4.006	1.817	308.594
-3.182	-3.617	-3.327	-1.897	0.058	-1.656	3.045	0.777	3.267	3.809	2.264	0.640	2.666	1.459	-1.965	-3.725	-2.670	-2.841	0.143	-3.499	-0.927	1.243	0.360	3.438	4.074	3.940	4.131	1.939	312.500
-3.148	-3.664	-3.498	-1.882	0.051	-1.627	3.110	0.753	3.311	3.984	2.578	0.977	2.684	1.466	-2.141	-3.690	-2.772	-3.040	0.094	-3.497	-0.913	1.325	0.426	3.507	4.053	3.954	4.219	2.053	316.406
-3.057	-3.705	-3.656	-1.872	0.038	-1.579	3.089	0.735	3.292	4.018	2.792	1.244	2.626	1.390	-2.317	-3.624	-2.828	-3.145	0.067	-3.485	-0.918	1.427	0.526	3.557	4.119	3.972	4.256	2.145	320.312
-2.944	-3.712	-3.775	-1.854	0.030	-1.501	2.993	0.713	3.216	3.920	2.897	1.426	2.499	1.233	-2.477	-3.517	-2.823	-3.138	0.072	-3.451	-0.931	1.540	0.645	3.576	4.240	3.969	4.229	2.202	324.219
-2.835	-3.661	-3.829	-1.812	0.035	-1.387	2.838	0.680	3.095	3.707	2.893	1.519	2.316	1.002	-2.607	-3.363	-2.750	-3.019	0.107	-3.388	-0.945	1.650	0.764	3.553	4.378	3.928	4.134	2.211	328.125
-2.747	-3.543	-3.795	-1.737	0.057	-1.238	2.639	0.632	2.941	3.397	2.793	1.524	2.090	0.714	-2.693	-3.164	-2.613	-2.801	0.169	-3.289	-0.951	1.745	0.868	3.483	4.497	3.835	3.974	2.165	332.031
-2.683	-3.358	-3.661	-1.619	0.097	-1.060	2.408	0.568	2.761	3.011	2.609	1.446	1.840	0.397	-2.727	-2.923	-2.426	-2.510	0.249	-3.151	-0.940	1.817	0.948	3.371	4.570	3.687	3.759	2.059	335.938
-2.631	-3.119	-3.430	-1.457	0.154	-0.867	2.157	0.490	2.558	2.567	2.359	1.288	1.585	0.087	-2.703	-2.648	-2.205	-2.182	0.341	-2.969	-0.903	1.867	1.001	3.227	4.580	3.485	3.506	1.892	339.844
-2.574	-2.849	-3.116	-1.255	0.222	-0.678	1.896	0.403	2.332	2.085	2.053	1.053	1.350	-0.173	-2.622	-2.343	-1.965	-1.858	0.444	-2.740	-0.829	1.903	1.032	3.071	4.522	3.239	3.231	1.662	343.750
-2.486	-2.575	-2.749	-1.023	0.295	-0.512	1.635	0.313	2.081	1.581	1.702	0.737	1.155	-0.346	-2.488	-2.017	-1.713	-1.573	0.564	-2.460	-0.706	1.936	1.052	2.922	4.398	2.961	2.954	1.372	347.656
-2.351	-2.321	-2.367	-0.774	0.369	-0.386	1.385	0.223	1.805	1.075	1.311	0.340	1.022	-0.402	-2.315	-1.671	-1.451	-1.357	0.709	-2.130	-0.526	1.983	1.070	2.802	4.222	2.660	2.689	1.025	351.562
-2.160	-2.104	-2.008	-0.521	0.441	-0.307	1.160	0.140	1.511	0.590	0.888	-0.136	0.965	-0.325	-2.117	-1.309	-1.174	-1.226	0.892	-1.750	-0.284	2.056	1.095	2.724	4.009	2.349	2.447	0.628	355.469
-1.925	-1.932	-1.708	-0.274	0.515	-0.272	0.976	0.066	1.216	0.151	0.445	-0.679	0.992	-0.119	-1.913	-0.935	-0.881	-1.188	1.116	-1.330	0.021	2.160	1.129	2.693	3.779	2.036	2.238	0.195	359.375
-1.672	-1.801	-1.490	-0.041	0.595	-0.273	0.847	0.005	0.941	-0.215	0.003	-1.262	1.105	0.196	-1.719	-0.557	-0.577	-1.238	1.379	-0.883	0.381	2.292	1.167	2.707	3.549	1.731	2.069	-0.252	363.281
-1.438	-1.696	-1.368	0.176	0.689	-0.290	0.789	-0.038	0.714	-0.479	-0.408	-1.844	1.295	0.583	-1.548	-0.189	-0.277	-1.365	1.664	-0.431	0.779	2.439	1.197	2.752	3.336	1.445	1.942	-0.686	367.188
-1.261	-1.602	-1.342	0.374	0.805	-0.307	0.810	-0.063	0.563	-0.617	-0.754	-2.372	1.549	0.997	-1.417	0.153	-0.006	-1.553	1.943	0.001	1.193	2.580	1.204	2.815	3.151	1.190	1.862	-1.070	371.094
-1.173	-1.504	-1.401	0.554	0.944	-0.308	0.913	-0.065	0.510	-0.614	-0.994	-2.787	1.845	1.388	-1.339	0.445	0.205	-1.786	2.184	0.384	1.595	2.695	1.171	2.877	3.004	0.983	1.828	-1.370	375.000
-1.185	-1.393	-1.522	0.710	1.104	-0.283	1.094	-0.042	0.565	-0.465	-1.098	-3.041	2.163	1.712	-1.332	0.667	0.328	-2.045	2.349	0.695	1.958	2.767	1.086	2.926	2.900	0.835	1.837	-1.556	378.906
-1.295	-1.269	-1.676	0.840	1.275	-0.231	1.339	0.007	0.725	-0.180	-1.048	-3.102	2.479	1.939	-1.410	0.806	0.346	-2.314	2.414	0.915	2.257	2.783	0.946	2.952	2.841	0.758	1.883	-1.610	382.812
-1.481	-1.140	-1.831	0.939	1.444	-0.156	1.626	0.085	0.973	0.215	-0.849	-2.962	2.770	2.050	-1.581	0.854	0.255	-2.576	2.363	1.040	2.475	2.742	0.755	2.953	2.823	0.753	1.954	-1.533	386.719
-1.711	-1.020	-1.958	1.006	1.596	-0.067	1.929	0.193	1.281	0.680	-0.526	-2.646	3.017	2.046	-1.840	0.818	0.070	-2.820	2.201	1.075	2.605	2.654	0.526	2.928	2.840	0.811	2.030	-1.344	390.625
-1.945	-0.923	-2.034	1.043	1.719	0.027	2.220	0.328	1.613	1.167	-0.121	-2.201	3.203	1.945	-2.164	0.718	-0.179	-3.036	1.949	1.038	2.651	2.531	0.279	2.878	2.876	0.911	2.088	-1.081	394.531
-2.140	-0.859	-2.046	1.057	1.806	0.122	2.472	0.486	1.930	1.625	0.311	-1.691	3.318	1.777	-2.516	0.578	-0.457	-3.223	1.642	0.959	2.632	2.395	0.038	2.801	2.910	1.020	2.103	-0.795	398.438
-2.261	-0.829	-1.992	1.062	1.860	0.220	2.664	0.659	2.201	2.006	0.715	-1.184	3.357	1.579	-2.844	0.430	-0.725	-3.377	1.320	0.868	2.571	2.263	-0.180	2.694	2.917	1.101	2.053	-0.542	402.344
-2.284	-0.827	-1.878	1.073	1.892	0.330	2.785	0.838	2.402	2.275	1.045	-0.745	3.319	1.389	-3.095	0.302	-0.956	-3.502	1.023	0.796	2.499	2.149	-0.359	2.554	2.871	1.117	1.923	-0.371	406.250
-2.205	-0.836	-1.719	1.107	1.917	0.466	2.831	1.013	2.521	2.409	1.267	-0.419	3.212	1.241	-3.225	0.216	-1.131	-3.596	0.779	0.768	2.445	2.062	-0.492	2.380	2.754	1.042	1.706	-0.317	410.156
-2.038	-0.837	-1.532	1.178	1.955	0.638	2.810	1.178	2.560	2.404	1.369	-0.229	3.048	1.154	-3.216	0.179	-1.244	-3.662	0.606	0.797	2.430	2.007	-0.578	2.172	2.556	0.864	1.412	-0.391	414.062
-1.816	-0.811	-1.335	1.292	2.021	0.857	2.738	1.327	2.527	2.270	1.354	-0.176	2.845	1.138	-3.080	0.191	-1.299	-3.698	0.510	0.884	2.467	1.983	-0.617	1.941	2.284	0.591	1.063	-0.580	417.969
-1.577	-0.746	-1.143	1.451	2.125	1.120	2.636	1.460	2.439	2.032	1.241	-0.239	2.624	1.188	-2.861	0.238	-1.306	-3.704	0.484	1.020	2.556	1.988	-0.610	1.703	1.958	0.248	0.689	-0.851	421.875
-1.360	-0.640	-0.969	1.643	2.269	1.420	2.524	1.576	2.313	1.720	1.057	-0.384	2.409	1.288	-2.623	0.300	-1.274	-3.680	0.514	1.188	2.691	2.022	-0.561	1.477	1.604	-0.133	0.325	-1.157	425.781
-1.195	-0.500	-0.818	1.853	2.444	1.741	2.423	1.677	2.165	1.370	0.833	-0.572	2.222	1.421	-2.428	0.356	-1.215	-3.627	0.585	1.368	2.856	2.078	-0.476	1.287	1.249	-0.511	0.006	-1.450	429.688
-1.099	-0.342	-0.690	2.058	2.637	2.061	2.348	1.762	2.006	1.017	0.595	-0.765	2.087	1.567	-2.320	0.389	-1.137	-3.544	0.681	1.539	3.034	2.152	-0.363	1.152	0.916	-0.855	-0.242	-1.690	433.594
-1.070	-0.182	-0.583	2.237	2.828	2.356	2.309	1.829	1.840	0.693	0.360	-0.939	2.021	1.714	-2.313	0.392	-1.046	-3.434	0.788	1.683	3.210	2.237	-0.235	1.087	0.618	-1.142	-0.403	-1.855	437.500
-1.093	-0.040	-0.490	2.374	2.999	2.602	2.308	1.874	1.667	0.423	0.135	-1.085	2.037	1.855	-2.390	0.366	-0.948	-3.299	0.899	1.791	3.375	2.327	-0.107	1.098	0.358	-1.364	-0.470	-1.947	441.406
-1.141	0.072	-0.406	2.458	3.138	2.782	2.345	1.891	1.485	0.223	-0.083	-1.208	2.142	1.991	-2.510	0.322	-0.844	-3.143	1.009	1.858	3.523	2.415	0.009	1.183	0.132	-1.526	-0.450	-1.983	445.312
-1.186	0.148	-0.329	2.489	3.237	2.885	2.415	1.877	1.289	0.101	-0.301	-1.328	2.333	2.126	-2.624	0.275	-0.736	-2.973	1.121	1.889	3.655	2.500	0.104	1.335	-0.068	-1.643	-0.353	-1.998	449.219
-1.202	0.186	-0.261	2.471	3.297	2.907	2.510	1.827	1.079	0.057	-0.531	-1.467	2.603	2.269	-2.690	0.241	-0.622	-2.798	1.237	1.892	3.778	2.581	0.177	1.538	-0.250	-1.736	-0.196	-2.029	453.125
-1.179	0.196	-0.206	2.420	3.327	2.860	2.623	1.741	0.861	0.085	-0.778	-1.646	2.935	2.428	-2.679	0.233	-0.502	-2.629	1.361	1.879	3.897	2.659	0.233	1.773	-0.421	-1.827	0.003	-2.111	457.031
-1.118	0.192	-0.168	2.353	3.339	2.762	2.747	1.623	0.645	0.172	-1.039	-1.875	3.310	2.606	-2.586	0.256	-0.375	-2.477	1.495	1.863	4.017	2.737	0.279	2.021	-0.585	-1.933	0.227	-2.262	460.938
-1.036	0.188	-0.152	2.288	3.344	2.638	2.878	1.480	0.442	0.306	-1.304	-2.150	3.705	2.802	-2.419	0.307	-0.242	-2.354	1.636	1.852	4.138	2.816	0.327	2.262	-0.748	-2.065	0.460	-2.486	464.844
-0.950	0.200	-0.156	2.241	3.352	2.512	3.011	1.322	0.266	0.471	-1.556	-2.454	4.097	3.008	-2.200	0.375	-0.109	-2.273	1.778	1.848	4.256	2.894	0.384	2.478	-0.910	-2.227	0.689	-2.769	468.750
-0.875	0.234	-0.172	2.221	3.367	2.406	3.145	1.162	0.130	0.654	-1.774	-2.759	4.465	3.213	-1.957	0.440	0.019	-2.238	1.908	1.847	4.360	2.966	0.453	2.657	-1.075	-2.414	0.902	-3.084	472.656
-0.821	0.285	-0.191	2.229	3.385	2.332	3.276	1.015	0.042	0.845	-1.937	-3.033	4.789	3.402	-1.716	0.486	0.131	-2.252	2.012	1.837	4.439	3.026	0.533	2.790	-1.245	-2.618	1.089	-3.395	476.562
-0.789	0.344	-0.201	2.258	3.397	2.291	3.402	0.897	0.007	1.035	-2.029	-3.244	5.057	3.558	-1.500	0.498	0.222	-2.308	2.076	1.808	4.481	3.065	0.616	2.876	-1.421	-2.824	1.241	-3.664	480.469
-0.774	0.393	-0.191	2.295	3.392	2.277	3.518	0.821	0.025	1.215	-2.041	-3.369	5.256	3.671	-1.322	0.470	0.284	-2.394	2.090	1.749	4.476	3.080	0.692	2.913	-1.604	-3.017	1.351	-3.862	484.375
-0.769	0.415	-0.157	2.329	3.361	2.277	3.618	0.795	0.089	1.379	-1.971	-3.394	5.382	3.731	-1.185	0.405	0.318	-2.490	2.050	1.657	4.421	3.067	0.747	2.905	-1.797	-3.184	1.411	-3.966	488.281
-0.766	0.401	-0.101	2.349	3.298	2.274	3.696	0.821	0.188	1.520	-1.828	-3.319	5.432	3.736	-1.080	0.317	0.326	-2.575	1.959	1.536	4.323	3.025	0.772	2.852	-2.002	-3.319	1.415	-3.970	492.188
-0.755	0.350	-0.030	2.349	3.205	2.257	3.741	0.894	0.307	1.630	-1.627	-3.155	5.408	3.687	-0.990	0.226	0.316	-2.625	1.826	1.400	4.189	2.956	0.760	2.755	-2.219	-3.418	1.358	-3.881	496.094
-0.727	0.273	0.039	2.329	3.088	2.217	3.747	1.001	0.427	1.705	-1.385	-2.923	5.311	3.588	-0.895	0.154	0.300	-2.621	1.667	1.265	4.034	2.863	0.708	2.612	-2.447	-3.485	1.237	-3.718	500.000
-0.674	0.188	0.094	2.293	2.955	2.152	3.709	1.127	0.530	1.739	-1.122	-2.646	5.145	3.442	-0.782	0.118	0.291	-2.550	1.497	1.146	3.869	2.748	0.619	2.424	-2.676	-3.526	1.055	-3.510	503.906
-0.591	0.115	0.122	2.246	2.815	2.068	3.627	1.258	0.603	1.734	-0.856	-2.351	4.914	3.253	-0.649	0.127	0.298	-2.411	1.333	1.056	3.704	2.614	0.503	2.195	-2.892	-3.544	0.824	-3.284	507.812
-0.483	0.075	0.120	2.194	2.677	1.974	3.504	1.383	0.639	1.692	-0.599	-2.058	4.623	3.024	-0.512	0.181	0.327	-2.217	1.183	0.997	3.541	2.467	0.371	1.931	-3.071	-3.542	0.561	-3.068	511.719
-0.362	0.081	0.094	2.143	2.543	1.884	3.350	1.494	0.638	1.619	-0.359	-1.786	4.281	2.760	-0.399	0.267	0.375	-1.993	1.054	0.964	3.378	2.310	0.240	1.646	-3.191	-3.515	0.290	-2.881	515.625
-0.245	0.141	0.060	2.096	2.412	1.810	3.174	1.591	0.605	1.522	-0.141	-1.546	3.897	2.469	-0.342	0.369	0.435	-1.774	0.946	0.945	3.213	2.151	0.123	1.356	-3.228	-3.459	0.037	-2.732	519.531
-0.155	0.250	0.038	2.055	2.284	1.759	2.988	1.674	0.550	1.404	0.050	-1.347	3.483	2.159	-0.368	0.467	0.497	-1.596	0.854	0.924	3.041	1.997	0.035	1.082	-3.165	-3.366	-0.176	-2.624	523.438
-0.112	0.400	0.045	2.019	2.155	1.735	2.799	1.742	0.481	1.271	0.212	-1.194	3.053	1.844	-0.484	0.544	0.550	-1.484	0.773	0.888	2.861	1.856	-0.016	0.840	-3.001	-3.236	-0.335	-2.553	527.344
-0.126	0.579	0.092	1.990	2.027	1.735	2.612	1.795	0.406	1.122	0.338	-1.091	2.624	1.536	-0.675	0.590	0.586	-1.449	0.698	0.827	2.678	1.737	-0.024	0.644	-2.746	-3.073	-0.435	-2.516	531.250
-0.194	0.770	0.180	1.969	1.905	1.751	2.429	1.825	0.328	0.956	0.418	-1.044	2.216	1.246	-0.905	0.600	0.603	-1.482	0.630	0.741	2.501	1.648	0.011	0.503	-2.426	-2.891	-0.486	-2.510	535.156
-0.297	0.959	0.299	1.959	1.799	1.776	2.253	1.824	0.248	0.775	0.443	-1.057	1.849	0.985	-1.126	0.578	0.602	-1.559	0.572	0.635	2.344	1.597	0.085	0.416	-2.078	-2.712	-0.504	-2.538	539.062
-0.403	1.129	0.436	1.964	1.720	1.800	2.085	1.782	0.163	0.582	0.404	-1.131	1.547	0.762	-1.289	0.532	0.588	-1.644	0.528	0.523	2.222	1.584	0.192	0.380	-1.740	-2.560	-0.506	-2.604	542.969
-0.474	1.267	0.573	1.987	1.680	1.818	1.931	1.694	0.071	0.387	0.302	-1.261	1.329	0.586	-1.361	0.471	0.563	-1.701	0.505	0.416	2.146	1.607	0.318	0.388	-1.447	-2.458	-0.507	-2.712	546.875
-0.481	1.361	0.697	2.027	1.686	1.827	1.798	1.561	-0.028	0.206	0.144	-1.437	1.213	0.464	-1.331	0.401	0.528	-1.699	0.506	0.327	2.123	1.660	0.451	0.429	-1.224	-2.422	-0.514	-2.861	550.781
-0.411	1.404	0.793	2.083	1.735	1.827	1.699	1.392	-0.130	0.057	-0.052	-1.638	1.209	0.403	-1.211	0.329	0.485	-1.620	0.529	0.263	2.149	1.731	0.574	0.496	-1.086	-2.456	-0.521	-3.041	554.688
-0.273	1.390	0.852	2.143	1.818	1.817	1.642	1.204	-0.229	-0.037	-0.259	-1.839	1.316	0.403	-1.036	0.259	0.432	-1.460	0.572	0.225	2.213	1.808	0.675	0.580	-1.030	-2.554	-0.517	-3.236	558.594
-0.098	1.318	0.865	2.192	1.915	1.793	1.636	1.017	-0.317	-0.059	-0.446	-2.010	1.524	0.459	-0.844	0.190	0.369	-1.231	0.627	0.206	2.298	1.878	0.748	0.677	-1.045	-2.696	-0.483	-3.421	562.500
0.073	1.189	0.825	2.212	2.003	1.750	1.681	0.852	-0.384	0.002	-0.583	-2.125	1.810	0.561	-0.675	0.124	0.296	-0.956	0.687	0.197	2.381	1.935	0.789	0.783	-1.110	-2.855	-0.402	-3.568	566.406
0.198	1.007	0.728	2.187	2.058	1.682	1.771	0.722	-0.424	0.147	-0.648	-2.163	2.146	0.693	-0.553	0.058	0.216	-0.666	0.744	0.182	2.445	1.974	0.801	0.896	-1.204	-3.003	-0.262	-3.650	570.312
0.251	0.781	0.576	2.106	2.065	1.583	1.895	0.633	-0.433	0.368	-0.630	-2.109	2.499	0.836	-0.494	-0.012	0.134	-0.399	0.793	0.150	2.476	1.997	0.789	1.018	-1.304	-3.112	-0.058	-3.650	574.219
0.225	0.525	0.377	1.971	2.018	1.454	2.038	0.581	-0.416	0.646	-0.531	-1.963	2.839	0.976	-0.499	-0.088	0.059	-0.188	0.830	0.090	2.470	2.011	0.762	1.148	-1.392	-3.162	0.200	-3.560	578.125
0.138	0.258	0.148	1.793	1.923	1.301	2.185	0.554	-0.379	0.958	-0.368	-1.731	3.142	1.101	-0.561	-0.173	-0.003	-0.060	0.852	-0.002	2.431	2.021	0.726	1.288	-1.457	-3.142	0.497	-3.383	582.031
0.021	0.003	-0.090	1.591	1.793	1.133	2.320	0.537	-0.334	1.277	-0.162	-1.430	3.395	1.205	-0.663	-0.265	-0.045	-0.032	0.856	-0.126	2.367	2.034	0.685	1.434	-1.492	-3.054	0.809	-3.136	585.938
-0.087	-0.218	-0.310	1.390	1.646	0.966	2.434	0.513	-0.292	1.575	0.060	-1.081	3.590	1.289	-0.783	-0.362	-0.067	-0.105	0.839	-0.276	2.292	2.052	0.643	1.583	-1.500	-2.909	1.110	-2.840	589.844
-0.148	-0.389	-0.487	1.209	1.500	0.813	2.519	0.475	-0.261	1.830	0.276	-0.710	3.731	1.357	-0.895	-0.459	-0.076	-0.262	0.797	-0.444	2.219	2.075	0.600	1.728	-1.486	-2.728	1.378	-2.523	593.750
-0.140	-0.501	-0.600	1.062	1.369	0.681	2.573	0.417	-0.247	2.025	0.471	-0.340	3.826	1.415	-0.972	-0.553	-0.081	-0.475	0.730	-0.619	2.159	2.097	0.556	1.859	-1.458	-2.536	1.590	-2.209	597.656
-0.054	-0.556	-0.640	0.957	1.260	0.577	2.598	0.346	-0.253	2.148	0.636	0.005	3.885	1.467	-0.993	-0.635	-0.090	-0.702	0.637	-0.788	2.118	2.114	0.511	1.966	-1.423	-2.363	1.735	-1.921	601.562
0.097	-0.565	-0.612	0.891	1.177	0.499	2.595	0.271	-0.275	2.196	0.771	0.306	3.915	1.517	-0.949	-0.699	-0.104	-0.900	0.527	-0.938	2.099	2.120	0.466	2.038	-1.389	-2.234	1.802	-1.677	605.469
0.288	-0.543	-0.532	0.859	1.120	0.443	2.571	0.201	-0.311	2.170	0.877	0.547	3.918	1.563	-0.842	-0.738	-0.120	-1.033	0.411	-1.059	2.101	2.112	0.425	2.063	-1.363	-2.170	1.790	-1.486	609.375
0.486	-0.505	-0.421	0.856	1.085	0.407	2.527	0.148	-0.360	2.079	0.955	0.717	3.890	1.601	-0.688	-0.744	-0.124	-1.076	0.305	-1.140	2.120	2.092	0.397	2.036	-1.348	-2.183	1.704	-1.355	613.281
0.663	-0.465	-0.301	0.875	1.070	0.388	2.466	0.115	-0.422	1.931	1.006	0.810	3.822	1.623	-0.511	-0.715	-0.100	-1.023	0.226	-1.177	2.146	2.061	0.390	1.954	-1.349	-2.273	1.556	-1.283	617.188
0.800	-0.430	-0.190	0.914	1.071	0.386	2.386	0.100	-0.497	1.738	1.025	0.825	3.705	1.623	-0.331	-0.651	-0.031	-0.887	0.189	-1.170	2.173	2.027	0.414	1.822	-1.368	-2.428	1.361	-1.268	621.094
0.891	-0.404	-0.095	0.969	1.082	0.406	2.289	0.099	-0.589	1.514	1.007	0.763	3.532	1.594	-0.168	-0.557	0.091	-0.691	0.204	-1.125	2.189	1.998	0.476	1.652	-1.404	-2.628	1.140	-1.306	625.000
0.946	-0.390	-0.019	1.040	1.100	0.452	2.173	0.103	-0.695	1.271	0.948	0.630	3.302	1.531	-0.029	-0.443	0.265	-0.469	0.272	-1.051	2.190	1.983	0.580	1.464	-1.451	-2.846	0.917	-1.393	628.906
0.982	-0.389	0.044	1.126	1.122	0.528	2.045	0.107	-0.813	1.026	0.845	0.438	3.026	1.435	0.083	-0.325	0.474	-0.252	0.384	-0.963	2.173	1.990	0.720	1.283	-1.503	-3.051	0.718	-1.525	632.812
1.019	-0.402	0.100	1.225	1.147	0.634	1.914	0.110	-0.932	0.795	0.700	0.201	2.725	1.311	0.172	-0.219	0.691	-0.067	0.519	-0.877	2.140	2.023	0.885	1.136	-1.551	-3.219	0.563	-1.696	636.719
1.074	-0.429	0.160	1.342	1.177	0.767	1.793	0.115	-1.041	0.595	0.518	-0.063	2.430	1.169	0.241	-0.138	0.884	0.068	0.653	-0.806	2.097	2.083	1.060	1.043	-1.587	-3.334	0.467	-1.901	640.625
1.151	-0.464	0.232	1.479	1.218	0.923	1.698	0.130	-1.130	0.444	0.310	-0.337	2.173	1.027	0.295	-0.090	1.030	0.150	0.762	-0.755	2.058	2.169	1.225	1.016	-1.608	-3.397	0.432	-2.135	644.531
1.246	-0.495	0.326	1.645	1.276	1.090	1.643	0.164	-1.189	0.352	0.086	-0.605	1.988	0.904	0.340	-0.071	1.114	0.189	0.826	-0.722	2.035	2.272	1.362	1.050	-1.622	-3.424	0.447	-2.394	648.438
1.350	-0.506	0.448	1.847	1.361	1.260	1.637	0.223	-1.220	0.323	-0.142	-0.857	1.896	0.822	0.382	-0.067	1.144	0.204	0.838	-0.695	2.044	2.387	1.459	1.131	-1.645	-3.448	0.487	-2.678	652.344
1.452	-0.474	0.603	2.089	1.477	1.422	1.683	0.307	-1.230	0.354	-0.367	-1.091	1.909	0.799	0.426	-0.059	1.140	0.218	0.805	-0.657	2.097	2.506	1.513	1.229	-1.697	-3.506	0.518	-2.984	656.250
1.549	-0.380	0.790	2.369	1.626	1.568	1.773	0.406	-1.233	0.433	-0.585	-1.307	2.021	0.843	0.483	-0.023	1.132	0.254	0.741	-0.589	2.202	2.623	1.531	1.315	-1.802	-3.633	0.509	-3.311	660.156
1.643	-0.213	1.003	2.673	1.802	1.692	1.893	0.506	-1.247	0.541	-0.796	-1.514	2.215	0.955	0.567	0.058	1.153	0.324	0.671	-0.477	2.357	2.734	1.527	1.359	-1.970	-3.849	0.435	-3.655	664.062
1.745	0.025	1.228	2.983	1.994	1.789	2.025	0.585	-1.287	0.657	-1.000	-1.716	2.461	1.122	0.693	0.190	1.225	0.430	0.619	-0.315	2.557	2.837	1.519	1.342	-2.204	-4.155	0.287	-4.005	667.969
1.864	0.320	1.452	3.273	2.186	1.859	2.148	0.625	-1.364	0.762	-1.199	-1.916	2.723	1.321	0.872	0.368	1.354	0.558	0.603	-0.109	2.785	2.928	1.524	1.260	-2.488	-4.529	0.074	-4.347	671.875
2.010	0.647	1.659	3.518	2.363	1.906	2.243	0.614	-1.478	0.840	-1.392	-2.111	2.969	1.522	1.104	0.575	1.531	0.685	0.635	0.123	3.023	3.004	1.552	1.117	-2.797	-4.933	-0.182	-4.661	675.781
2.184	0.976	1.838	3.700	2.512	1.935	2.300	0.551	-1.621	0.885	-1.575	-2.290	3.169	1.695	1.371	0.789	1.730	0.786	0.715	0.359	3.252	3.060	1.600	0.929	-3.101	-5.322	-0.449	-4.925	679.688
2.383	1.279	1.986	3.811	2.623	1.954	2.314	0.446	-1.777	0.894	-1.738	-2.439	3.306	1.815	1.640	0.985	1.917	0.838	0.837	0.576	3.452	3.092	1.656	0.719	-3.377	-5.656	-0.694	-5.120	683.594
2.593	1.537	2.104	3.856	2.696	1.974	2.290	0.318	-1.926	0.874	-1.872	-2.542	3.372	1.869	1.873	1.147	2.061	0.834	0.985	0.755	3.612	3.095	1.700	0.503	-3.610	-5.909	-0.895	-5.235	687.500
2.796	1.746	2.202	3.853	2.736	2.002	2.236	0.188	-2.052	0.834	-1.965	-2.586	3.371	1.854	2.037	1.270	2.144	0.780	1.145	0.888	3.726	3.066	1.711	0.297	-3.801	-6.075	-1.042	-5.268	691.406
2.971	1.910	2.290	3.826	2.753	2.045	2.165	0.072	-2.143	0.781	-2.013	-2.566	3.315	1.783	2.114	1.359	2.162	0.699	1.304	0.976	3.795	3.006	1.669	0.106	-3.966	-6.169	-1.139	-5.227	695.312
3.099	2.043	2.380	3.806	2.760	2.108	2.086	-0.019	-2.196	0.723	-2.012	-2.484	3.218	1.674	2.105	1.428	2.134	0.619	1.453	1.028	3.825	2.920	1.569	-0.072	-4.127	-6.221	-1.203	-5.131	699.219
3.174	2.158	2.478	3.815	2.767	2.192	2.007	-0.084	-2.215	0.662	-1.970	-2.354	3.097	1.552	2.032	1.497	2.088	0.570	1.590	1.059	3.827	2.820	1.414	-0.247	-4.308	-6.266	-1.259	-5.007	703.125
3.201	2.267	2.589	3.868	2.783	2.292	1.931	-0.131	-2.211	0.596	-1.898	-2.194	2.967	1.436	1.932	1.582	2.058	0.572	1.716	1.084	3.811	2.716	1.223	-0.427	-4.528	-6.336	-1.331	-4.880	707.031
3.199	2.376	2.708	3.970	2.812	2.406	1.855	-0.171	-2.200	0.520	-1.814	-2.029	2.839	1.337	1.846	1.692	2.077	0.636	1.835	1.114	3.786	2.624	1.023	-0.623	-4.792	-6.453	-1.437	-4.775	710.938
3.192	2.486	2.830	4.113	2.854	2.528	1.777	-0.216	-2.199	0.427	-1.736	-1.884	2.718	1.258	1.811	1.827	2.161	0.762	1.949	1.156	3.760	2.555	0.845	-0.835	-5.092	-6.624	-1.586	-4.711	714.844
3.204	2.593	2.949	4.280	2.906	2.652	1.690	-0.276	-2.224	0.308	-1.683	-1.778	2.605	1.191	1.847	1.976	2.313	0.938	2.060	1.209	3.737	2.518	0.719	-1.060	-5.405	-6.838	-1.773	-4.696	718.750
3.250	2.690	3.062	4.453	2.962	2.773	1.589	-0.356	-2.287	0.159	-1.667	-1.725	2.498	1.125	1.953	2.119	2.520	1.148	2.165	1.268	3.718	2.519	0.667	-1.284	-5.696	-7.070	-1.979	-4.727	722.656
3.336	2.769	3.168	4.611	3.018	2.884	1.473	-0.457	-2.394	-0.020	-1.696	-1.728	2.396	1.049	2.105	2.233	2.753	1.369	2.260	1.323	3.704	2.557	0.698	-1.486	-5.925	-7.289	-2.178	-4.789	726.562
3.454	2.817	3.270	4.737	3.067	2.978	1.343	-0.575	-2.545	-0.220	-1.767	-1.781	2.297	0.956	2.269	2.295	2.976	1.578	2.339	1.366	3.693	2.627	0.809	-1.643	-6.057	-7.461	-2.337	-4.862	730.469
3.588	2.824	3.374	4.820	3.104	3.044	1.205	-0.701	-2.734	-0.430	-1.874	-1.866	2.204	0.847	2.405	2.287	3.155	1.755	2.397	1.388	3.684	2.721	0.980	-1.735	-6.068	-7.555	-2.425	-4.921	734.375
3.716	2.781	3.481	4.855	3.125	3.079	1.070	-0.827	-2.946	-0.627	-2.000	-1.961	2.124	0.728	2.478	2.203	3.265	1.879	2.431	1.387	3.678	2.826	1.182	-1.749	-5.955	-7.557	-2.421	-4.944	738.281
3.815	2.686	3.590	4.847	3.127	3.080	0.951	-0.945	-3.163	-0.790	-2.128	-2.042	2.069	0.611	2.473	2.051	3.296	1.937	2.441	1.365	3.674	2.927	1.378	-1.681	-5.743	-7.467	-2.319	-4.920	742.188
3.864	2.548	3.694	4.808	3.112	3.052	0.865	-1.047	-3.364	-0.897	-2.238	-2.088	2.050	0.510	2.388	1.854	3.256	1.916	2.433	1.329	3.675	3.010	1.531	-1.541	-5.474	-7.304	-2.129	-4.846	746.094
3.849	2.390	3.783	4.753	3.084	3.005	0.827	-1.129	-3.526	-0.932	-2.311	-2.085	2.080	0.436	2.239	1.645	3.170	1.814	2.417	1.292	3.684	3.061	1.609	-1.349	-5.211	-7.102	-1.879	-4.734	750.000
3.764	2.241	3.845	4.702	3.048	2.952	0.847	-1.187	-3.635	-0.888	-2.336	-2.027	2.168	0.398	2.050	1.460	3.073	1.636	2.408	1.264	3.703	3.073	1.594	-1.134	-5.017	-6.902	-1.609	-4.603	753.906
3.617	2.137	3.870	4.670	3.013	2.906	0.930	-1.221	-3.681	-0.767	-2.305	-1.916	2.315	0.401	1.847	1.333	2.999	1.396	2.421	1.258	3.736	3.044	1.483	-0.926	-4.943	-6.747	-1.359	-4.475	757.812
3.423	2.104	3.850	4.668	2.984	2.875	1.073	-1.233	-3.665	-0.580	-2.220	-1.760	2.517	0.443	1.650	1.286	2.976	1.118	2.466	1.277	3.780	2.981	1.287	-0.751	-5.015	-6.667	-1.168	-4.369	761.719
3.208	2.153	3.786	4.698	2.965	2.864	1.264	-1.229	-3.593	-0.345	-2.085	-1.568	2.762	0.517	1.473	1.323	3.012	0.833	2.544	1.320	3.833	2.892	1.032	-0.628	-5.228	-6.673	-1.059	-4.295	765.625
2.998	2.273	3.679	4.754	2.959	2.868	1.489	-1.215	-3.478	-0.081	-1.910	-1.352	3.034	0.612	1.326	1.430	3.094	0.575	2.643	1.376	3.885	2.787	0.752	-0.562	-5.544	-6.757	-1.036	-4.250	769.531
2.821	2.433	3.532	4.819	2.964	2.873	1.732	-1.202	-3.332	0.198	-1.703	-1.118	3.315	0.714	1.212	1.578	3.189	0.377	2.742	1.426	3.926	2.676	0.480	-0.549	-5.899	-6.893	-1.086	-4.220	773.438
2.693	2.586	3.351	4.877	2.981	2.865	1.980	-1.196	-3.166	0.479	-1.469	-0.866	3.590	0.812	1.131	1.731	3.250	0.264	2.810	1.449	3.945	2.564	0.245	-0.574	-6.219	-7.039	-1.182	-4.182	777.344
2.625	2.685	3.136	4.909	3.010	2.825	2.226	-1.203	-2.990	0.759	-1.212	-0.595	3.848	0.896	1.076	1.852	3.233	0.249	2.817	1.428	3.931	2.452	0.065	-0.617	-6.437	-7.154	-1.288	-4.112	781.250
2.616	2.695	2.892	4.902	3.049	2.742	2.466	-1.223	-2.808	1.039	-0.933	-0.300	4.085	0.959	1.038	1.913	3.102	0.335	2.741	1.349	3.878	2.338	-0.055	-0.660	-6.506	-7.202	-1.376	-3.991	785.156
2.655	2.601	2.622	4.855	3.097	2.613	2.703	-1.255	-2.623	1.322	-0.634	0.020	4.302	1.000	1.007	1.903	2.847	0.508	2.576	1.212	3.786	2.218	-0.124	-0.690	-6.414	-7.168	-1.423	-3.809	789.062
2.727	2.415	2.333	4.772	3.152	2.443	2.938	-1.295	-2.436	1.610	-0.318	0.364	4.505	1.025	0.975	1.828	2.484	0.743	2.334	1.027	3.663	2.091	-0.156	-0.702	-6.186	-7.058	-1.426	-3.573	792.969
2.813	2.170	2.035	4.666	3.208	2.247	3.172	-1.340	-2.250	1.905	0.006	0.724	4.702	1.040	0.936	1.710	2.055	1.007	2.047	0.812	3.523	1.959	-0.171	-0.696	-5.873	-6.897	-1.394	-3.301	796.875
