FP1	F3	F7	FC3	C3	C5	P3	P7	PO7	PO3	O1	Oz	Pz	CPz	FP2	Fz	F4	F8	FC4	FCz	Cz	C4	C6	P4	P8	PO8	PO4	O2	time
1.441	-2.271	-1.491	-0.268	-0.214	-0.086	0.267	0.937	-0.078	1.437	0.095	0.242	0.107	-0.707	-0.030	-0.310	-0.492	-0.067	0.813	-0.179	0.513	-0.091	-0.043	0.098	-0.399	0.493	-0.114	-0.201	-199.219
1.032	-1.906	-1.085	-0.122	-0.252	-0.052	0.212	0.684	0.241	1.471	0.397	0.437	-0.032	-0.672	-0.205	-0.343	-0.276	-0.314	0.679	-0.235	0.287	-0.079	-0.129	0.072	-0.319	0.530	-0.030	-0.079	-195.312
0.637	-1.569	-0.699	0.008	-0.303	-0.041	0.144	0.418	0.496	1.477	0.653	0.597	-0.155	-0.616	-0.372	-0.372	-0.092	-0.512	0.566	-0.280	0.086	-0.046	-0.187	0.064	-0.204	0.578	0.060	0.037	-191.406
0.269	-1.278	-0.361	0.113	-0.372	-0.070	0.053	0.132	0.634	1.434	0.826	0.695	-0.246	-0.522	-0.514	-0.390	0.043	-0.632	0.489	-0.298	-0.067	0.020	-0.192	0.088	-0.036	0.641	0.157	0.138	-187.500
-0.061	-1.040	-0.085	0.191	-0.456	-0.141	-0.061	-0.171	0.629	1.336	0.895	0.720	-0.295	-0.378	-0.618	-0.393	0.116	-0.662	0.456	-0.283	-0.158	0.123	-0.137	0.146	0.188	0.715	0.258	0.215	-183.594
-0.337	-0.853	0.124	0.244	-0.542	-0.244	-0.190	-0.478	0.481	1.189	0.858	0.671	-0.298	-0.178	-0.683	-0.380	0.123	-0.602	0.465	-0.234	-0.185	0.250	-0.030	0.233	0.449	0.791	0.356	0.259	-179.688
-0.541	-0.710	0.268	0.276	-0.611	-0.355	-0.314	-0.766	0.220	1.012	0.734	0.563	-0.255	0.073	-0.710	-0.353	0.074	-0.472	0.504	-0.158	-0.155	0.383	0.106	0.333	0.711	0.854	0.437	0.262	-175.781
-0.655	-0.599	0.353	0.295	-0.646	-0.451	-0.415	-1.010	-0.106	0.828	0.551	0.418	-0.174	0.360	-0.705	-0.318	-0.015	-0.299	0.558	-0.067	-0.081	0.495	0.240	0.426	0.927	0.884	0.491	0.219	-171.875
-0.663	-0.506	0.388	0.308	-0.629	-0.510	-0.475	-1.189	-0.442	0.663	0.344	0.265	-0.064	0.659	-0.669	-0.275	-0.117	-0.118	0.612	0.028	0.018	0.565	0.342	0.489	1.053	0.865	0.506	0.129	-167.969
-0.562	-0.418	0.380	0.320	-0.552	-0.518	-0.483	-1.289	-0.739	0.532	0.145	0.129	0.059	0.938	-0.594	-0.225	-0.207	0.035	0.654	0.117	0.123	0.578	0.390	0.504	1.056	0.781	0.471	-0.005	-164.062
-0.361	-0.328	0.338	0.337	-0.418	-0.475	-0.438	-1.305	-0.960	0.444	-0.025	0.026	0.182	1.169	-0.471	-0.166	-0.257	0.137	0.681	0.195	0.220	0.529	0.372	0.456	0.919	0.624	0.383	-0.177	-160.156
-0.084	-0.230	0.274	0.364	-0.236	-0.385	-0.347	-1.245	-1.087	0.396	-0.153	-0.035	0.292	1.328	-0.295	-0.091	-0.250	0.175	0.692	0.260	0.298	0.422	0.292	0.340	0.652	0.391	0.239	-0.378	-156.250
0.235	-0.125	0.201	0.404	-0.024	-0.262	-0.227	-1.127	-1.121	0.375	-0.237	-0.060	0.379	1.404	-0.068	0.001	-0.178	0.154	0.692	0.315	0.351	0.273	0.164	0.162	0.279	0.090	0.045	-0.596	-152.344
0.560	-0.018	0.137	0.457	0.195	-0.121	-0.094	-0.972	-1.075	0.365	-0.285	-0.060	0.438	1.399	0.191	0.111	-0.045	0.095	0.688	0.360	0.379	0.099	0.009	-0.065	-0.160	-0.261	-0.190	-0.819	-148.438
0.859	0.084	0.100	0.520	0.399	0.024	0.035	-0.803	-0.975	0.348	-0.307	-0.055	0.465	1.327	0.456	0.236	0.134	0.024	0.687	0.396	0.381	-0.079	-0.149	-0.321	-0.617	-0.638	-0.452	-1.031	-144.531
1.111	0.173	0.105	0.590	0.566	0.159	0.145	-0.642	-0.846	0.309	-0.320	-0.061	0.463	1.209	0.698	0.365	0.340	-0.028	0.690	0.423	0.363	-0.244	-0.288	-0.581	-1.049	-1.011	-0.722	-1.217	-140.625
1.301	0.245	0.158	0.656	0.679	0.270	0.227	-0.504	-0.715	0.240	-0.336	-0.095	0.433	1.068	0.891	0.490	0.551	-0.039	0.699	0.437	0.330	-0.384	-0.394	-0.818	-1.415	-1.346	-0.980	-1.365	-136.719
1.425	0.298	0.252	0.710	0.729	0.348	0.278	-0.396	-0.601	0.138	-0.364	-0.164	0.383	0.924	1.020	0.600	0.743	0.001	0.710	0.436	0.286	-0.489	-0.458	-1.009	-1.687	-1.614	-1.204	-1.464	-132.812
1.482	0.328	0.369	0.740	0.711	0.386	0.298	-0.320	-0.514	0.011	-0.409	-0.265	0.317	0.793	1.079	0.682	0.898	0.087	0.715	0.419	0.238	-0.556	-0.476	-1.135	-1.844	-1.788	-1.375	-1.503	-128.906
1.472	0.334	0.480	0.740	0.632	0.381	0.293	-0.268	-0.454	-0.129	-0.463	-0.386	0.243	0.683	1.070	0.728	0.996	0.205	0.706	0.387	0.191	-0.585	-0.452	-1.183	-1.878	-1.851	-1.474	-1.479	-125.000
1.395	0.311	0.556	0.705	0.504	0.335	0.269	-0.232	-0.413	-0.266	-0.514	-0.506	0.165	0.597	1.000	0.730	1.022	0.331	0.671	0.340	0.146	-0.581	-0.394	-1.150	-1.791	-1.793	-1.486	-1.385	-121.094
1.251	0.255	0.576	0.637	0.344	0.257	0.233	-0.202	-0.377	-0.387	-0.546	-0.601	0.084	0.534	0.878	0.684	0.967	0.442	0.601	0.280	0.103	-0.552	-0.315	-1.042	-1.595	-1.613	-1.404	-1.223	-117.188
1.046	0.166	0.529	0.543	0.171	0.156	0.188	-0.172	-0.335	-0.483	-0.544	-0.652	0.000	0.489	0.720	0.591	0.828	0.518	0.488	0.210	0.061	-0.507	-0.230	-0.873	-1.309	-1.323	-1.230	-0.994	-113.281
0.795	0.045	0.419	0.430	0.005	0.045	0.137	-0.140	-0.276	-0.552	-0.499	-0.644	-0.086	0.455	0.544	0.459	0.615	0.548	0.331	0.130	0.015	-0.456	-0.156	-0.664	-0.961	-0.943	-0.971	-0.708	-109.375
0.517	-0.097	0.268	0.310	-0.142	-0.065	0.076	-0.113	-0.200	-0.600	-0.410	-0.575	-0.175	0.422	0.372	0.299	0.348	0.528	0.136	0.042	-0.038	-0.406	-0.103	-0.442	-0.579	-0.504	-0.647	-0.378	-105.469
0.233	-0.248	0.101	0.191	-0.261	-0.167	0.002	-0.097	-0.115	-0.638	-0.288	-0.451	-0.267	0.383	0.222	0.128	0.055	0.467	-0.080	-0.050	-0.100	-0.358	-0.077	-0.228	-0.194	-0.044	-0.279	-0.023	-101.562
-0.038	-0.388	-0.053	0.078	-0.350	-0.254	-0.087	-0.098	-0.033	-0.678	-0.150	-0.289	-0.356	0.331	0.110	-0.035	-0.227	0.380	-0.297	-0.143	-0.170	-0.311	-0.073	-0.044	0.166	0.398	0.103	0.335	-97.656
-0.286	-0.499	-0.172	-0.028	-0.412	-0.325	-0.191	-0.120	0.031	-0.730	-0.015	-0.109	-0.437	0.264	0.037	-0.168	-0.465	0.282	-0.489	-0.231	-0.244	-0.255	-0.081	0.100	0.479	0.785	0.474	0.672	-93.750
-0.508	-0.565	-0.245	-0.125	-0.452	-0.381	-0.304	-0.157	0.068	-0.796	0.101	0.069	-0.500	0.182	-0.003	-0.259	-0.632	0.190	-0.634	-0.309	-0.317	-0.184	-0.085	0.201	0.732	1.085	0.805	0.966	-89.844
-0.703	-0.577	-0.272	-0.214	-0.476	-0.423	-0.415	-0.201	0.072	-0.871	0.185	0.227	-0.539	0.089	-0.030	-0.295	-0.714	0.113	-0.717	-0.368	-0.381	-0.091	-0.070	0.262	0.916	1.280	1.077	1.198	-85.938
-0.868	-0.534	-0.265	-0.295	-0.488	-0.450	-0.509	-0.237	0.050	-0.944	0.233	0.352	-0.550	-0.011	-0.068	-0.276	-0.712	0.051	-0.734	-0.402	-0.427	0.026	-0.026	0.294	1.031	1.363	1.274	1.356	-82.031
-0.993	-0.440	-0.239	-0.364	-0.489	-0.463	-0.572	-0.252	0.011	-1.000	0.250	0.438	-0.532	-0.111	-0.138	-0.208	-0.638	-0.001	-0.692	-0.408	-0.448	0.161	0.050	0.308	1.084	1.339	1.388	1.433	-78.125
-1.066	-0.306	-0.211	-0.420	-0.478	-0.457	-0.590	-0.234	-0.026	-1.023	0.242	0.483	-0.491	-0.206	-0.251	-0.104	-0.515	-0.052	-0.606	-0.383	-0.442	0.304	0.149	0.316	1.083	1.224	1.417	1.430	-74.219
-1.076	-0.144	-0.194	-0.458	-0.452	-0.428	-0.559	-0.179	-0.044	-1.003	0.222	0.488	-0.435	-0.290	-0.402	0.019	-0.371	-0.109	-0.498	-0.331	-0.407	0.437	0.258	0.326	1.039	1.038	1.366	1.354	-70.312
-1.019	0.031	-0.197	-0.474	-0.406	-0.374	-0.479	-0.085	-0.030	-0.937	0.196	0.457	-0.371	-0.361	-0.568	0.142	-0.232	-0.174	-0.391	-0.257	-0.348	0.543	0.357	0.339	0.961	0.807	1.244	1.216	-66.406
-0.900	0.206	-0.217	-0.467	-0.336	-0.291	-0.360	0.042	0.023	-0.830	0.172	0.392	-0.309	-0.417	-0.715	0.248	-0.116	-0.239	-0.306	-0.169	-0.270	0.604	0.428	0.356	0.860	0.551	1.063	1.032	-62.500
-0.742	0.370	-0.249	-0.438	-0.241	-0.179	-0.217	0.190	0.112	-0.697	0.148	0.298	-0.253	-0.460	-0.805	0.321	-0.034	-0.290	-0.257	-0.079	-0.182	0.608	0.457	0.371	0.744	0.292	0.838	0.820	-58.594
-0.576	0.518	-0.279	-0.391	-0.119	-0.039	-0.066	0.348	0.226	-0.556	0.119	0.181	-0.203	-0.491	-0.809	0.355	0.013	-0.314	-0.249	0.007	-0.089	0.552	0.440	0.380	0.619	0.046	0.584	0.597	-54.688
-0.437	0.647	-0.294	-0.333	0.028	0.124	0.074	0.503	0.345	-0.424	0.078	0.047	-0.156	-0.514	-0.714	0.348	0.031	-0.298	-0.282	0.085	0.003	0.443	0.380	0.375	0.491	-0.176	0.317	0.379	-50.781
-0.351	0.763	-0.284	-0.269	0.197	0.299	0.192	0.644	0.449	-0.316	0.017	-0.096	-0.104	-0.531	-0.527	0.307	0.028	-0.241	-0.346	0.151	0.091	0.294	0.287	0.355	0.362	-0.365	0.055	0.179	-46.875
-0.332	0.871	-0.245	-0.208	0.376	0.475	0.281	0.763	0.523	-0.238	-0.067	-0.236	-0.042	-0.546	-0.275	0.240	0.016	-0.150	-0.429	0.205	0.174	0.130	0.179	0.318	0.236	-0.515	-0.187	0.009	-42.969
-0.372	0.975	-0.181	-0.160	0.551	0.636	0.340	0.856	0.557	-0.189	-0.169	-0.361	0.034	-0.568	-0.000	0.156	-0.001	-0.040	-0.520	0.245	0.245	-0.027	0.074	0.269	0.113	-0.624	-0.391	-0.124	-39.062
-0.445	1.070	-0.105	-0.136	0.701	0.761	0.372	0.923	0.556	-0.163	-0.276	-0.461	0.123	-0.604	0.253	0.064	-0.018	0.071	-0.607	0.268	0.299	-0.153	-0.011	0.214	-0.001	-0.685	-0.542	-0.214	-35.156
-0.517	1.143	-0.034	-0.148	0.802	0.830	0.384	0.967	0.531	-0.147	-0.373	-0.526	0.219	-0.661	0.445	-0.032	-0.036	0.169	-0.681	0.267	0.323	-0.232	-0.065	0.165	-0.101	-0.695	-0.626	-0.253	-31.250
-0.557	1.177	0.016	-0.206	0.832	0.825	0.384	0.989	0.504	-0.131	-0.437	-0.549	0.314	-0.747	0.546	-0.131	-0.057	0.241	-0.739	0.234	0.309	-0.258	-0.081	0.133	-0.175	-0.646	-0.630	-0.236	-27.344
-0.551	1.152	0.028	-0.315	0.779	0.736	0.376	0.993	0.494	-0.103	-0.452	-0.526	0.398	-0.865	0.545	-0.231	-0.083	0.281	-0.780	0.165	0.247	-0.233	-0.063	0.131	-0.212	-0.531	-0.546	-0.158	-23.438
-0.510	1.056	-0.007	-0.473	0.639	0.562	0.366	0.980	0.517	-0.059	-0.408	-0.457	0.465	-1.009	0.445	-0.332	-0.114	0.287	-0.805	0.063	0.138	-0.170	-0.018	0.165	-0.196	-0.343	-0.374	-0.018	-19.531
-0.466	0.889	-0.092	-0.667	0.424	0.318	0.354	0.952	0.576	0.002	-0.303	-0.349	0.509	-1.172	0.266	-0.429	-0.149	0.259	-0.817	-0.064	-0.013	-0.085	0.041	0.240	-0.117	-0.081	-0.122	0.183	-15.625
-0.461	0.668	-0.224	-0.879	0.158	0.028	0.338	0.910	0.663	0.071	-0.151	-0.212	0.529	-1.337	0.041	-0.514	-0.185	0.201	-0.819	-0.200	-0.190	0.002	0.102	0.350	0.032	0.251	0.194	0.434	-11.719
-0.531	0.419	-0.388	-1.088	-0.129	-0.275	0.314	0.854	0.758	0.137	0.027	-0.060	0.525	-1.488	-0.188	-0.579	-0.219	0.122	-0.815	-0.326	-0.373	0.075	0.153	0.482	0.247	0.636	0.544	0.719	-7.812
-0.695	0.178	-0.563	-1.272	-0.403	-0.554	0.274	0.787	0.832	0.181	0.203	0.090	0.497	-1.612	-0.375	-0.617	-0.246	0.033	-0.804	-0.426	-0.541	0.123	0.191	0.618	0.516	1.049	0.892	1.015	-3.906
-0.939	-0.022	-0.723	-1.414	-0.636	-0.778	0.216	0.714	0.860	0.186	0.349	0.218	0.442	-1.702	-0.479	-0.625	-0.263	-0.052	-0.779	-0.488	-0.679	0.142	0.215	0.732	0.814	1.451	1.197	1.291	0.000
-1.225	-0.156	-0.844	-1.505	-0.806	-0.925	0.133	0.638	0.826	0.134	0.440	0.307	0.359	-1.760	-0.473	-0.602	-0.266	-0.120	-0.732	-0.509	-0.775	0.134	0.230	0.801	1.110	1.799	1.417	1.519	3.906
-1.490	-0.210	-0.904	-1.542	-0.902	-0.983	0.027	0.563	0.725	0.015	0.461	0.342	0.243	-1.795	-0.346	-0.554	-0.252	-0.155	-0.652	-0.491	-0.824	0.110	0.244	0.806	1.367	2.051	1.517	1.670	7.812
-1.669	-0.184	-0.894	-1.527	-0.922	-0.951	-0.099	0.488	0.568	-0.172	0.409	0.315	0.096	-1.819	-0.108	-0.485	-0.219	-0.148	-0.528	-0.439	-0.829	0.081	0.264	0.734	1.550	2.172	1.477	1.722	11.719
-1.702	-0.092	-0.811	-1.466	-0.869	-0.842	-0.238	0.412	0.376	-0.423	0.292	0.226	-0.077	-1.844	0.213	-0.401	-0.169	-0.096	-0.357	-0.364	-0.794	0.057	0.291	0.587	1.632	2.140	1.291	1.666	15.625
-1.557	0.049	-0.662	-1.367	-0.754	-0.671	-0.380	0.330	0.174	-0.720	0.125	0.080	-0.266	-1.874	0.576	-0.307	-0.104	-0.005	-0.140	-0.270	-0.726	0.046	0.324	0.375	1.597	1.955	0.975	1.502	19.531
-1.233	0.219	-0.459	-1.235	-0.587	-0.461	-0.513	0.236	-0.017	-1.045	-0.068	-0.112	-0.454	-1.910	0.933	-0.206	-0.028	0.114	0.112	-0.161	-0.630	0.048	0.356	0.121	1.445	1.635	0.560	1.241	23.438
-0.768	0.402	-0.215	-1.077	-0.383	-0.237	-0.629	0.130	-0.181	-1.372	-0.268	-0.334	-0.625	-1.942	1.244	-0.098	0.058	0.238	0.381	-0.036	-0.513	0.064	0.377	-0.148	1.190	1.216	0.087	0.906	27.344
-0.230	0.587	0.052	-0.900	-0.159	-0.023	-0.719	0.012	-0.312	-1.679	-0.454	-0.571	-0.763	-1.957	1.482	0.016	0.151	0.345	0.646	0.105	-0.379	0.087	0.378	-0.400	0.864	0.747	-0.393	0.524	31.250
0.293	0.767	0.325	-0.711	0.064	0.157	-0.782	-0.106	-0.412	-1.945	-0.616	-0.810	-0.858	-1.943	1.636	0.135	0.251	0.414	0.883	0.264	-0.237	0.115	0.355	-0.608	0.509	0.283	-0.833	0.128	35.156
0.713	0.936	0.578	-0.524	0.267	0.281	-0.817	-0.211	-0.485	-2.154	-0.746	-1.035	-0.907	-1.889	1.709	0.253	0.358	0.431	1.074	0.433	-0.094	0.144	0.308	-0.748	0.174	-0.123	-1.187	-0.243	39.062
0.958	1.082	0.786	-0.357	0.427	0.334	-0.827	-0.281	-0.536	-2.293	-0.841	-1.234	-0.915	-1.794	1.712	0.359	0.468	0.397	1.204	0.600	0.034	0.173	0.246	-0.805	-0.094	-0.424	-1.420	-0.554	42.969
0.989	1.189	0.917	-0.232	0.525	0.306	-0.815	-0.299	-0.567	-2.356	-0.901	-1.394	-0.891	-1.668	1.656	0.434	0.570	0.326	1.267	0.744	0.134	0.199	0.176	-0.774	-0.255	-0.588	-1.507	-0.771	46.875
0.805	1.237	0.949	-0.170	0.551	0.196	-0.784	-0.251	-0.571	-2.335	-0.926	-1.501	-0.846	-1.529	1.549	0.460	0.649	0.237	1.263	0.841	0.190	0.222	0.110	-0.660	-0.281	-0.598	-1.437	-0.865	50.781
0.444	1.205	0.864	-0.187	0.500	0.016	-0.735	-0.133	-0.543	-2.232	-0.916	-1.544	-0.787	-1.400	1.397	0.416	0.683	0.154	1.194	0.864	0.189	0.241	0.055	-0.478	-0.161	-0.455	-1.211	-0.820	54.688
-0.036	1.076	0.663	-0.291	0.380	-0.214	-0.668	0.046	-0.472	-2.048	-0.866	-1.514	-0.720	-1.302	1.203	0.287	0.652	0.088	1.070	0.796	0.124	0.254	0.012	-0.246	0.099	-0.172	-0.844	-0.628	58.594
-0.561	0.841	0.356	-0.480	0.205	-0.471	-0.583	0.265	-0.353	-1.790	-0.774	-1.405	-0.645	-1.253	0.970	0.066	0.538	0.042	0.899	0.629	-0.004	0.261	-0.020	0.018	0.483	0.226	-0.357	-0.296	62.500
-1.069	0.502	-0.032	-0.739	-0.007	-0.728	-0.478	0.491	-0.185	-1.469	-0.636	-1.217	-0.556	-1.256	0.700	-0.244	0.330	0.001	0.691	0.369	-0.184	0.263	-0.044	0.299	0.967	0.714	0.227	0.160	66.406
-1.522	0.072	-0.473	-1.051	-0.237	-0.967	-0.353	0.689	0.028	-1.101	-0.448	-0.955	-0.443	-1.302	0.392	-0.629	0.028	-0.054	0.456	0.033	-0.402	0.265	-0.065	0.593	1.525	1.271	0.885	0.720	70.312
-1.909	-0.428	-0.935	-1.393	-0.470	-1.181	-0.209	0.826	0.277	-0.698	-0.207	-0.629	-0.292	-1.370	0.040	-1.070	-0.355	-0.151	0.203	-0.351	-0.634	0.273	-0.088	0.902	2.135	1.884	1.600	1.360	74.219
-2.252	-0.970	-1.391	-1.747	-0.699	-1.374	-0.048	0.880	0.551	-0.276	0.083	-0.252	-0.090	-1.432	-0.362	-1.543	-0.799	-0.310	-0.055	-0.753	-0.859	0.294	-0.113	1.236	2.779	2.549	2.358	2.056	78.125
-2.593	-1.522	-1.821	-2.098	-0.920	-1.558	0.130	0.846	0.840	0.154	0.416	0.159	0.173	-1.462	-0.822	-2.022	-1.271	-0.546	-0.308	-1.145	-1.054	0.333	-0.137	1.607	3.443	3.268	3.148	2.783	82.031
-2.979	-2.056	-2.214	-2.435	-1.138	-1.752	0.323	0.737	1.134	0.583	0.777	0.584	0.502	-1.437	-1.341	-2.485	-1.736	-0.860	-0.545	-1.503	-1.205	0.391	-0.159	2.023	4.115	4.041	3.958	3.519	85.938
-3.446	-2.547	-2.570	-2.754	-1.357	-1.973	0.532	0.586	1.429	1.003	1.149	1.004	0.894	-1.348	-1.912	-2.914	-2.161	-1.243	-0.756	-1.816	-1.304	0.464	-0.174	2.486	4.788	4.865	4.770	4.242	89.844
-4.009	-2.978	-2.894	-3.054	-1.580	-2.227	0.757	0.439	1.725	1.406	1.510	1.399	1.331	-1.201	-2.521	-3.300	-2.519	-1.675	-0.937	-2.077	-1.353	0.543	-0.183	2.981	5.454	5.730	5.561	4.930	93.750
-4.651	-3.340	-3.199	-3.334	-1.807	-2.511	0.996	0.346	2.025	1.782	1.845	1.759	1.786	-1.018	-3.140	-3.644	-2.800	-2.130	-1.094	-2.294	-1.365	0.609	-0.192	3.485	6.107	6.612	6.301	5.567	97.656
-5.332	-3.634	-3.492	-3.592	-2.032	-2.811	1.247	0.354	2.337	2.124	2.146	2.076	2.222	-0.834	-3.737	-3.951	-3.011	-2.584	-1.237	-2.475	-1.359	0.639	-0.213	3.961	6.733	7.478	6.955	6.139	101.562
-5.993	-3.870	-3.773	-3.826	-2.243	-3.101	1.504	0.498	2.671	2.426	2.416	2.352	2.595	-0.687	-4.279	-4.233	-3.173	-3.012	-1.388	-2.637	-1.359	0.610	-0.261	4.368	7.314	8.290	7.488	6.637	105.469
-6.569	-4.059	-4.034	-4.032	-2.427	-3.351	1.758	0.791	3.040	2.683	2.664	2.598	2.867	-0.615	-4.735	-4.501	-3.316	-3.398	-1.567	-2.793	-1.392	0.500	-0.352	4.666	7.827	9.003	7.866	7.055	109.375
-7.006	-4.217	-4.259	-4.206	-2.570	-3.531	2.000	1.225	3.450	2.895	2.908	2.824	3.008	-0.644	-5.080	-4.765	-3.471	-3.728	-1.791	-2.955	-1.475	0.298	-0.497	4.824	8.244	9.579	8.065	7.388	113.281
-7.266	-4.359	-4.427	-4.342	-2.663	-3.619	2.217	1.768	3.900	3.059	3.163	3.043	3.001	-0.788	-5.296	-5.029	-3.663	-3.994	-2.067	-3.128	-1.621	0.009	-0.699	4.824	8.537	9.983	8.073	7.634	117.188
-7.335	-4.493	-4.517	-4.436	-2.700	-3.599	2.394	2.375	4.381	3.176	3.438	3.262	2.847	-1.038	-5.373	-5.290	-3.903	-4.188	-2.383	-3.312	-1.826	-0.349	-0.948	4.667	8.685	10.197	7.894	7.790	121.094
-7.223	-4.622	-4.516	-4.483	-2.686	-3.472	2.518	2.988	4.867	3.243	3.732	3.479	2.563	-1.375	-5.310	-5.537	-4.186	-4.301	-2.717	-3.497	-2.078	-0.745	-1.222	4.366	8.673	10.216	7.546	7.854	125.000
-6.956	-4.741	-4.418	-4.479	-2.629	-3.248	2.579	3.552	5.325	3.253	4.033	3.685	2.178	-1.763	-5.117	-5.755	-4.491	-4.321	-3.031	-3.669	-2.353	-1.139	-1.494	3.950	8.502	10.045	7.056	7.824	128.906
-6.574	-4.838	-4.229	-4.424	-2.542	-2.950	2.569	4.022	5.718	3.201	4.318	3.864	1.730	-2.165	-4.811	-5.920	-4.782	-4.242	-3.285	-3.806	-2.621	-1.490	-1.731	3.454	8.179	9.702	6.461	7.698	132.812
-6.119	-4.893	-3.965	-4.315	-2.437	-2.610	2.488	4.367	6.007	3.078	4.557	3.996	1.257	-2.542	-4.422	-6.010	-5.017	-4.065	-3.440	-3.885	-2.848	-1.764	-1.910	2.916	7.726	9.211	5.800	7.480	136.719
-5.634	-4.884	-3.649	-4.150	-2.325	-2.257	2.340	4.570	6.161	2.880	4.717	4.061	0.797	-2.859	-3.983	-6.002	-5.152	-3.802	-3.468	-3.884	-3.005	-1.939	-2.016	2.374	7.170	8.601	5.112	7.177	140.625
-5.154	-4.787	-3.308	-3.931	-2.212	-1.921	2.134	4.634	6.158	2.603	4.769	4.040	0.378	-3.088	-3.527	-5.878	-5.150	-3.479	-3.352	-3.786	-3.071	-2.006	-2.047	1.858	6.543	7.903	4.429	6.801	144.531
-4.710	-4.583	-2.964	-3.659	-2.100	-1.623	1.883	4.567	5.990	2.247	4.686	3.922	0.024	-3.213	-3.081	-5.632	-4.983	-3.134	-3.094	-3.582	-3.033	-1.968	-2.010	1.394	5.878	7.149	3.780	6.364	148.438
-4.319	-4.263	-2.640	-3.339	-1.987	-1.374	1.598	4.387	5.657	1.814	4.449	3.697	-0.256	-3.223	-2.664	-5.263	-4.642	-2.805	-2.704	-3.274	-2.891	-1.833	-1.922	0.999	5.211	6.371	3.182	5.883	152.344
-3.987	-3.829	-2.349	-2.982	-1.870	-1.182	1.287	4.112	5.168	1.304	4.046	3.364	-0.460	-3.118	-2.285	-4.783	-4.133	-2.524	-2.202	-2.872	-2.653	-1.616	-1.795	0.683	4.575	5.602	2.645	5.366	156.250
-3.704	-3.299	-2.100	-2.601	-1.746	-1.045	0.956	3.762	4.541	0.721	3.473	2.920	-0.599	-2.910	-1.942	-4.214	-3.487	-2.308	-1.611	-2.394	-2.337	-1.328	-1.638	0.447	3.998	4.868	2.173	4.823	160.156
-3.444	-2.708	-1.896	-2.217	-1.613	-0.957	0.607	3.357	3.803	0.067	2.736	2.368	-0.689	-2.619	-1.630	-3.587	-2.748	-2.156	-0.957	-1.867	-1.965	-0.982	-1.454	0.289	3.508	4.194	1.759	4.256	164.062
-3.177	-2.097	-1.736	-1.850	-1.475	-0.911	0.240	2.917	2.989	-0.649	1.855	1.711	-0.755	-2.273	-1.341	-2.936	-1.977	-2.047	-0.266	-1.317	-1.562	-0.589	-1.239	0.200	3.123	3.602	1.395	3.667	167.969
-2.874	-1.514	-1.614	-1.521	-1.335	-0.895	-0.144	2.467	2.140	-1.415	0.863	0.962	-0.820	-1.908	-1.066	-2.299	-1.239	-1.955	0.435	-0.776	-1.153	-0.161	-0.988	0.172	2.857	3.104	1.072	3.060	171.875
-2.523	-1.000	-1.523	-1.248	-1.200	-0.899	-0.539	2.032	1.307	-2.207	-0.191	0.140	-0.904	-1.559	-0.797	-1.708	-0.594	-1.851	1.119	-0.270	-0.762	0.282	-0.698	0.192	2.714	2.714	0.784	2.445	175.781
-2.131	-0.587	-1.459	-1.041	-1.077	-0.913	-0.932	1.641	0.541	-2.990	-1.244	-0.721	-1.022	-1.256	-0.530	-1.196	-0.091	-1.714	1.753	0.174	-0.413	0.719	-0.378	0.252	2.693	2.441	0.532	1.841	179.688
-1.728	-0.296	-1.418	-0.906	-0.976	-0.930	-1.303	1.321	-0.105	-3.720	-2.221	-1.577	-1.173	-1.024	-0.267	-0.785	0.240	-1.534	2.305	0.533	-0.126	1.123	-0.043	0.345	2.783	2.289	0.326	1.277	183.594
-1.362	-0.135	-1.401	-0.842	-0.902	-0.947	-1.623	1.094	-0.587	-4.341	-3.043	-2.373	-1.348	-0.872	-0.016	-0.495	0.389	-1.319	2.743	0.789	0.086	1.469	0.279	0.465	2.965	2.263	0.182	0.790	187.500
-1.089	-0.101	-1.410	-0.847	-0.858	-0.965	-1.855	0.980	-0.868	-4.794	-3.638	-3.048	-1.522	-0.793	0.205	-0.341	0.363	-1.089	3.040	0.929	0.210	1.731	0.558	0.612	3.213	2.361	0.122	0.421	191.406
-0.960	-0.184	-1.449	-0.915	-0.844	-0.985	-1.964	0.984	-0.926	-5.025	-3.951	-3.542	-1.665	-0.772	0.375	-0.331	0.183	-0.878	3.175	0.942	0.244	1.891	0.761	0.784	3.499	2.578	0.169	0.205	195.312
-1.008	-0.365	-1.517	-1.037	-0.853	-1.006	-1.921	1.104	-0.755	-4.994	-3.950	-3.809	-1.744	-0.783	0.468	-0.468	-0.124	-0.725	3.141	0.826	0.188	1.940	0.865	0.981	3.796	2.901	0.337	0.170	199.219
-1.244	-0.624	-1.613	-1.203	-0.877	-1.028	-1.710	1.324	-0.367	-4.680	-3.633	-3.815	-1.730	-0.800	0.461	-0.747	-0.527	-0.671	2.942	0.585	0.051	1.876	0.856	1.203	4.082	3.313	0.634	0.327	203.125
-1.650	-0.937	-1.736	-1.403	-0.905	-1.049	-1.329	1.622	0.210	-4.091	-3.027	-3.549	-1.608	-0.805	0.335	-1.156	-0.995	-0.749	2.596	0.229	-0.157	1.710	0.734	1.448	4.347	3.796	1.055	0.673	207.031
-2.189	-1.282	-1.887	-1.626	-0.927	-1.065	-0.799	1.973	0.932	-3.263	-2.185	-3.023	-1.375	-0.788	0.080	-1.676	-1.503	-0.979	2.135	-0.226	-0.420	1.459	0.514	1.710	4.591	4.329	1.581	1.184	210.938
-2.807	-1.641	-2.070	-1.866	-0.938	-1.077	-0.157	2.349	1.748	-2.256	-1.177	-2.271	-1.047	-0.751	-0.303	-2.280	-2.028	-1.358	1.595	-0.758	-0.723	1.149	0.221	1.986	4.826	4.893	2.184	1.825	214.844
-3.446	-1.999	-2.289	-2.117	-0.935	-1.085	0.546	2.730	2.598	-1.153	-0.087	-1.351	-0.652	-0.706	-0.795	-2.934	-2.552	-1.862	1.020	-1.339	-1.049	0.808	-0.111	2.268	5.066	5.469	2.828	2.549	218.750
-4.049	-2.343	-2.545	-2.374	-0.923	-1.093	1.253	3.097	3.425	-0.045	0.998	-0.333	-0.228	-0.668	-1.359	-3.604	-3.060	-2.446	0.450	-1.941	-1.384	0.466	-0.450	2.545	5.324	6.039	3.471	3.305	222.656
-4.574	-2.665	-2.834	-2.633	-0.907	-1.108	1.906	3.439	4.174	0.975	1.998	0.702	0.184	-0.647	-1.939	-4.252	-3.539	-3.050	-0.081	-2.533	-1.712	0.150	-0.765	2.808	5.603	6.583	4.074	4.038	226.562
-4.988	-2.957	-3.141	-2.890	-0.897	-1.135	2.454	3.745	4.800	1.826	2.840	1.671	0.546	-0.650	-2.470	-4.847	-3.976	-3.612	-0.550	-3.087	-2.022	-0.117	-1.029	3.046	5.901	7.083	4.598	4.700	230.469
-5.272	-3.217	-3.447	-3.136	-0.902	-1.180	2.861	4.005	5.268	2.447	3.468	2.498	0.831	-0.671	-2.885	-5.362	-4.361	-4.071	-0.943	-3.580	-2.303	-0.318	-1.226	3.250	6.205	7.520	5.015	5.246	234.375
-5.421	-3.442	-3.724	-3.363	-0.927	-1.243	3.108	4.211	5.559	2.799	3.845	3.119	1.022	-0.695	-3.133	-5.777	-4.683	-4.386	-1.255	-3.990	-2.543	-0.444	-1.344	3.412	6.499	7.877	5.303	5.641	238.281
-5.436	-3.630	-3.945	-3.556	-0.971	-1.317	3.192	4.355	5.668	2.877	3.956	3.491	1.116	-0.700	-3.188	-6.082	-4.929	-4.533	-1.489	-4.306	-2.733	-0.491	-1.379	3.529	6.764	8.141	5.454	5.864	242.188
-5.329	-3.779	-4.087	-3.700	-1.028	-1.391	3.129	4.432	5.602	2.698	3.806	3.592	1.121	-0.665	-3.059	-6.272	-5.089	-4.515	-1.647	-4.521	-2.863	-0.462	-1.332	3.601	6.990	8.304	5.470	5.903	246.094
-5.123	-3.889	-4.134	-3.781	-1.087	-1.451	2.947	4.439	5.385	2.303	3.421	3.427	1.055	-0.569	-2.785	-6.348	-5.151	-4.352	-1.735	-4.635	-2.925	-0.367	-1.214	3.632	7.171	8.366	5.367	5.760	250.000
-4.850	-3.958	-4.085	-3.791	-1.135	-1.482	2.680	4.378	5.050	1.751	2.843	3.022	0.941	-0.405	-2.426	-6.318	-5.111	-4.082	-1.754	-4.655	-2.914	-0.218	-1.037	3.631	7.311	8.334	5.171	5.455	253.906
-4.549	-3.987	-3.952	-3.729	-1.161	-1.477	2.365	4.256	4.637	1.105	2.126	2.419	0.804	-0.173	-2.045	-6.194	-4.969	-3.749	-1.706	-4.594	-2.830	-0.028	-0.821	3.612	7.419	8.225	4.914	5.015	257.812
-4.263	-3.978	-3.758	-3.607	-1.159	-1.436	2.039	4.084	4.191	0.433	1.328	1.674	0.669	0.115	-1.696	-5.994	-4.737	-3.397	-1.592	-4.468	-2.676	0.190	-0.583	3.590	7.509	8.058	4.634	4.479	261.719
-4.030	-3.939	-3.537	-3.446	-1.126	-1.372	1.734	3.879	3.754	-0.202	0.510	0.850	0.562	0.436	-1.407	-5.738	-4.438	-3.066	-1.417	-4.299	-2.462	0.423	-0.342	3.582	7.589	7.856	4.365	3.891	265.625
-3.872	-3.884	-3.330	-3.274	-1.069	-1.307	1.478	3.660	3.370	-0.742	-0.267	0.010	0.505	0.768	-1.183	-5.455	-4.103	-2.787	-1.191	-4.108	-2.203	0.662	-0.114	3.602	7.663	7.640	4.138	3.297	269.531
-3.799	-3.830	-3.177	-3.126	-0.996	-1.265	1.294	3.451	3.073	-1.139	-0.950	-0.785	0.517	1.084	-1.009	-5.175	-3.772	-2.581	-0.931	-3.920	-1.920	0.897	0.088	3.658	7.726	7.429	3.977	2.741	273.438
-3.804	-3.801	-3.109	-3.031	-0.921	-1.270	1.201	3.274	2.894	-1.354	-1.490	-1.476	0.614	1.365	-0.864	-4.929	-3.488	-2.459	-0.662	-3.756	-1.633	1.117	0.251	3.753	7.767	7.237	3.896	2.267	277.344
-3.868	-3.815	-3.149	-3.010	-0.856	-1.338	1.213	3.151	2.850	-1.359	-1.847	-2.013	0.803	1.594	-0.729	-4.744	-3.286	-2.425	-0.409	-3.634	-1.365	1.312	0.365	3.885	7.770	7.072	3.904	1.910	281.250
-3.973	-3.886	-3.302	-3.071	-0.812	-1.475	1.339	3.097	2.950	-1.138	-1.993	-2.356	1.087	1.766	-0.597	-4.641	-3.193	-2.476	-0.199	-3.568	-1.135	1.472	0.423	4.044	7.716	6.939	4.001	1.694	285.156
-4.102	-4.018	-3.557	-3.209	-0.793	-1.676	1.583	3.117	3.185	-0.694	-1.915	-2.481	1.462	1.883	-0.485	-4.630	-3.219	-2.605	-0.053	-3.561	-0.957	1.588	0.419	4.215	7.591	6.837	4.177	1.632	289.062
-4.244	-4.204	-3.888	-3.405	-0.800	-1.923	1.937	3.208	3.537	-0.044	-1.615	-2.380	1.917	1.954	-0.424	-4.710	-3.356	-2.799	0.016	-3.611	-0.839	1.654	0.354	4.384	7.384	6.761	4.417	1.720	292.969
-4.397	-4.425	-4.260	-3.632	-0.825	-2.192	2.385	3.359	3.975	0.774	-1.112	-2.064	2.433	1.991	-0.451	-4.870	-3.583	-3.043	0.006	-3.709	-0.779	1.668	0.231	4.535	7.098	6.702	4.699	1.939	296.875
-4.561	-4.655	-4.636	-3.860	-0.861	-2.457	2.900	3.549	4.460	1.706	-0.443	-1.562	2.989	2.009	-0.605	-5.087	-3.865	-3.318	-0.078	-3.840	-0.769	1.632	0.059	4.655	6.743	6.653	4.997	2.257	300.781
-4.742	-4.865	-4.980	-4.060	-0.893	-2.689	3.443	3.749	4.948	2.683	0.343	-0.918	3.560	2.021	-0.907	-5.336	-4.164	-3.605	-0.221	-3.985	-0.795	1.553	-0.150	4.737	6.344	6.607	5.284	2.634	304.688
-4.944	-5.026	-5.263	-4.208	-0.910	-2.866	3.971	3.931	5.396	3.633	1.183	-0.187	4.118	2.037	-1.359	-5.585	-4.441	-3.884	-0.404	-4.124	-0.839	1.442	-0.380	4.778	5.933	6.559	5.533	3.031	308.594
-5.165	-5.116	-5.470	-4.292	-0.903	-2.973	4.440	4.066	5.767	4.485	2.012	0.574	4.632	2.062	-1.938	-5.807	-4.665	-4.138	-0.603	-4.238	-0.883	1.312	-0.610	4.781	5.549	6.510	5.724	3.412	312.500
-5.397	-5.122	-5.591	-4.308	-0.868	-3.004	4.806	4.133	6.032	5.177	2.769	1.309	5.074	2.098	-2.597	-5.976	-4.814	-4.355	-0.792	-4.309	-0.909	1.180	-0.821	4.752	5.227	6.461	5.841	3.750	316.406
-5.623	-5.041	-5.630	-4.261	-0.806	-2.963	5.040	4.119	6.175	5.666	3.400	1.969	5.416	2.143	-3.273	-6.074	-4.876	-4.527	-0.946	-4.324	-0.905	1.061	-0.994	4.700	4.994	6.413	5.874	4.030	320.312
-5.824	-4.882	-5.595	-4.165	-0.724	-2.864	5.123	4.024	6.191	5.927	3.867	2.516	5.635	2.195	-3.896	-6.090	-4.848	-4.653	-1.046	-4.276	-0.863	0.969	-1.115	4.632	4.862	6.365	5.820	4.240	324.219
-5.979	-4.662	-5.500	-4.035	-0.633	-2.726	5.052	3.857	6.090	5.959	4.149	2.925	5.712	2.251	-4.396	-6.022	-4.737	-4.736	-1.077	-4.161	-0.784	0.915	-1.178	4.553	4.828	6.313	5.681	4.380	328.125
-6.077	-4.400	-5.359	-3.885	-0.545	-2.573	4.837	3.636	5.886	5.773	4.241	3.184	5.641	2.310	-4.722	-5.875	-4.553	-4.778	-1.034	-3.982	-0.670	0.908	-1.183	4.464	4.871	6.253	5.467	4.447	332.031
-6.115	-4.116	-5.187	-3.725	-0.469	-2.429	4.495	3.385	5.600	5.393	4.154	3.287	5.423	2.373	-4.841	-5.660	-4.309	-4.776	-0.920	-3.742	-0.528	0.951	-1.135	4.366	4.963	6.179	5.191	4.444	335.938
-6.096	-3.829	-4.999	-3.561	-0.414	-2.315	4.050	3.127	5.249	4.847	3.904	3.239	5.073	2.442	-4.750	-5.389	-4.021	-4.722	-0.742	-3.450	-0.364	1.046	-1.039	4.260	5.073	6.092	4.872	4.370	339.844
-6.026	-3.552	-4.808	-3.395	-0.382	-2.245	3.528	2.881	4.847	4.162	3.508	3.044	4.614	2.519	-4.472	-5.075	-3.706	-4.606	-0.512	-3.110	-0.183	1.189	-0.903	4.146	5.175	5.991	4.529	4.222	343.750
-5.911	-3.289	-4.619	-3.223	-0.370	-2.218	2.951	2.661	4.403	3.367	2.980	2.705	4.078	2.607	-4.050	-4.728	-3.380	-4.413	-0.242	-2.729	0.013	1.378	-0.731	4.025	5.255	5.882	4.179	3.996	347.656
-5.755	-3.036	-4.433	-3.037	-0.367	-2.225	2.342	2.473	3.919	2.485	2.329	2.222	3.498	2.703	-3.542	-4.355	-3.054	-4.138	0.056	-2.311	0.228	1.602	-0.528	3.903	5.310	5.769	3.835	3.686	351.562
-5.556	-2.784	-4.239	-2.824	-0.358	-2.244	1.723	2.318	3.396	1.542	1.561	1.598	2.913	2.807	-3.012	-3.960	-2.737	-3.784	0.370	-1.860	0.464	1.851	-0.299	3.781	5.345	5.653	3.507	3.292	355.469
-5.316	-2.516	-4.023	-2.572	-0.325	-2.248	1.117	2.193	2.841	0.570	0.688	0.838	2.357	2.916	-2.520	-3.547	-2.434	-3.369	0.691	-1.382	0.725	2.111	-0.052	3.666	5.374	5.536	3.199	2.812	359.375
-5.042	-2.222	-3.771	-2.274	-0.251	-2.214	0.553	2.093	2.270	-0.391	-0.267	-0.042	1.864	3.033	-2.117	-3.119	-2.147	-2.922	1.006	-0.886	1.014	2.366	0.200	3.562	5.411	5.411	2.911	2.258	363.281
-4.750	-1.895	-3.474	-1.929	-0.122	-2.124	0.063	2.018	1.714	-1.289	-1.262	-1.009	1.462	3.163	-1.844	-2.684	-1.879	-2.483	1.302	-0.384	1.328	2.600	0.439	3.473	5.464	5.272	2.648	1.645	367.188
-4.467	-1.540	-3.138	-1.547	0.067	-1.973	-0.316	1.971	1.218	-2.067	-2.235	-2.013	1.173	3.315	-1.723	-2.254	-1.636	-2.099	1.564	0.107	1.662	2.796	0.646	3.405	5.531	5.110	2.415	1.002	371.094
-4.229	-1.172	-2.781	-1.150	0.314	-1.767	-0.547	1.961	0.837	-2.661	-3.110	-2.990	1.013	3.497	-1.759	-1.844	-1.427	-1.815	1.776	0.571	2.004	2.940	0.799	3.359	5.593	4.918	2.217	0.364	375.000
-4.072	-0.811	-2.430	-0.764	0.611	-1.524	-0.598	2.000	0.624	-3.015	-3.806	-3.865	0.990	3.716	-1.938	-1.469	-1.258	-1.673	1.922	0.992	2.344	3.024	0.876	3.335	5.618	4.689	2.063	-0.233	378.906
-4.024	-0.479	-2.118	-0.413	0.942	-1.262	-0.450	2.099	0.623	-3.089	-4.250	-4.567	1.104	3.972	-2.230	-1.146	-1.141	-1.701	1.991	1.363	2.668	3.040	0.863	3.329	5.566	4.416	1.954	-0.754	382.812
-4.093	-0.196	-1.876	-0.119	1.286	-1.006	-0.097	2.266	0.855	-2.861	-4.392	-5.038	1.346	4.259	-2.590	-0.884	-1.081	-1.909	1.980	1.676	2.966	2.988	0.749	3.331	5.391	4.094	1.887	-1.171	386.719
-4.261	0.025	-1.726	0.108	1.625	-0.774	0.444	2.501	1.310	-2.340	-4.214	-5.240	1.701	4.567	-2.969	-0.693	-1.085	-2.286	1.888	1.933	3.229	2.872	0.532	3.330	5.059	3.720	1.851	-1.470	390.625
-4.487	0.177	-1.674	0.267	1.940	-0.578	1.140	2.791	1.948	-1.564	-3.738	-5.168	2.148	4.884	-3.315	-0.578	-1.156	-2.797	1.724	2.138	3.453	2.700	0.223	3.315	4.553	3.294	1.832	-1.651	394.531
-4.714	0.260	-1.711	0.368	2.219	-0.421	1.936	3.110	2.697	-0.596	-3.024	-4.847	2.660	5.196	-3.586	-0.535	-1.290	-3.385	1.499	2.294	3.636	2.487	-0.158	3.277	3.880	2.819	1.812	-1.726	398.438
-4.881	0.281	-1.811	0.428	2.454	-0.297	2.765	3.425	3.468	0.478	-2.160	-4.329	3.210	5.493	-3.756	-0.559	-1.476	-3.980	1.231	2.409	3.779	2.248	-0.582	3.212	3.075	2.305	1.774	-1.718	402.344
-4.943	0.255	-1.935	0.464	2.644	-0.195	3.554	3.692	4.166	1.560	-1.251	-3.684	3.764	5.763	-3.817	-0.635	-1.696	-4.509	0.940	2.487	3.884	1.999	-1.014	3.119	2.195	1.768	1.706	-1.654	406.250
-4.876	0.199	-2.042	0.495	2.792	-0.102	4.231	3.876	4.703	2.552	-0.401	-2.991	4.291	5.998	-3.779	-0.746	-1.924	-4.907	0.648	2.536	3.952	1.759	-1.419	3.003	1.311	1.233	1.603	-1.563	410.156
-4.688	0.133	-2.094	0.536	2.904	-0.006	4.734	3.950	5.022	3.366	0.301	-2.327	4.754	6.191	-3.671	-0.870	-2.132	-5.133	0.380	2.561	3.984	1.544	-1.761	2.871	0.500	0.731	1.462	-1.469	414.062
-4.409	0.075	-2.071	0.592	2.983	0.098	5.020	3.907	5.095	3.935	0.795	-1.753	5.121	6.336	-3.525	-0.983	-2.294	-5.167	0.157	2.567	3.981	1.368	-2.014	2.730	-0.175	0.289	1.289	-1.392	417.969
-4.081	0.039	-1.967	0.666	3.036	0.206	5.068	3.759	4.932	4.219	1.056	-1.316	5.361	6.433	-3.375	-1.066	-2.386	-5.021	0.001	2.560	3.944	1.246	-2.161	2.585	-0.668	-0.067	1.087	-1.347	421.875
-3.748	0.032	-1.793	0.755	3.065	0.311	4.885	3.533	4.575	4.205	1.086	-1.039	5.451	6.482	-3.239	-1.102	-2.398	-4.723	-0.075	2.544	3.876	1.186	-2.194	2.435	-0.965	-0.328	0.857	-1.346	425.781
-3.439	0.060	-1.574	0.852	3.074	0.402	4.497	3.266	4.085	3.913	0.914	-0.928	5.378	6.489	-3.117	-1.080	-2.326	-4.311	-0.061	2.529	3.786	1.192	-2.118	2.280	-1.079	-0.499	0.600	-1.399	429.688
-3.169	0.119	-1.335	0.950	3.070	0.471	3.951	2.993	3.527	3.381	0.582	-0.974	5.143	6.463	-2.987	-0.997	-2.178	-3.826	0.041	2.520	3.686	1.263	-1.949	2.115	-1.052	-0.600	0.312	-1.515	433.594
-2.932	0.209	-1.098	1.043	3.058	0.512	3.303	2.741	2.961	2.666	0.134	-1.160	4.765	6.413	-2.815	-0.855	-1.969	-3.302	0.223	2.528	3.593	1.395	-1.708	1.936	-0.943	-0.665	-0.007	-1.702	437.500
-2.715	0.323	-0.873	1.125	3.044	0.530	2.610	2.525	2.425	1.832	-0.394	-1.462	4.276	6.353	-2.562	-0.665	-1.716	-2.761	0.471	2.560	3.527	1.579	-1.420	1.745	-0.814	-0.730	-0.355	-1.962	441.406
-2.503	0.460	-0.663	1.196	3.034	0.534	1.925	2.343	1.934	0.940	-0.974	-1.857	3.719	6.293	-2.203	-0.440	-1.436	-2.224	0.772	2.622	3.505	1.806	-1.106	1.548	-0.717	-0.824	-0.723	-2.290	445.312
-2.287	0.615	-0.459	1.254	3.031	0.536	1.289	2.184	1.487	0.047	-1.592	-2.326	3.146	6.243	-1.735	-0.196	-1.139	-1.706	1.111	2.720	3.542	2.069	-0.785	1.359	-0.686	-0.964	-1.093	-2.675	449.219
-2.074	0.785	-0.253	1.303	3.038	0.550	0.732	2.032	1.070	-0.800	-2.238	-2.851	2.607	6.213	-1.188	0.051	-0.834	-1.225	1.477	2.852	3.644	2.363	-0.469	1.199	-0.726	-1.150	-1.437	-3.098	453.125
-1.880	0.967	-0.040	1.346	3.055	0.584	0.271	1.877	0.667	-1.561	-2.901	-3.411	2.146	6.207	-0.622	0.289	-0.521	-0.803	1.859	3.017	3.806	2.680	-0.164	1.090	-0.824	-1.363	-1.725	-3.533	457.031
-1.733	1.155	0.174	1.390	3.079	0.640	-0.083	1.714	0.274	-2.202	-3.565	-3.988	1.798	6.227	-0.112	0.507	-0.202	-0.460	2.246	3.205	4.016	3.013	0.123	1.053	-0.946	-1.576	-1.926	-3.955	460.938
-1.665	1.342	0.371	1.439	3.107	0.711	-0.325	1.551	-0.100	-2.694	-4.206	-4.556	1.585	6.273	0.266	0.697	0.120	-0.219	2.622	3.405	4.252	3.350	0.386	1.105	-1.054	-1.753	-2.013	-4.336	464.844
-1.696	1.515	0.523	1.491	3.133	0.788	-0.451	1.407	-0.430	-3.009	-4.785	-5.086	1.516	6.342	0.452	0.852	0.436	-0.094	2.966	3.600	4.488	3.674	0.615	1.250	-1.116	-1.865	-1.966	-4.650	468.750
-1.840	1.659	0.597	1.542	3.149	0.854	-0.459	1.306	-0.675	-3.123	-5.259	-5.541	1.587	6.427	0.421	0.965	0.727	-0.093	3.251	3.769	4.698	3.965	0.802	1.481	-1.109	-1.890	-1.778	-4.877	472.656
-2.090	1.754	0.560	1.578	3.151	0.895	-0.348	1.274	-0.790	-3.016	-5.580	-5.885	1.790	6.522	0.181	1.024	0.967	-0.212	3.449	3.890	4.856	4.204	0.934	1.780	-1.029	-1.822	-1.454	-5.001	476.562
-2.426	1.780	0.392	1.584	3.133	0.904	-0.116	1.332	-0.735	-2.677	-5.707	-6.084	2.108	6.617	-0.229	1.019	1.123	-0.441	3.532	3.942	4.944	4.370	1.002	2.121	-0.889	-1.668	-1.010	-5.011	480.469
-2.813	1.724	0.091	1.548	3.095	0.879	0.231	1.492	-0.485	-2.110	-5.613	-6.112	2.521	6.704	-0.746	0.939	1.160	-0.758	3.479	3.909	4.953	4.451	0.993	2.470	-0.714	-1.447	-0.475	-4.905	484.375
-3.209	1.579	-0.328	1.464	3.041	0.829	0.681	1.751	-0.037	-1.333	-5.289	-5.958	3.006	6.773	-1.300	0.776	1.052	-1.137	3.278	3.784	4.883	4.440	0.902	2.793	-0.539	-1.190	0.116	-4.689	488.281
-3.571	1.350	-0.829	1.334	2.979	0.770	1.213	2.092	0.588	-0.387	-4.753	-5.626	3.534	6.818	-1.828	0.532	0.787	-1.549	2.935	3.570	4.741	4.337	0.724	3.059	-0.396	-0.931	0.720	-4.378	492.188
-3.861	1.056	-1.363	1.172	2.919	0.719	1.797	2.487	1.338	0.673	-4.043	-5.136	4.075	6.833	-2.278	0.216	0.377	-1.960	2.471	3.283	4.540	4.149	0.464	3.245	-0.314	-0.702	1.294	-3.997	496.094
-4.054	0.725	-1.874	0.998	2.868	0.688	2.394	2.898	2.147	1.775	-3.217	-4.524	4.593	6.809	-2.618	-0.149	-0.140	-2.339	1.922	2.946	4.296	3.893	0.135	3.333	-0.310	-0.529	1.795	-3.575	500.000
-4.146	0.389	-2.309	0.832	2.826	0.682	2.958	3.282	2.933	2.841	-2.345	-3.835	5.051	6.741	-2.833	-0.534	-0.705	-2.656	1.341	2.586	4.023	3.590	-0.241	3.317	-0.386	-0.428	2.193	-3.144	503.906
-4.146	0.085	-2.627	0.690	2.788	0.692	3.440	3.598	3.617	3.791	-1.499	-3.117	5.413	6.621	-2.922	-0.904	-1.250	-2.883	0.781	2.229	3.735	3.263	-0.630	3.203	-0.529	-0.402	2.463	-2.735	507.812
-4.079	-0.157	-2.804	0.582	2.743	0.705	3.797	3.813	4.130	4.558	-0.740	-2.413	5.649	6.441	-2.894	-1.228	-1.705	-3.003	0.297	1.900	3.439	2.936	-0.996	3.002	-0.710	-0.440	2.599	-2.370	511.719
-3.974	-0.311	-2.837	0.514	2.678	0.702	3.993	3.904	4.426	5.087	-0.120	-1.762	5.735	6.198	-2.763	-1.481	-2.018	-3.011	-0.070	1.612	3.142	2.631	-1.303	2.732	-0.893	-0.521	2.606	-2.062	515.625
-3.858	-0.359	-2.740	0.482	2.581	0.668	4.008	3.861	4.479	5.349	0.330	-1.189	5.660	5.894	-2.545	-1.647	-2.159	-2.914	-0.296	1.374	2.847	2.366	-1.522	2.414	-1.041	-0.619	2.502	-1.817	519.531
-3.748	-0.294	-2.541	0.484	2.447	0.599	3.836	3.687	4.295	5.338	0.594	-0.715	5.427	5.537	-2.259	-1.724	-2.125	-2.729	-0.376	1.188	2.561	2.153	-1.632	2.069	-1.120	-0.708	2.311	-1.635	523.438
-3.644	-0.122	-2.270	0.513	2.278	0.500	3.488	3.398	3.901	5.071	0.673	-0.352	5.048	5.143	-1.924	-1.717	-1.940	-2.480	-0.325	1.049	2.290	1.998	-1.629	1.716	-1.112	-0.771	2.058	-1.514	527.344
-3.532	0.140	-1.960	0.563	2.085	0.387	2.989	3.014	3.340	4.582	0.578	-0.112	4.551	4.733	-1.560	-1.641	-1.642	-2.189	-0.170	0.953	2.043	1.904	-1.517	1.370	-1.009	-0.799	1.767	-1.455	531.250
-3.387	0.467	-1.637	0.630	1.883	0.281	2.372	2.564	2.666	3.916	0.328	-0.002	3.968	4.330	-1.186	-1.514	-1.280	-1.875	0.054	0.894	1.829	1.869	-1.312	1.042	-0.821	-0.793	1.454	-1.460	535.156
-3.181	0.828	-1.318	0.709	1.693	0.205	1.676	2.077	1.929	3.125	-0.058	-0.031	3.337	3.958	-0.815	-1.354	-0.897	-1.549	0.311	0.868	1.659	1.888	-1.038	0.741	-0.567	-0.766	1.130	-1.536	539.062
-2.894	1.195	-1.014	0.800	1.531	0.175	0.942	1.586	1.173	2.260	-0.559	-0.207	2.693	3.635	-0.454	-1.170	-0.531	-1.212	0.575	0.875	1.543	1.959	-0.721	0.472	-0.273	-0.735	0.800	-1.691	542.969
-2.519	1.544	-0.729	0.902	1.414	0.203	0.211	1.121	0.430	1.365	-1.157	-0.536	2.072	3.374	-0.104	-0.970	-0.201	-0.864	0.829	0.916	1.488	2.079	-0.383	0.240	0.037	-0.720	0.467	-1.935	546.875
-2.074	1.861	-0.460	1.020	1.354	0.290	-0.479	0.710	-0.280	0.482	-1.833	-1.015	1.504	3.183	0.238	-0.751	0.083	-0.502	1.067	0.994	1.497	2.243	-0.046	0.048	0.339	-0.738	0.132	-2.269	550.781
-1.590	2.143	-0.207	1.155	1.357	0.431	-1.097	0.373	-0.944	-0.355	-2.566	-1.633	1.015	3.061	0.572	-0.510	0.327	-0.125	1.290	1.108	1.571	2.450	0.272	-0.100	0.617	-0.801	-0.194	-2.691	554.688
-1.117	2.392	0.029	1.307	1.422	0.609	-1.616	0.123	-1.553	-1.115	-3.330	-2.366	0.623	3.007	0.894	-0.243	0.541	0.259	1.505	1.256	1.703	2.691	0.561	-0.203	0.862	-0.909	-0.499	-3.182	558.594
-0.708	2.616	0.242	1.474	1.541	0.808	-2.017	-0.037	-2.094	-1.771	-4.090	-3.174	0.342	3.019	1.193	0.046	0.739	0.635	1.717	1.431	1.881	2.956	0.810	-0.257	1.066	-1.053	-0.764	-3.715	562.500
-0.411	2.822	0.417	1.648	1.701	1.007	-2.287	-0.115	-2.548	-2.295	-4.803	-4.002	0.183	3.094	1.457	0.348	0.926	0.978	1.927	1.619	2.090	3.227	1.013	-0.260	1.226	-1.214	-0.966	-4.248	566.406
-0.262	3.015	0.537	1.815	1.885	1.189	-2.418	-0.123	-2.893	-2.661	-5.417	-4.782	0.150	3.227	1.673	0.643	1.102	1.258	2.128	1.803	2.312	3.486	1.164	-0.210	1.335	-1.372	-1.083	-4.733	570.312
-0.275	3.189	0.584	1.960	2.077	1.344	-2.408	-0.077	-3.103	-2.843	-5.878	-5.445	0.245	3.413	1.828	0.906	1.250	1.443	2.305	1.964	2.530	3.710	1.258	-0.108	1.388	-1.504	-1.098	-5.122	574.219
-0.438	3.335	0.548	2.068	2.261	1.463	-2.255	0.006	-3.158	-2.818	-6.139	-5.926	0.467	3.646	1.912	1.109	1.348	1.510	2.439	2.085	2.730	3.879	1.291	0.042	1.374	-1.594	-1.003	-5.373	578.125
-0.712	3.437	0.427	2.126	2.425	1.544	-1.966	0.111	-3.044	-2.573	-6.165	-6.174	0.811	3.918	1.918	1.226	1.368	1.448	2.510	2.151	2.902	3.974	1.258	0.233	1.285	-1.638	-0.800	-5.462	582.031
-1.037	3.479	0.236	2.125	2.561	1.592	-1.552	0.228	-2.763	-2.108	-5.947	-6.164	1.266	4.217	1.840	1.243	1.285	1.259	2.501	2.155	3.042	3.987	1.155	0.454	1.113	-1.645	-0.505	-5.383	585.938
-1.343	3.454	-0.001	2.065	2.670	1.614	-1.030	0.348	-2.337	-1.441	-5.499	-5.901	1.813	4.536	1.680	1.155	1.092	0.961	2.409	2.098	3.152	3.915	0.982	0.687	0.855	-1.634	-0.145	-5.157	589.844
-1.565	3.364	-0.249	1.957	2.755	1.619	-0.428	0.467	-1.804	-0.608	-4.868	-5.417	2.424	4.867	1.446	0.979	0.798	0.584	2.240	1.993	3.237	3.767	0.744	0.913	0.508	-1.637	0.242	-4.823	593.750
-1.656	3.224	-0.471	1.819	2.828	1.619	0.221	0.578	-1.222	0.335	-4.121	-4.772	3.067	5.207	1.157	0.743	0.435	0.167	2.015	1.863	3.310	3.559	0.453	1.112	0.078	-1.685	0.611	-4.436	597.656
-1.602	3.065	-0.637	1.674	2.899	1.626	0.877	0.672	-0.655	1.318	-3.336	-4.039	3.701	5.553	0.841	0.490	0.046	-0.248	1.762	1.734	3.383	3.316	0.129	1.263	-0.425	-1.809	0.918	-4.054	601.562
-1.415	2.921	-0.723	1.548	2.981	1.646	1.496	0.739	-0.166	2.269	-2.595	-3.296	4.286	5.905	0.534	0.263	-0.319	-0.618	1.513	1.636	3.469	3.063	-0.205	1.348	-0.986	-2.026	1.126	-3.730	605.469
-1.131	2.828	-0.721	1.462	3.079	1.685	2.038	0.766	0.193	3.116	-1.966	-2.611	4.786	6.261	0.271	0.103	-0.619	-0.907	1.296	1.591	3.580	2.823	-0.527	1.356	-1.581	-2.341	1.207	-3.499	609.375
-0.796	2.812	-0.634	1.431	3.195	1.744	2.465	0.744	0.387	3.799	-1.496	-2.036	5.168	6.616	0.085	0.039	-0.822	-1.089	1.135	1.614	3.721	2.619	-0.815	1.280	-2.185	-2.742	1.148	-3.378	613.281
-0.457	2.884	-0.472	1.462	3.322	1.823	2.750	0.667	0.403	4.273	-1.211	-1.602	5.412	6.959	-0.001	0.086	-0.911	-1.155	1.042	1.712	3.891	2.466	-1.051	1.120	-2.768	-3.204	0.950	-3.364	617.188
-0.148	3.045	-0.254	1.555	3.453	1.922	2.878	0.535	0.249	4.512	-1.113	-1.321	5.504	7.271	0.017	0.244	-0.885	-1.109	1.023	1.879	4.083	2.371	-1.222	0.885	-3.299	-3.693	0.629	-3.439	621.094
0.109	3.280	-0.001	1.703	3.575	2.039	2.843	0.356	-0.051	4.511	-1.185	-1.189	5.443	7.530	0.128	0.498	-0.751	-0.972	1.075	2.100	4.282	2.338	-1.319	0.589	-3.750	-4.169	0.209	-3.577	625.000
0.308	3.566	0.269	1.893	3.677	2.173	2.653	0.142	-0.459	4.280	-1.400	-1.195	5.233	7.714	0.308	0.825	-0.525	-0.774	1.191	2.357	4.472	2.366	-1.335	0.253	-4.092	-4.591	-0.276	-3.752	628.906
0.461	3.871	0.543	2.112	3.752	2.321	2.325	-0.089	-0.938	3.842	-1.729	-1.325	4.890	7.805	0.521	1.190	-0.227	-0.542	1.359	2.625	4.635	2.449	-1.267	-0.098	-4.307	-4.925	-0.793	-3.938	632.812
0.586	4.168	0.814	2.340	3.795	2.480	1.883	-0.319	-1.449	3.232	-2.143	-1.564	4.436	7.789	0.733	1.561	0.119	-0.302	1.566	2.884	4.758	2.579	-1.114	-0.437	-4.379	-5.146	-1.308	-4.122	636.719
0.706	4.432	1.080	2.559	3.806	2.640	1.356	-0.533	-1.963	2.491	-2.622	-1.903	3.896	7.665	0.917	1.906	0.488	-0.065	1.798	3.114	4.832	2.746	-0.882	-0.740	-4.307	-5.244	-1.793	-4.295	640.625
0.842	4.647	1.341	2.757	3.790	2.796	0.778	-0.720	-2.461	1.663	-3.151	-2.333	3.303	7.440	1.062	2.201	0.855	0.168	2.045	3.303	4.856	2.940	-0.580	-0.982	-4.100	-5.222	-2.227	-4.459	644.531
1.004	4.808	1.594	2.923	3.755	2.938	0.181	-0.875	-2.932	0.792	-3.716	-2.845	2.692	7.133	1.171	2.433	1.201	0.405	2.296	3.448	4.837	3.149	-0.227	-1.149	-3.780	-5.098	-2.593	-4.618	648.438
1.191	4.922	1.835	3.056	3.713	3.063	-0.402	-0.997	-3.373	-0.080	-4.305	-3.424	2.101	6.768	1.259	2.596	1.509	0.653	2.542	3.547	4.788	3.361	0.154	-1.234	-3.380	-4.903	-2.883	-4.780	652.344
1.389	5.003	2.052	3.162	3.674	3.171	-0.940	-1.087	-3.781	-0.913	-4.903	-4.050	1.570	6.380	1.346	2.696	1.771	0.918	2.776	3.608	4.724	3.567	0.537	-1.236	-2.940	-4.672	-3.090	-4.950	656.250
1.571	5.070	2.232	3.248	3.649	3.264	-1.402	-1.146	-4.154	-1.668	-5.488	-4.694	1.138	6.005	1.451	2.741	1.980	1.193	2.991	3.637	4.663	3.757	0.897	-1.162	-2.504	-4.442	-3.208	-5.128	660.156
1.708	5.141	2.361	3.324	3.645	3.348	-1.762	-1.175	-4.485	-2.311	-6.032	-5.319	0.839	5.677	1.583	2.741	2.135	1.460	3.178	3.639	4.619	3.924	1.210	-1.024	-2.112	-4.240	-3.233	-5.309	664.062
1.769	5.227	2.426	3.396	3.667	3.432	-1.994	-1.170	-4.759	-2.805	-6.504	-5.884	0.700	5.424	1.736	2.702	2.238	1.690	3.331	3.619	4.597	4.062	1.456	-0.834	-1.796	-4.083	-3.160	-5.480	667.969
1.736	5.328	2.418	3.464	3.712	3.518	-2.081	-1.125	-4.958	-3.118	-6.869	-6.349	0.736	5.262	1.889	2.627	2.288	1.854	3.441	3.573	4.600	4.165	1.622	-0.607	-1.574	-3.977	-2.987	-5.626	671.875
1.605	5.435	2.335	3.520	3.776	3.609	-2.011	-1.033	-5.058	-3.221	-7.096	-6.677	0.947	5.196	2.014	2.513	2.287	1.925	3.497	3.497	4.617	4.223	1.698	-0.355	-1.455	-3.915	-2.718	-5.728	675.781
1.394	5.526	2.185	3.551	3.850	3.701	-1.781	-0.887	-5.034	-3.092	-7.155	-6.841	1.319	5.215	2.075	2.355	2.231	1.889	3.491	3.383	4.635	4.228	1.675	-0.094	-1.437	-3.887	-2.366	-5.772	679.688
1.137	5.578	1.981	3.542	3.922	3.785	-1.398	-0.680	-4.866	-2.720	-7.025	-6.824	1.826	5.302	2.037	2.146	2.118	1.742	3.416	3.221	4.635	4.170	1.555	0.162	-1.512	-3.881	-1.950	-5.745	683.594
0.878	5.570	1.746	3.481	3.983	3.851	-0.881	-0.415	-4.543	-2.108	-6.696	-6.620	2.430	5.432	1.874	1.883	1.948	1.490	3.270	3.010	4.602	4.043	1.339	0.397	-1.673	-3.891	-1.501	-5.643	687.500
0.663	5.486	1.501	3.363	4.027	3.890	-0.256	-0.098	-4.064	-1.279	-6.172	-6.238	3.090	5.582	1.574	1.573	1.726	1.149	3.057	2.751	4.525	3.843	1.040	0.594	-1.912	-3.918	-1.051	-5.468	691.406
0.525	5.325	1.271	3.190	4.049	3.896	0.440	0.256	-3.451	-0.274	-5.475	-5.696	3.762	5.733	1.145	1.227	1.463	0.742	2.791	2.457	4.403	3.579	0.676	0.737	-2.224	-3.973	-0.636	-5.231	695.312
0.481	5.099	1.076	2.977	4.051	3.866	1.166	0.624	-2.738	0.843	-4.644	-5.022	4.408	5.871	0.616	0.868	1.180	0.296	2.491	2.148	4.244	3.264	0.272	0.813	-2.603	-4.067	-0.287	-4.947	699.219
0.528	4.831	0.935	2.743	4.039	3.805	1.873	0.980	-1.977	1.995	-3.733	-4.257	4.993	5.987	0.035	0.521	0.901	-0.153	2.181	1.849	4.068	2.922	-0.142	0.813	-3.043	-4.217	-0.032	-4.635	703.125
0.649	4.550	0.860	2.512	4.019	3.720	2.515	1.294	-1.231	3.097	-2.806	-3.446	5.492	6.078	-0.530	0.213	0.653	-0.567	1.886	1.589	3.898	2.580	-0.535	0.732	-3.534	-4.432	0.107	-4.317	707.031
0.821	4.288	0.862	2.310	4.000	3.626	3.050	1.541	-0.562	4.062	-1.933	-2.640	5.884	6.140	-1.007	-0.032	0.459	-0.905	1.631	1.393	3.762	2.266	-0.880	0.572	-4.060	-4.714	0.117	-4.018	710.938
1.021	4.072	0.945	2.156	3.990	3.535	3.443	1.699	-0.028	4.814	-1.182	-1.891	6.155	6.172	-1.331	-0.192	0.340	-1.136	1.438	1.282	3.682	2.006	-1.155	0.342	-4.601	-5.058	-0.008	-3.758	714.844
1.229	3.927	1.103	2.063	3.996	3.462	3.670	1.757	0.324	5.296	-0.607	-1.249	6.296	6.169	-1.452	-0.255	0.306	-1.240	1.324	1.271	3.676	1.821	-1.346	0.053	-5.128	-5.447	-0.265	-3.556	718.750
1.434	3.865	1.324	2.037	4.019	3.416	3.722	1.715	0.470	5.477	-0.247	-0.750	6.303	6.125	-1.354	-0.214	0.365	-1.218	1.305	1.362	3.749	1.725	-1.443	-0.274	-5.609	-5.858	-0.636	-3.422	722.656
1.624	3.892	1.582	2.074	4.059	3.402	3.603	1.580	0.405	5.359	-0.116	-0.419	6.176	6.035	-1.058	-0.072	0.514	-1.089	1.389	1.549	3.898	1.723	-1.448	-0.616	-6.008	-6.261	-1.096	-3.357	726.562
1.794	4.001	1.850	2.162	4.110	3.416	3.330	1.367	0.144	4.970	-0.206	-0.261	5.925	5.893	-0.618	0.159	0.742	-0.889	1.575	1.816	4.103	1.810	-1.366	-0.945	-6.294	-6.622	-1.603	-3.353	730.469
1.939	4.178	2.097	2.286	4.165	3.451	2.933	1.096	-0.277	4.368	-0.482	-0.262	5.568	5.700	-0.111	0.455	1.029	-0.658	1.854	2.135	4.340	1.974	-1.210	-1.233	-6.443	-6.909	-2.110	-3.392	734.375
2.052	4.402	2.301	2.429	4.219	3.496	2.452	0.785	-0.810	3.626	-0.894	-0.392	5.134	5.459	0.377	0.785	1.347	-0.431	2.202	2.471	4.578	2.191	-0.999	-1.456	-6.446	-7.096	-2.567	-3.452	738.281
2.126	4.645	2.445	2.573	4.266	3.537	1.933	0.455	-1.400	2.829	-1.383	-0.614	4.664	5.185	0.767	1.111	1.662	-0.236	2.587	2.788	4.784	2.434	-0.757	-1.595	-6.310	-7.168	-2.927	-3.511	742.188
2.154	4.878	2.525	2.704	4.301	3.561	1.425	0.129	-1.988	2.060	-1.882	-0.882	4.204	4.898	1.003	1.395	1.941	-0.082	2.970	3.048	4.935	2.672	-0.509	-1.640	-6.058	-7.121	-3.152	-3.550	746.094
2.129	5.071	2.542	2.808	4.321	3.556	0.978	-0.173	-2.523	1.394	-2.333	-1.153	3.807	4.623	1.053	1.602	2.153	0.031	3.310	3.222	5.014	2.876	-0.280	-1.590	-5.725	-6.967	-3.222	-3.558	750.000
2.051	5.198	2.504	2.876	4.323	3.509	0.632	-0.428	-2.958	0.889	-2.687	-1.390	3.520	4.389	0.915	1.703	2.276	0.110	3.573	3.292	5.019	3.023	-0.090	-1.452	-5.353	-6.727	-3.129	-3.528	753.906
1.925	5.239	2.418	2.899	4.308	3.414	0.419	-0.618	-3.260	0.584	-2.910	-1.564	3.378	4.223	0.609	1.684	2.300	0.164	3.735	3.253	4.956	3.103	0.051	-1.242	-4.983	-6.430	-2.883	-3.460	757.812
1.759	5.185	2.293	2.874	4.273	3.267	0.355	-0.732	-3.414	0.495	-2.990	-1.658	3.401	4.143	0.176	1.544	2.229	0.198	3.789	3.118	4.845	3.114	0.136	-0.978	-4.651	-6.108	-2.512	-3.360	761.719
1.568	5.045	2.137	2.803	4.218	3.073	0.439	-0.765	-3.421	0.612	-2.933	-1.665	3.587	4.154	-0.332	1.298	2.079	0.209	3.742	2.908	4.709	3.067	0.168	-0.682	-4.381	-5.794	-2.050	-3.235	765.625
1.363	4.843	1.956	2.691	4.140	2.845	0.654	-0.724	-3.298	0.906	-2.760	-1.590	3.913	4.248	-0.856	0.976	1.877	0.191	3.616	2.660	4.573	2.978	0.153	-0.375	-4.186	-5.513	-1.542	-3.095	769.531
1.153	4.621	1.760	2.545	4.036	2.606	0.969	-0.623	-3.077	1.334	-2.508	-1.446	4.339	4.402	-1.338	0.619	1.660	0.134	3.440	2.410	4.455	2.870	0.102	-0.076	-4.066	-5.287	-1.032	-2.952	773.438
0.939	4.428	1.556	2.376	3.902	2.379	1.347	-0.481	-2.794	1.840	-2.215	-1.254	4.816	4.584	-1.734	0.273	1.465	0.030	3.248	2.196	4.372	2.763	0.025	0.200	-4.008	-5.125	-0.559	-2.816	777.344
0.719	4.308	1.354	2.195	3.733	2.185	1.751	-0.318	-2.486	2.374	-1.921	-1.036	5.296	4.761	-2.011	-0.022	1.325	-0.121	3.065	2.044	4.326	2.671	-0.067	0.443	-3.995	-5.032	-0.152	-2.698	781.250
0.485	4.293	1.160	2.008	3.525	2.038	2.148	-0.154	-2.181	2.894	-1.651	-0.813	5.741	4.904	-2.161	-0.240	1.259	-0.314	2.912	1.968	4.318	2.604	-0.166	0.650	-4.007	-4.999	0.176	-2.604	785.156
0.232	4.390	0.978	1.820	3.280	1.939	2.520	-0.002	-1.898	3.375	-1.423	-0.599	6.133	5.000	-2.196	-0.373	1.271	-0.537	2.797	1.968	4.339	2.564	-0.266	0.826	-4.025	-5.013	0.430	-2.535	789.062
-0.039	4.582	0.805	1.633	3.004	1.880	2.860	0.135	-1.644	3.812	-1.235	-0.402	6.470	5.048	-2.148	-0.434	1.347	-0.777	2.716	2.026	4.379	2.547	-0.361	0.980	-4.037	-5.057	0.629	-2.487	792.969
-0.323	4.830	0.638	1.448	2.711	1.842	3.176	0.256	-1.414	4.214	-1.078	-0.219	6.769	5.063	-2.062	-0.453	1.460	-1.026	2.659	2.117	4.425	2.544	-0.451	1.126	-4.035	-5.108	0.802	-2.449	796.875
