FP1	F3	F7	FC3	C3	C5	P3	P7	PO7	PO3	O1	Oz	Pz	CPz	FP2	Fz	F4	F8	FC4	FCz	Cz	C4	C6	P4	P8	PO8	PO4	O2	time
-1.004	1.506	-0.063	0.762	0.622	-0.567	0.154	-0.863	-1.051	0.242	-1.187	-0.211	1.394	0.689	-0.378	0.298	0.428	0.227	0.587	0.920	1.115	0.571	-0.066	0.621	-0.485	0.405	0.859	0.333	-199.219
-0.763	1.265	-0.221	0.403	0.244	-0.582	0.168	-1.030	-1.120	0.268	-1.064	0.009	1.456	0.376	-0.366	-0.000	0.114	0.149	0.337	0.646	0.926	0.551	0.028	0.826	-0.168	0.572	1.102	0.575	-195.312
-0.549	1.033	-0.373	0.073	-0.091	-0.586	0.210	-1.148	-1.137	0.324	-0.918	0.229	1.521	0.074	-0.354	-0.286	-0.183	0.039	0.092	0.377	0.737	0.524	0.110	1.010	0.112	0.728	1.335	0.800	-191.406
-0.390	0.817	-0.510	-0.206	-0.346	-0.566	0.304	-1.174	-1.058	0.429	-0.732	0.447	1.586	-0.208	-0.336	-0.547	-0.450	-0.119	-0.148	0.120	0.549	0.479	0.169	1.152	0.332	0.859	1.542	0.988	-187.500
-0.299	0.623	-0.617	-0.419	-0.500	-0.516	0.452	-1.084	-0.862	0.587	-0.500	0.656	1.642	-0.462	-0.303	-0.768	-0.676	-0.326	-0.377	-0.117	0.365	0.412	0.196	1.234	0.475	0.951	1.704	1.121	-183.594
-0.274	0.462	-0.679	-0.555	-0.548	-0.432	0.641	-0.875	-0.557	0.779	-0.235	0.843	1.674	-0.684	-0.247	-0.935	-0.845	-0.562	-0.584	-0.323	0.189	0.325	0.189	1.242	0.537	0.993	1.799	1.184	-179.688
-0.299	0.344	-0.678	-0.613	-0.501	-0.315	0.845	-0.569	-0.174	0.976	0.044	0.994	1.664	-0.876	-0.165	-1.037	-0.947	-0.796	-0.757	-0.489	0.025	0.222	0.149	1.168	0.521	0.977	1.805	1.168	-175.781
-0.355	0.278	-0.606	-0.594	-0.382	-0.170	1.029	-0.196	0.245	1.141	0.308	1.095	1.594	-1.040	-0.064	-1.066	-0.979	-0.991	-0.884	-0.605	-0.119	0.111	0.082	1.014	0.443	0.900	1.709	1.070	-171.875
-0.426	0.268	-0.464	-0.511	-0.221	-0.009	1.162	0.204	0.656	1.246	0.534	1.135	1.455	-1.181	0.042	-1.023	-0.948	-1.120	-0.960	-0.667	-0.240	-0.001	-0.007	0.790	0.325	0.764	1.504	0.895	-167.969
-0.500	0.312	-0.269	-0.381	-0.048	0.158	1.224	0.598	1.024	1.276	0.709	1.115	1.247	-1.302	0.135	-0.916	-0.875	-1.167	-0.987	-0.674	-0.333	-0.110	-0.112	0.514	0.197	0.579	1.203	0.657	-164.062
-0.571	0.396	-0.049	-0.225	0.107	0.316	1.210	0.957	1.329	1.235	0.832	1.042	0.982	-1.404	0.194	-0.764	-0.784	-1.136	-0.975	-0.635	-0.399	-0.213	-0.229	0.213	0.083	0.363	0.834	0.376	-160.156
-0.636	0.495	0.160	-0.071	0.225	0.452	1.131	1.261	1.563	1.142	0.909	0.935	0.685	-1.487	0.206	-0.593	-0.700	-1.040	-0.935	-0.564	-0.439	-0.311	-0.353	-0.086	0.007	0.139	0.435	0.082	-156.250
-0.695	0.580	0.319	0.056	0.291	0.557	1.006	1.496	1.727	1.027	0.954	0.813	0.388	-1.544	0.165	-0.427	-0.642	-0.901	-0.880	-0.478	-0.458	-0.406	-0.479	-0.355	-0.021	-0.068	0.052	-0.196	-152.344
-0.741	0.622	0.399	0.136	0.299	0.619	0.857	1.653	1.824	0.915	0.980	0.697	0.125	-1.569	0.076	-0.289	-0.614	-0.739	-0.817	-0.396	-0.463	-0.499	-0.600	-0.571	-0.001	-0.231	-0.271	-0.428	-148.438
-0.769	0.604	0.386	0.161	0.253	0.634	0.706	1.726	1.853	0.829	0.993	0.603	-0.080	-1.553	-0.049	-0.194	-0.608	-0.567	-0.743	-0.331	-0.460	-0.587	-0.707	-0.719	0.059	-0.329	-0.501	-0.591	-144.531
-0.770	0.521	0.281	0.130	0.160	0.597	0.566	1.711	1.810	0.772	0.993	0.536	-0.210	-1.489	-0.191	-0.145	-0.606	-0.394	-0.652	-0.293	-0.452	-0.666	-0.786	-0.794	0.142	-0.351	-0.622	-0.671	-140.625
-0.735	0.386	0.105	0.055	0.036	0.512	0.440	1.606	1.686	0.740	0.972	0.494	-0.266	-1.371	-0.327	-0.136	-0.587	-0.219	-0.533	-0.280	-0.442	-0.726	-0.825	-0.800	0.233	-0.295	-0.635	-0.666	-136.719
-0.663	0.221	-0.108	-0.046	-0.101	0.387	0.326	1.416	1.476	0.712	0.919	0.466	-0.261	-1.199	-0.433	-0.152	-0.532	-0.044	-0.381	-0.286	-0.427	-0.759	-0.813	-0.745	0.317	-0.171	-0.555	-0.589	-132.812
-0.554	0.055	-0.317	-0.150	-0.230	0.234	0.216	1.150	1.183	0.667	0.824	0.437	-0.216	-0.974	-0.490	-0.174	-0.435	0.129	-0.195	-0.300	-0.404	-0.757	-0.745	-0.643	0.383	-0.001	-0.410	-0.460	-128.906
-0.417	-0.084	-0.482	-0.234	-0.332	0.071	0.104	0.828	0.824	0.584	0.682	0.393	-0.157	-0.703	-0.485	-0.183	-0.297	0.291	0.016	-0.310	-0.372	-0.719	-0.623	-0.510	0.425	0.187	-0.231	-0.307	-125.000
-0.267	-0.175	-0.568	-0.281	-0.392	-0.081	-0.011	0.473	0.427	0.451	0.497	0.323	-0.104	-0.395	-0.420	-0.162	-0.130	0.426	0.236	-0.308	-0.326	-0.646	-0.457	-0.363	0.437	0.361	-0.047	-0.163	-121.094
-0.122	-0.206	-0.559	-0.279	-0.402	-0.203	-0.127	0.115	0.031	0.267	0.278	0.223	-0.069	-0.064	-0.307	-0.102	0.051	0.517	0.446	-0.288	-0.266	-0.545	-0.264	-0.215	0.418	0.491	0.117	-0.052	-117.188
-0.001	-0.177	-0.451	-0.229	-0.361	-0.281	-0.234	-0.214	-0.327	0.044	0.039	0.095	-0.053	0.273	-0.168	-0.001	0.229	0.552	0.628	-0.249	-0.195	-0.429	-0.068	-0.078	0.365	0.554	0.246	0.006	-113.281
0.080	-0.095	-0.260	-0.137	-0.276	-0.306	-0.320	-0.486	-0.616	-0.197	-0.204	-0.051	-0.050	0.599	-0.028	0.138	0.388	0.528	0.767	-0.194	-0.118	-0.309	0.108	0.036	0.281	0.537	0.333	0.002	-109.375
0.114	0.025	-0.012	-0.015	-0.160	-0.279	-0.377	-0.680	-0.821	-0.432	-0.435	-0.204	-0.050	0.898	0.094	0.303	0.519	0.455	0.855	-0.127	-0.040	-0.200	0.242	0.122	0.168	0.440	0.375	-0.059	-105.469
0.103	0.165	0.257	0.121	-0.029	-0.207	-0.399	-0.785	-0.944	-0.639	-0.645	-0.354	-0.044	1.154	0.189	0.480	0.615	0.358	0.893	-0.055	0.032	-0.112	0.319	0.175	0.032	0.271	0.374	-0.167	-101.562
0.061	0.302	0.512	0.255	0.100	-0.104	-0.391	-0.803	-0.999	-0.802	-0.826	-0.492	-0.030	1.352	0.262	0.652	0.677	0.267	0.888	0.018	0.093	-0.049	0.337	0.195	-0.115	0.050	0.332	-0.306	-97.656
0.008	0.414	0.721	0.374	0.213	0.012	-0.363	-0.748	-1.011	-0.915	-0.972	-0.615	-0.013	1.481	0.326	0.803	0.710	0.213	0.852	0.089	0.142	-0.009	0.307	0.187	-0.261	-0.204	0.253	-0.459	-93.750
-0.033	0.481	0.864	0.467	0.296	0.124	-0.331	-0.643	-1.005	-0.981	-1.080	-0.721	-0.002	1.533	0.393	0.919	0.723	0.215	0.804	0.154	0.176	0.018	0.252	0.159	-0.393	-0.466	0.142	-0.610	-89.844
-0.041	0.488	0.930	0.525	0.343	0.218	-0.313	-0.511	-1.003	-1.012	-1.149	-0.813	-0.010	1.509	0.469	0.991	0.727	0.280	0.761	0.211	0.198	0.044	0.206	0.122	-0.496	-0.716	0.003	-0.747	-85.938
-0.002	0.427	0.922	0.540	0.351	0.283	-0.323	-0.378	-1.014	-1.018	-1.177	-0.894	-0.047	1.411	0.549	1.012	0.730	0.398	0.735	0.253	0.208	0.082	0.200	0.088	-0.561	-0.934	-0.155	-0.859	-82.031
0.089	0.299	0.853	0.509	0.321	0.314	-0.367	-0.261	-1.038	-1.012	-1.162	-0.962	-0.117	1.252	0.620	0.980	0.738	0.547	0.730	0.274	0.204	0.141	0.255	0.066	-0.580	-1.100	-0.320	-0.940	-78.125
0.227	0.113	0.747	0.433	0.260	0.310	-0.445	-0.170	-1.061	-0.999	-1.105	-1.016	-0.220	1.047	0.665	0.899	0.744	0.699	0.741	0.266	0.185	0.221	0.373	0.059	-0.551	-1.202	-0.482	-0.983	-74.219
0.394	-0.110	0.628	0.320	0.177	0.272	-0.547	-0.107	-1.066	-0.981	-1.006	-1.047	-0.348	0.816	0.666	0.775	0.739	0.828	0.749	0.224	0.147	0.311	0.536	0.068	-0.477	-1.229	-0.628	-0.982	-70.312
0.564	-0.346	0.521	0.186	0.087	0.203	-0.656	-0.065	-1.031	-0.955	-0.868	-1.048	-0.489	0.582	0.616	0.621	0.708	0.912	0.735	0.147	0.091	0.396	0.709	0.082	-0.365	-1.178	-0.751	-0.932	-66.406
0.707	-0.569	0.438	0.051	0.002	0.112	-0.754	-0.037	-0.941	-0.914	-0.696	-1.013	-0.634	0.366	0.510	0.450	0.643	0.941	0.682	0.043	0.018	0.457	0.853	0.093	-0.227	-1.055	-0.843	-0.832	-62.500
0.796	-0.754	0.383	-0.061	-0.066	0.007	-0.822	-0.013	-0.791	-0.852	-0.495	-0.937	-0.772	0.186	0.352	0.279	0.543	0.911	0.581	-0.073	-0.063	0.479	0.929	0.087	-0.076	-0.874	-0.899	-0.684	-58.594
0.816	-0.885	0.347	-0.132	-0.107	-0.099	-0.849	0.013	-0.588	-0.766	-0.275	-0.824	-0.896	0.058	0.153	0.124	0.415	0.824	0.434	-0.180	-0.141	0.453	0.914	0.056	0.072	-0.652	-0.922	-0.496	-54.688
0.766	-0.954	0.314	-0.150	-0.118	-0.196	-0.829	0.042	-0.349	-0.655	-0.046	-0.679	-1.000	-0.012	-0.072	-0.001	0.277	0.688	0.256	-0.257	-0.203	0.383	0.802	-0.002	0.204	-0.413	-0.912	-0.279	-50.781
0.660	-0.965	0.266	-0.115	-0.103	-0.273	-0.764	0.070	-0.098	-0.526	0.178	-0.516	-1.079	-0.022	-0.297	-0.089	0.147	0.514	0.066	-0.284	-0.238	0.280	0.609	-0.084	0.306	-0.180	-0.876	-0.049	-46.875
0.525	-0.932	0.189	-0.040	-0.066	-0.324	-0.662	0.089	0.140	-0.387	0.384	-0.348	-1.131	0.023	-0.495	-0.137	0.045	0.314	-0.112	-0.252	-0.236	0.163	0.363	-0.181	0.367	0.029	-0.823	0.177	-42.969
0.392	-0.874	0.080	0.055	-0.017	-0.345	-0.536	0.088	0.340	-0.250	0.557	-0.192	-1.152	0.111	-0.639	-0.147	-0.020	0.103	-0.261	-0.161	-0.197	0.054	0.100	-0.282	0.379	0.194	-0.761	0.378	-39.062
0.290	-0.809	-0.058	0.144	0.037	-0.336	-0.402	0.059	0.488	-0.126	0.685	-0.059	-1.140	0.226	-0.704	-0.128	-0.044	-0.103	-0.370	-0.019	-0.124	-0.031	-0.142	-0.376	0.336	0.304	-0.700	0.539	-35.156
0.240	-0.752	-0.215	0.206	0.090	-0.297	-0.272	0.002	0.577	-0.026	0.761	0.040	-1.096	0.351	-0.678	-0.090	-0.033	-0.288	-0.436	0.156	-0.028	-0.076	-0.334	-0.455	0.238	0.351	-0.650	0.644	-31.250
0.247	-0.712	-0.375	0.226	0.140	-0.230	-0.159	-0.077	0.606	0.040	0.780	0.099	-1.024	0.465	-0.564	-0.041	0.000	-0.437	-0.464	0.347	0.078	-0.079	-0.457	-0.515	0.089	0.334	-0.617	0.686	-27.344
0.304	-0.687	-0.522	0.200	0.187	-0.138	-0.072	-0.164	0.582	0.063	0.745	0.117	-0.934	0.550	-0.376	0.011	0.041	-0.532	-0.462	0.534	0.178	-0.041	-0.504	-0.557	-0.100	0.257	-0.608	0.661	-23.438
0.391	-0.668	-0.640	0.134	0.233	-0.024	-0.021	-0.245	0.513	0.035	0.660	0.094	-0.838	0.590	-0.142	0.065	0.074	-0.563	-0.436	0.702	0.260	0.031	-0.479	-0.584	-0.312	0.134	-0.623	0.575	-19.531
0.485	-0.646	-0.716	0.043	0.279	0.105	-0.012	-0.303	0.408	-0.050	0.533	0.030	-0.753	0.572	0.106	0.120	0.088	-0.520	-0.393	0.837	0.314	0.126	-0.391	-0.599	-0.525	-0.016	-0.662	0.438	-15.625
0.572	-0.611	-0.737	-0.054	0.324	0.239	-0.050	-0.328	0.274	-0.198	0.374	-0.069	-0.693	0.493	0.331	0.177	0.077	-0.407	-0.332	0.931	0.336	0.233	-0.253	-0.603	-0.716	-0.167	-0.718	0.265	-11.719
0.644	-0.560	-0.695	-0.139	0.367	0.368	-0.135	-0.315	0.119	-0.406	0.192	-0.199	-0.667	0.356	0.502	0.234	0.039	-0.237	-0.258	0.979	0.324	0.344	-0.079	-0.596	-0.863	-0.294	-0.782	0.077	-7.812
0.706	-0.499	-0.592	-0.199	0.400	0.477	-0.263	-0.263	-0.046	-0.667	0.002	-0.351	-0.678	0.173	0.592	0.286	-0.026	-0.037	-0.173	0.975	0.284	0.450	0.115	-0.574	-0.943	-0.373	-0.838	-0.108	-3.906
0.768	-0.443	-0.438	-0.229	0.417	0.555	-0.420	-0.176	-0.206	-0.964	-0.184	-0.510	-0.723	-0.034	0.584	0.327	-0.117	0.161	-0.087	0.918	0.219	0.548	0.315	-0.531	-0.942	-0.383	-0.872	-0.268	0.000
0.835	-0.410	-0.254	-0.234	0.407	0.591	-0.588	-0.056	-0.342	-1.274	-0.350	-0.662	-0.791	-0.243	0.478	0.343	-0.233	0.321	-0.013	0.808	0.135	0.633	0.504	-0.460	-0.850	-0.309	-0.869	-0.385	3.906
0.903	-0.419	-0.076	-0.230	0.364	0.577	-0.748	0.091	-0.437	-1.572	-0.480	-0.787	-0.865	-0.429	0.288	0.326	-0.370	0.413	0.033	0.645	0.039	0.705	0.668	-0.358	-0.664	-0.144	-0.814	-0.443	7.812
0.956	-0.487	0.057	-0.235	0.284	0.510	-0.879	0.258	-0.477	-1.830	-0.560	-0.867	-0.931	-0.571	0.040	0.268	-0.524	0.420	0.036	0.436	-0.065	0.763	0.792	-0.223	-0.394	0.110	-0.700	-0.429	11.719
0.970	-0.624	0.106	-0.273	0.167	0.393	-0.965	0.436	-0.454	-2.026	-0.581	-0.888	-0.972	-0.658	-0.230	0.166	-0.687	0.344	-0.011	0.189	-0.174	0.808	0.871	-0.060	-0.056	0.446	-0.528	-0.338	15.625
0.921	-0.829	0.043	-0.362	0.017	0.233	-0.999	0.614	-0.371	-2.145	-0.540	-0.845	-0.978	-0.687	-0.486	0.025	-0.847	0.203	-0.107	-0.081	-0.285	0.844	0.900	0.119	0.322	0.843	-0.307	-0.172	19.531
0.797	-1.093	-0.139	-0.514	-0.154	0.045	-0.981	0.779	-0.240	-2.182	-0.439	-0.741	-0.944	-0.668	-0.695	-0.139	-0.990	0.025	-0.242	-0.359	-0.395	0.870	0.887	0.297	0.705	1.273	-0.055	0.057	23.438
0.602	-1.394	-0.421	-0.725	-0.334	-0.156	-0.921	0.921	-0.076	-2.143	-0.288	-0.589	-0.872	-0.622	-0.834	-0.305	-1.098	-0.160	-0.397	-0.624	-0.502	0.889	0.839	0.453	1.055	1.700	0.200	0.325	27.344
0.358	-1.704	-0.763	-0.980	-0.504	-0.352	-0.832	1.032	0.101	-2.040	-0.102	-0.413	-0.769	-0.573	-0.896	-0.448	-1.158	-0.323	-0.550	-0.856	-0.600	0.901	0.769	0.567	1.337	2.085	0.429	0.605	31.250
0.100	-1.988	-1.112	-1.252	-0.650	-0.526	-0.732	1.109	0.277	-1.892	0.102	-0.238	-0.649	-0.549	-0.887	-0.542	-1.161	-0.444	-0.680	-1.040	-0.686	0.906	0.690	0.622	1.520	2.392	0.605	0.865	35.156
-0.131	-2.215	-1.411	-1.507	-0.756	-0.667	-0.636	1.154	0.439	-1.719	0.306	-0.090	-0.528	-0.572	-0.829	-0.568	-1.111	-0.512	-0.774	-1.164	-0.753	0.902	0.610	0.609	1.591	2.598	0.705	1.080	39.062
-0.297	-2.361	-1.617	-1.713	-0.817	-0.771	-0.556	1.172	0.584	-1.539	0.495	0.012	-0.426	-0.655	-0.757	-0.520	-1.021	-0.527	-0.823	-1.225	-0.800	0.887	0.534	0.530	1.549	2.697	0.719	1.233	42.969
-0.372	-2.420	-1.708	-1.846	-0.834	-0.841	-0.500	1.173	0.715	-1.366	0.660	0.060	-0.359	-0.801	-0.705	-0.406	-0.916	-0.493	-0.833	-1.230	-0.826	0.860	0.461	0.393	1.412	2.701	0.651	1.321	46.875
-0.344	-2.403	-1.689	-1.898	-0.818	-0.889	-0.467	1.165	0.835	-1.207	0.800	0.058	-0.340	-1.001	-0.701	-0.245	-0.825	-0.418	-0.813	-1.191	-0.832	0.820	0.390	0.218	1.213	2.635	0.516	1.356	50.781
-0.221	-2.338	-1.588	-1.880	-0.787	-0.928	-0.452	1.156	0.951	-1.067	0.915	0.022	-0.377	-1.238	-0.755	-0.068	-0.777	-0.315	-0.776	-1.127	-0.824	0.768	0.319	0.027	0.993	2.536	0.341	1.358	54.688
-0.029	-2.265	-1.448	-1.814	-0.762	-0.975	-0.447	1.144	1.065	-0.941	1.013	-0.023	-0.468	-1.488	-0.851	0.092	-0.793	-0.197	-0.737	-1.057	-0.806	0.706	0.244	-0.154	0.799	2.446	0.161	1.356	58.594
0.187	-2.223	-1.321	-1.733	-0.761	-1.044	-0.438	1.127	1.174	-0.825	1.104	-0.049	-0.602	-1.727	-0.958	0.203	-0.885	-0.079	-0.704	-0.999	-0.786	0.640	0.168	-0.301	0.670	2.400	0.011	1.383	62.500
0.369	-2.245	-1.256	-1.670	-0.793	-1.145	-0.413	1.091	1.273	-0.707	1.200	-0.029	-0.759	-1.929	-1.033	0.243	-1.051	0.024	-0.683	-0.964	-0.766	0.574	0.092	-0.390	0.636	2.431	-0.075	1.468	66.406
0.455	-2.348	-1.286	-1.651	-0.860	-1.282	-0.359	1.028	1.359	-0.578	1.312	0.061	-0.908	-2.074	-1.044	0.201	-1.274	0.099	-0.676	-0.960	-0.749	0.512	0.019	-0.404	0.710	2.557	-0.066	1.635	70.312
0.394	-2.531	-1.429	-1.691	-0.953	-1.453	-0.263	0.929	1.428	-0.427	1.454	0.234	-1.018	-2.148	-0.981	0.076	-1.534	0.129	-0.684	-0.989	-0.737	0.459	-0.049	-0.329	0.890	2.789	0.055	1.899	74.219
0.157	-2.774	-1.683	-1.792	-1.061	-1.650	-0.120	0.797	1.486	-0.246	1.633	0.489	-1.055	-2.145	-0.860	-0.119	-1.803	0.103	-0.709	-1.051	-0.729	0.416	-0.109	-0.159	1.162	3.125	0.297	2.261	78.125
-0.256	-3.050	-2.026	-1.947	-1.170	-1.860	0.073	0.648	1.544	-0.034	1.854	0.816	-0.996	-2.070	-0.730	-0.369	-2.058	0.009	-0.757	-1.145	-0.729	0.379	-0.163	0.105	1.504	3.554	0.657	2.709	82.031
-0.816	-3.329	-2.423	-2.145	-1.270	-2.070	0.311	0.509	1.622	0.207	2.116	1.192	-0.833	-1.941	-0.653	-0.654	-2.283	-0.160	-0.835	-1.269	-0.739	0.346	-0.214	0.451	1.897	4.062	1.119	3.224	85.938
-1.467	-3.587	-2.829	-2.367	-1.359	-2.265	0.582	0.412	1.739	0.468	2.413	1.591	-0.574	-1.784	-0.694	-0.959	-2.473	-0.406	-0.954	-1.425	-0.766	0.309	-0.265	0.859	2.325	4.629	1.657	3.773	89.844
-2.138	-3.815	-3.204	-2.600	-1.440	-2.434	0.868	0.391	1.910	0.732	2.732	1.983	-0.246	-1.633	-0.902	-1.275	-2.634	-0.721	-1.120	-1.611	-0.819	0.263	-0.320	1.302	2.780	5.238	2.237	4.327	93.750
-2.761	-4.011	-3.512	-2.829	-1.518	-2.571	1.146	0.472	2.146	0.983	3.060	2.342	0.112	-1.523	-1.295	-1.598	-2.782	-1.094	-1.338	-1.828	-0.906	0.201	-0.377	1.745	3.257	5.872	2.820	4.854	97.656
-3.280	-4.188	-3.738	-3.046	-1.604	-2.675	1.396	0.668	2.447	1.205	3.383	2.654	0.451	-1.485	-1.858	-1.929	-2.938	-1.502	-1.606	-2.076	-1.036	0.120	-0.433	2.157	3.755	6.517	3.371	5.333	101.562
-3.661	-4.362	-3.883	-3.251	-1.704	-2.749	1.599	0.976	2.808	1.387	3.692	2.914	0.726	-1.539	-2.544	-2.273	-3.123	-1.923	-1.918	-2.354	-1.215	0.017	-0.487	2.508	4.267	7.158	3.857	5.753	105.469
-3.897	-4.553	-3.964	-3.444	-1.822	-2.804	1.744	1.376	3.217	1.526	3.982	3.129	0.904	-1.694	-3.279	-2.635	-3.351	-2.328	-2.262	-2.659	-1.445	-0.110	-0.535	2.777	4.781	7.783	4.253	6.110	109.375
-4.008	-4.776	-4.009	-3.634	-1.959	-2.852	1.830	1.838	3.659	1.627	4.257	3.315	0.967	-1.943	-3.982	-3.015	-3.631	-2.690	-2.624	-2.990	-1.723	-0.261	-0.578	2.953	5.277	8.378	4.543	6.413	113.281
-4.029	-5.039	-4.046	-3.826	-2.110	-2.904	1.863	2.325	4.117	1.702	4.523	3.492	0.916	-2.266	-4.574	-3.412	-3.958	-2.988	-2.985	-3.341	-2.040	-0.437	-0.617	3.036	5.727	8.923	4.722	6.672	117.188
-4.001	-5.342	-4.097	-4.024	-2.267	-2.969	1.855	2.799	4.573	1.762	4.785	3.674	0.769	-2.636	-4.995	-3.814	-4.318	-3.202	-3.324	-3.701	-2.383	-0.634	-0.655	3.035	6.103	9.394	4.792	6.893	121.094
-3.961	-5.670	-4.171	-4.224	-2.418	-3.050	1.820	3.227	5.007	1.819	5.045	3.869	0.555	-3.020	-5.216	-4.206	-4.686	-3.325	-3.617	-4.057	-2.733	-0.841	-0.693	2.963	6.374	9.763	4.759	7.079	125.000
-3.931	-5.997	-4.262	-4.415	-2.548	-3.142	1.771	3.583	5.393	1.877	5.296	4.072	0.307	-3.386	-5.240	-4.561	-5.027	-3.353	-3.837	-4.385	-3.066	-1.044	-0.728	2.838	6.517	10.000	4.635	7.221	128.906
-3.915	-6.284	-4.352	-4.577	-2.644	-3.234	1.716	3.848	5.707	1.930	5.522	4.266	0.056	-3.707	-5.096	-4.851	-5.305	-3.295	-3.958	-4.658	-3.358	-1.222	-0.751	2.673	6.514	10.077	4.430	7.302	132.812
-3.899	-6.492	-4.413	-4.686	-2.695	-3.308	1.658	4.012	5.919	1.969	5.698	4.427	-0.176	-3.966	-4.834	-5.045	-5.485	-3.163	-3.960	-4.849	-3.584	-1.351	-0.752	2.483	6.359	9.973	4.155	7.302	136.719
-3.859	-6.583	-4.421	-4.717	-2.693	-3.346	1.590	4.069	6.004	1.975	5.796	4.528	-0.377	-4.155	-4.507	-5.119	-5.536	-2.977	-3.831	-4.934	-3.725	-1.410	-0.719	2.277	6.060	9.681	3.820	7.201	140.625
-3.768	-6.529	-4.356	-4.655	-2.640	-3.330	1.501	4.020	5.940	1.926	5.788	4.541	-0.547	-4.278	-4.159	-5.058	-5.443	-2.757	-3.571	-4.897	-3.770	-1.383	-0.644	2.063	5.640	9.213	3.434	6.984	144.531
-3.608	-6.322	-4.210	-4.493	-2.543	-3.247	1.376	3.868	5.714	1.797	5.651	4.444	-0.696	-4.343	-3.822	-4.859	-5.203	-2.519	-3.194	-4.736	-3.717	-1.263	-0.519	1.844	5.133	8.601	3.004	6.648	148.438
-3.372	-5.971	-3.986	-4.240	-2.416	-3.093	1.197	3.622	5.327	1.567	5.368	4.221	-0.839	-4.365	-3.511	-4.537	-4.829	-2.273	-2.720	-4.463	-3.573	-1.052	-0.346	1.626	4.587	7.889	2.540	6.197	152.344
-3.069	-5.504	-3.695	-3.915	-2.276	-2.872	0.951	3.294	4.793	1.216	4.936	3.862	-0.996	-4.357	-3.230	-4.119	-4.346	-2.020	-2.178	-4.099	-3.352	-0.762	-0.128	1.412	4.049	7.134	2.049	5.647	156.250
-2.718	-4.964	-3.356	-3.549	-2.138	-2.602	0.629	2.904	4.140	0.737	4.359	3.370	-1.181	-4.330	-2.974	-3.640	-3.790	-1.752	-1.599	-3.677	-3.074	-0.412	0.130	1.205	3.564	6.393	1.541	5.019	160.156
-2.346	-4.403	-2.991	-3.178	-2.018	-2.307	0.234	2.475	3.413	0.134	3.658	2.754	-1.406	-4.295	-2.737	-3.144	-3.198	-1.456	-1.010	-3.228	-2.760	-0.025	0.419	1.011	3.168	5.715	1.025	4.340	164.062
-1.979	-3.877	-2.623	-2.839	-1.924	-2.015	-0.221	2.043	2.668	-0.574	2.865	2.037	-1.674	-4.257	-2.517	-2.673	-2.609	-1.127	-0.436	-2.788	-2.433	0.378	0.733	0.836	2.884	5.141	0.515	3.640	167.969
-1.637	-3.436	-2.278	-2.563	-1.861	-1.753	-0.712	1.647	1.967	-1.347	2.025	1.251	-1.980	-4.223	-2.318	-2.264	-2.063	-0.771	0.101	-2.384	-2.115	0.774	1.066	0.687	2.719	4.695	0.030	2.949	171.875
-1.334	-3.120	-1.975	-2.372	-1.827	-1.545	-1.200	1.328	1.377	-2.132	1.193	0.438	-2.309	-4.193	-2.145	-1.949	-1.591	-0.408	0.581	-2.042	-1.826	1.143	1.405	0.572	2.667	4.390	-0.408	2.303	175.781
-1.080	-2.954	-1.732	-2.276	-1.817	-1.401	-1.640	1.128	0.958	-2.864	0.427	-0.356	-2.639	-4.172	-2.002	-1.747	-1.224	-0.072	0.982	-1.777	-1.585	1.464	1.734	0.496	2.712	4.226	-0.773	1.733	179.688
-0.882	-2.943	-1.555	-2.275	-1.822	-1.323	-1.986	1.077	0.757	-3.471	-0.212	-1.081	-2.943	-4.158	-1.892	-1.666	-0.986	0.196	1.279	-1.600	-1.408	1.719	2.026	0.464	2.828	4.192	-1.039	1.269	183.594
-0.751	-3.074	-1.446	-2.355	-1.831	-1.301	-2.192	1.191	0.801	-3.886	-0.670	-1.689	-3.190	-4.153	-1.811	-1.704	-0.895	0.360	1.448	-1.514	-1.305	1.888	2.253	0.475	2.990	4.274	-1.182	0.937	187.500
-0.697	-3.320	-1.398	-2.498	-1.832	-1.319	-2.222	1.468	1.092	-4.055	-0.903	-2.137	-3.351	-4.156	-1.754	-1.849	-0.963	0.395	1.469	-1.522	-1.281	1.956	2.381	0.529	3.173	4.452	-1.182	0.754	191.406
-0.731	-3.643	-1.401	-2.681	-1.815	-1.360	-2.056	1.886	1.609	-3.943	-0.885	-2.391	-3.401	-4.164	-1.717	-2.083	-1.188	0.294	1.328	-1.619	-1.333	1.911	2.383	0.621	3.354	4.707	-1.032	0.729	195.312
-0.858	-4.007	-1.447	-2.882	-1.773	-1.407	-1.692	2.407	2.306	-3.541	-0.608	-2.431	-3.322	-4.172	-1.699	-2.386	-1.560	0.065	1.023	-1.800	-1.454	1.749	2.245	0.748	3.519	5.021	-0.733	0.864	199.219
-1.078	-4.375	-1.529	-3.084	-1.702	-1.446	-1.148	2.980	3.120	-2.870	-0.089	-2.250	-3.107	-4.174	-1.703	-2.738	-2.057	-0.271	0.572	-2.055	-1.625	1.478	1.967	0.910	3.660	5.378	-0.299	1.148	203.125
-1.381	-4.724	-1.644	-3.279	-1.602	-1.470	-0.463	3.554	3.980	-1.978	0.632	-1.857	-2.759	-4.158	-1.739	-3.122	-2.644	-0.687	0.005	-2.372	-1.826	1.115	1.569	1.107	3.776	5.764	0.247	1.563	207.031
-1.749	-5.036	-1.790	-3.461	-1.477	-1.474	0.309	4.078	4.815	-0.936	1.495	-1.282	-2.289	-4.111	-1.820	-3.525	-3.277	-1.153	-0.629	-2.731	-2.032	0.694	1.092	1.343	3.872	6.169	0.875	2.080	210.938
-2.157	-5.306	-1.964	-3.635	-1.335	-1.454	1.109	4.512	5.559	0.167	2.424	-0.570	-1.720	-4.023	-1.964	-3.936	-3.908	-1.644	-1.274	-3.114	-2.219	0.255	0.588	1.622	3.961	6.579	1.548	2.662	214.844
-2.572	-5.534	-2.163	-3.807	-1.187	-1.414	1.871	4.829	6.160	1.241	3.336	0.221	-1.083	-3.883	-2.184	-4.349	-4.489	-2.136	-1.872	-3.497	-2.367	-0.157	0.114	1.944	4.054	6.983	2.228	3.270	218.750
-2.957	-5.725	-2.379	-3.983	-1.045	-1.356	2.539	5.016	6.583	2.193	4.149	1.022	-0.416	-3.688	-2.485	-4.754	-4.980	-2.605	-2.374	-3.859	-2.464	-0.501	-0.276	2.302	4.164	7.367	2.870	3.858	222.656
-3.276	-5.880	-2.602	-4.166	-0.921	-1.288	3.064	5.075	6.810	2.948	4.790	1.763	0.234	-3.440	-2.855	-5.142	-5.350	-3.024	-2.745	-4.182	-2.508	-0.748	-0.543	2.682	4.300	7.715	3.435	4.388	226.562
-3.501	-5.998	-2.817	-4.350	-0.829	-1.218	3.412	5.013	6.839	3.446	5.205	2.377	0.820	-3.148	-3.263	-5.496	-5.582	-3.363	-2.967	-4.451	-2.502	-0.879	-0.664	3.060	4.463	8.013	3.881	4.821	230.469
-3.615	-6.069	-3.007	-4.526	-0.775	-1.158	3.566	4.846	6.680	3.651	5.359	2.808	1.298	-2.825	-3.656	-5.798	-5.672	-3.594	-3.043	-4.653	-2.458	-0.896	-0.636	3.409	4.651	8.248	4.180	5.130	234.375
-3.614	-6.080	-3.151	-4.678	-0.763	-1.113	3.523	4.590	6.353	3.553	5.241	3.015	1.631	-2.487	-3.971	-6.022	-5.625	-3.693	-2.992	-4.779	-2.385	-0.808	-0.474	3.700	4.856	8.411	4.309	5.295	238.281
-3.510	-6.019	-3.230	-4.787	-0.789	-1.089	3.297	4.265	5.884	3.167	4.863	2.975	1.796	-2.152	-4.144	-6.145	-5.454	-3.650	-2.840	-4.823	-2.290	-0.635	-0.203	3.913	5.069	8.496	4.266	5.306	242.188
-3.320	-5.876	-3.229	-4.836	-0.842	-1.084	2.917	3.891	5.309	2.534	4.257	2.687	1.788	-1.835	-4.125	-6.145	-5.180	-3.473	-2.618	-4.782	-2.175	-0.401	0.146	4.036	5.275	8.503	4.058	5.164	246.094
-3.069	-5.653	-3.140	-4.814	-0.906	-1.095	2.422	3.492	4.668	1.716	3.475	2.167	1.621	-1.551	-3.890	-6.013	-4.826	-3.186	-2.356	-4.656	-2.040	-0.130	0.537	4.068	5.462	8.438	3.711	4.878	250.000
-2.781	-5.365	-2.970	-4.715	-0.961	-1.114	1.864	3.101	4.011	0.791	2.581	1.454	1.323	-1.312	-3.453	-5.755	-4.424	-2.828	-2.080	-4.455	-1.882	0.156	0.937	4.021	5.618	8.310	3.262	4.469	253.906
-2.479	-5.038	-2.737	-4.543	-0.990	-1.132	1.299	2.752	3.391	-0.150	1.652	0.603	0.939	-1.124	-2.866	-5.393	-4.010	-2.448	-1.809	-4.195	-1.699	0.437	1.313	3.913	5.731	8.134	2.755	3.966	257.812
-2.185	-4.707	-2.470	-4.312	-0.978	-1.141	0.790	2.483	2.864	-1.014	0.770	-0.318	0.520	-0.990	-2.209	-4.969	-3.619	-2.095	-1.560	-3.900	-1.495	0.695	1.639	3.773	5.790	7.924	2.240	3.409	261.719
-1.921	-4.412	-2.208	-4.042	-0.918	-1.138	0.394	2.327	2.483	-1.713	0.015	-1.228	0.124	-0.902	-1.586	-4.531	-3.287	-1.813	-1.341	-3.601	-1.278	0.917	1.891	3.631	5.789	7.700	1.769	2.844	265.625
-1.706	-4.190	-1.995	-3.760	-0.808	-1.123	0.166	2.309	2.291	-2.170	-0.541	-2.048	-0.192	-0.848	-1.100	-4.137	-3.048	-1.637	-1.163	-3.327	-1.059	1.096	2.054	3.519	5.725	7.482	1.388	2.319	269.531
-1.563	-4.073	-1.869	-3.496	-0.656	-1.099	0.143	2.437	2.318	-2.329	-0.843	-2.705	-0.376	-0.806	-0.842	-3.835	-2.926	-1.589	-1.030	-3.107	-0.849	1.227	2.120	3.466	5.600	7.290	1.138	1.885	273.438
-1.513	-4.081	-1.862	-3.278	-0.476	-1.074	0.349	2.704	2.577	-2.161	-0.859	-3.138	-0.389	-0.752	-0.868	-3.664	-2.935	-1.680	-0.947	-2.960	-0.659	1.309	2.087	3.498	5.422	7.142	1.048	1.583	277.344
-1.580	-4.216	-1.995	-3.127	-0.283	-1.054	0.781	3.082	3.056	-1.667	-0.586	-3.311	-0.203	-0.664	-1.191	-3.643	-3.079	-1.906	-0.917	-2.895	-0.494	1.348	1.961	3.628	5.199	7.054	1.134	1.446	281.250
-1.782	-4.466	-2.270	-3.058	-0.093	-1.048	1.416	3.531	3.721	-0.879	-0.049	-3.209	0.190	-0.524	-1.780	-3.770	-3.347	-2.255	-0.939	-2.911	-0.356	1.349	1.757	3.860	4.947	7.037	1.397	1.489	285.156
-2.129	-4.803	-2.676	-3.074	0.078	-1.065	2.209	4.003	4.520	0.144	0.705	-2.848	0.777	-0.325	-2.559	-4.026	-3.717	-2.706	-1.010	-3.000	-0.244	1.324	1.496	4.187	4.680	7.091	1.821	1.712	289.062
-2.616	-5.191	-3.185	-3.171	0.217	-1.110	3.096	4.449	5.387	1.321	1.606	-2.265	1.527	-0.066	-3.432	-4.375	-4.156	-3.233	-1.121	-3.147	-0.151	1.283	1.205	4.586	4.413	7.212	2.377	2.096	292.969
-3.218	-5.592	-3.759	-3.339	0.313	-1.192	4.007	4.830	6.249	2.562	2.577	-1.515	2.391	0.243	-4.297	-4.775	-4.625	-3.807	-1.257	-3.333	-0.073	1.241	0.914	5.029	4.163	7.384	3.019	2.604	296.875
-3.888	-5.969	-4.354	-3.563	0.363	-1.315	4.867	5.118	7.040	3.773	3.540	-0.665	3.307	0.583	-5.068	-5.183	-5.084	-4.396	-1.401	-3.540	-0.004	1.211	0.651	5.478	3.941	7.584	3.697	3.190	300.781
-4.563	-6.297	-4.921	-3.823	0.363	-1.478	5.613	5.302	7.701	4.868	4.421	0.217	4.210	0.933	-5.686	-5.563	-5.494	-4.969	-1.532	-3.751	0.060	1.202	0.439	5.895	3.756	7.785	4.354	3.799	304.688
-5.165	-6.557	-5.417	-4.095	0.317	-1.676	6.192	5.386	8.194	5.780	5.166	1.069	5.034	1.268	-6.125	-5.886	-5.830	-5.495	-1.634	-3.950	0.120	1.220	0.289	6.243	3.609	7.957	4.936	4.374	308.594
-5.626	-6.743	-5.802	-4.355	0.235	-1.896	6.574	5.387	8.496	6.459	5.735	1.837	5.726	1.566	-6.387	-6.135	-6.073	-5.946	-1.696	-4.119	0.178	1.264	0.200	6.490	3.494	8.073	5.397	4.864	312.500
-5.890	-6.856	-6.054	-4.578	0.129	-2.117	6.748	5.323	8.609	6.879	6.113	2.483	6.245	1.812	-6.502	-6.300	-6.221	-6.300	-1.711	-4.244	0.232	1.331	0.158	6.614	3.400	8.112	5.703	5.233	316.406
-5.935	-6.903	-6.162	-4.743	0.015	-2.318	6.723	5.218	8.548	7.037	6.303	2.986	6.570	1.994	-6.509	-6.379	-6.276	-6.539	-1.680	-4.311	0.286	1.415	0.147	6.607	3.318	8.062	5.839	5.458	320.312
-5.772	-6.894	-6.135	-4.833	-0.096	-2.480	6.520	5.087	8.341	6.947	6.323	3.338	6.700	2.109	-6.448	-6.374	-6.253	-6.654	-1.604	-4.309	0.340	1.509	0.149	6.477	3.240	7.927	5.805	5.539	324.219
-5.445	-6.840	-5.994	-4.842	-0.191	-2.587	6.171	4.940	8.019	6.636	6.199	3.545	6.647	2.157	-6.350	-6.290	-6.162	-6.640	-1.490	-4.229	0.398	1.609	0.150	6.242	3.167	7.721	5.622	5.492	328.125
-5.018	-6.746	-5.768	-4.769	-0.267	-2.635	5.711	4.777	7.613	6.142	5.958	3.621	6.435	2.145	-6.235	-6.130	-6.017	-6.501	-1.344	-4.068	0.463	1.714	0.145	5.932	3.107	7.466	5.320	5.343	332.031
-4.561	-6.614	-5.490	-4.620	-0.319	-2.628	5.176	4.595	7.147	5.503	5.623	3.580	6.094	2.084	-6.107	-5.898	-5.825	-6.248	-1.173	-3.827	0.539	1.825	0.138	5.584	3.074	7.192	4.942	5.126	335.938
-4.140	-6.445	-5.190	-4.405	-0.347	-2.573	4.599	4.385	6.639	4.765	5.210	3.435	5.656	1.989	-5.962	-5.600	-5.589	-5.901	-0.984	-3.512	0.633	1.945	0.138	5.232	3.085	6.927	4.525	4.869	339.844
-3.797	-6.236	-4.891	-4.132	-0.350	-2.483	4.007	4.142	6.100	3.967	4.724	3.197	5.155	1.880	-5.787	-5.242	-5.314	-5.489	-0.784	-3.132	0.751	2.074	0.155	4.908	3.153	6.694	4.107	4.594	343.750
-3.553	-5.986	-4.613	-3.814	-0.325	-2.370	3.427	3.863	5.538	3.149	4.170	2.870	4.620	1.777	-5.570	-4.833	-5.002	-5.045	-0.577	-2.699	0.897	2.213	0.197	4.637	3.286	6.509	3.712	4.315	347.656
-3.407	-5.703	-4.367	-3.460	-0.265	-2.243	2.881	3.556	4.964	2.348	3.552	2.456	4.083	1.697	-5.305	-4.385	-4.663	-4.606	-0.368	-2.226	1.076	2.361	0.270	4.434	3.479	6.378	3.358	4.035	351.562
-3.339	-5.396	-4.159	-3.082	-0.167	-2.111	2.391	3.236	4.393	1.599	2.880	1.957	3.574	1.656	-5.002	-3.912	-4.305	-4.208	-0.159	-1.727	1.292	2.513	0.369	4.305	3.719	6.297	3.052	3.751	355.469
-3.322	-5.082	-3.993	-2.696	-0.026	-1.977	1.974	2.928	3.847	0.932	2.171	1.377	3.122	1.663	-4.681	-3.430	-3.944	-3.884	0.053	-1.213	1.544	2.664	0.487	4.247	3.983	6.253	2.796	3.452	359.375
-3.329	-4.780	-3.868	-2.315	0.157	-1.841	1.651	2.660	3.355	0.375	1.456	0.725	2.753	1.720	-4.379	-2.955	-3.596	-3.656	0.269	-0.699	1.828	2.809	0.610	4.251	4.240	6.226	2.588	3.131	363.281
-3.340	-4.506	-3.780	-1.954	0.381	-1.699	1.436	2.459	2.950	-0.047	0.771	0.019	2.489	1.821	-4.139	-2.500	-3.277	-3.537	0.489	-0.195	2.136	2.941	0.723	4.299	4.456	6.191	2.425	2.780	367.188
-3.343	-4.271	-3.719	-1.625	0.639	-1.546	1.345	2.350	2.665	-0.312	0.160	-0.714	2.346	1.957	-4.001	-2.077	-3.006	-3.529	0.710	0.287	2.455	3.052	0.807	4.368	4.597	6.123	2.302	2.398	371.094
-3.339	-4.081	-3.673	-1.335	0.922	-1.376	1.385	2.346	2.528	-0.402	-0.332	-1.434	2.328	2.110	-3.996	-1.695	-2.799	-3.621	0.924	0.733	2.769	3.134	0.844	4.435	4.630	6.000	2.214	1.994	375.000
-3.333	-3.936	-3.626	-1.090	1.218	-1.185	1.555	2.452	2.559	-0.307	-0.667	-2.093	2.430	2.265	-4.135	-1.359	-2.671	-3.799	1.115	1.130	3.060	3.175	0.818	4.475	4.535	5.806	2.153	1.583	378.906
-3.331	-3.828	-3.563	-0.891	1.512	-0.973	1.847	2.657	2.763	-0.021	-0.814	-2.640	2.636	2.405	-4.403	-1.077	-2.628	-4.041	1.262	1.464	3.310	3.167	0.719	4.471	4.299	5.533	2.110	1.191	382.812
-3.336	-3.752	-3.471	-0.737	1.788	-0.747	2.241	2.943	3.130	0.444	-0.762	-3.027	2.923	2.517	-4.765	-0.853	-2.672	-4.323	1.347	1.721	3.501	3.103	0.547	4.409	3.926	5.181	2.076	0.844	386.719
-3.345	-3.698	-3.340	-0.626	2.030	-0.520	2.707	3.281	3.629	1.065	-0.515	-3.219	3.262	2.596	-5.169	-0.691	-2.793	-4.622	1.352	1.894	3.625	2.981	0.308	4.287	3.432	4.761	2.039	0.564	390.625
-3.350	-3.659	-3.169	-0.557	2.226	-0.307	3.208	3.636	4.213	1.801	-0.101	-3.200	3.621	2.640	-5.553	-0.594	-2.976	-4.911	1.272	1.978	3.679	2.809	0.020	4.111	2.847	4.289	1.989	0.367	394.531
-3.341	-3.630	-2.960	-0.526	2.368	-0.120	3.703	3.973	4.820	2.597	0.436	-2.979	3.972	2.652	-5.859	-0.559	-3.200	-5.164	1.111	1.980	3.670	2.598	-0.293	3.894	2.209	3.787	1.918	0.257	398.438
-3.303	-3.608	-2.726	-0.528	2.454	0.029	4.149	4.254	5.384	3.387	1.037	-2.590	4.292	2.637	-6.040	-0.582	-3.442	-5.357	0.886	1.911	3.610	2.365	-0.601	3.656	1.561	3.280	1.820	0.222	402.344
-3.224	-3.593	-2.483	-0.561	2.485	0.133	4.508	4.449	5.838	4.100	1.636	-2.086	4.562	2.597	-6.066	-0.654	-3.681	-5.465	0.625	1.787	3.517	2.131	-0.876	3.417	0.946	2.796	1.694	0.247	406.250
-3.097	-3.592	-2.249	-0.620	2.467	0.191	4.749	4.538	6.134	4.667	2.170	-1.531	4.768	2.533	-5.932	-0.762	-3.898	-5.470	0.361	1.624	3.409	1.915	-1.091	3.196	0.402	2.360	1.543	0.307	410.156
-2.919	-3.612	-2.044	-0.704	2.407	0.203	4.850	4.515	6.242	5.033	2.585	-0.991	4.899	2.447	-5.648	-0.894	-4.083	-5.362	0.128	1.437	3.299	1.734	-1.226	3.008	-0.042	1.995	1.373	0.382	414.062
-2.700	-3.661	-1.879	-0.808	2.313	0.175	4.804	4.392	6.157	5.163	2.844	-0.520	4.949	2.341	-5.250	-1.039	-4.233	-5.141	-0.044	1.240	3.197	1.599	-1.269	2.858	-0.365	1.717	1.191	0.453	417.969
-2.457	-3.742	-1.761	-0.927	2.195	0.114	4.615	4.196	5.898	5.045	2.931	-0.160	4.910	2.222	-4.783	-1.185	-4.347	-4.822	-0.131	1.041	3.107	1.518	-1.218	2.747	-0.554	1.538	1.009	0.508	421.875
-2.218	-3.850	-1.686	-1.049	2.063	0.036	4.301	3.966	5.504	4.691	2.848	0.067	4.780	2.103	-4.302	-1.326	-4.433	-4.426	-0.123	0.852	3.030	1.495	-1.079	2.671	-0.610	1.454	0.833	0.539	425.781
-2.008	-3.968	-1.641	-1.158	1.933	-0.045	3.890	3.740	5.022	4.138	2.615	0.157	4.562	1.999	-3.862	-1.453	-4.496	-3.986	-0.021	0.681	2.971	1.529	-0.866	2.621	-0.544	1.454	0.671	0.541	429.688
-1.853	-4.073	-1.606	-1.234	1.821	-0.107	3.416	3.550	4.500	3.437	2.261	0.116	4.267	1.928	-3.504	-1.557	-4.538	-3.535	0.166	0.544	2.933	1.619	-0.602	2.590	-0.381	1.513	0.528	0.506	433.594
-1.767	-4.134	-1.559	-1.255	1.744	-0.133	2.916	3.412	3.975	2.649	1.819	-0.040	3.915	1.905	-3.248	-1.626	-4.558	-3.108	0.416	0.456	2.927	1.761	-0.308	2.575	-0.159	1.600	0.404	0.429	437.500
-1.751	-4.124	-1.480	-1.204	1.720	-0.106	2.427	3.321	3.474	1.834	1.318	-0.293	3.537	1.937	-3.095	-1.645	-4.547	-2.731	0.710	0.435	2.965	1.953	-0.007	2.573	0.076	1.680	0.296	0.304	441.406
-1.795	-4.022	-1.356	-1.070	1.757	-0.023	1.982	3.259	3.008	1.049	0.783	-0.625	3.166	2.022	-3.026	-1.597	-4.492	-2.427	1.026	0.497	3.058	2.187	0.281	2.588	0.274	1.720	0.198	0.124	445.312
-1.880	-3.825	-1.188	-0.857	1.858	0.112	1.608	3.198	2.578	0.339	0.232	-1.020	2.841	2.149	-3.007	-1.467	-4.378	-2.208	1.349	0.653	3.217	2.457	0.547	2.622	0.389	1.696	0.104	-0.113	449.219
-1.982	-3.544	-0.989	-0.578	2.015	0.281	1.325	3.113	2.183	-0.261	-0.321	-1.463	2.593	2.301	-2.999	-1.248	-4.192	-2.073	1.669	0.903	3.442	2.751	0.783	2.676	0.385	1.592	0.005	-0.408	453.125
-2.077	-3.206	-0.784	-0.260	2.211	0.459	1.142	2.986	1.817	-0.732	-0.863	-1.942	2.443	2.454	-2.966	-0.940	-3.931	-2.009	1.980	1.239	3.727	3.058	0.987	2.748	0.243	1.406	-0.104	-0.754	457.031
-2.145	-2.845	-0.599	0.069	2.425	0.620	1.060	2.813	1.482	-1.067	-1.380	-2.444	2.401	2.591	-2.882	-0.555	-3.602	-1.996	2.278	1.638	4.053	3.359	1.157	2.831	-0.034	1.145	-0.227	-1.144	460.938
-2.177	-2.497	-0.459	0.380	2.631	0.740	1.073	2.606	1.188	-1.270	-1.854	-2.952	2.461	2.699	-2.736	-0.118	-3.229	-2.006	2.557	2.068	4.394	3.635	1.289	2.915	-0.424	0.830	-0.361	-1.559	464.844
-2.177	-2.191	-0.379	0.650	2.811	0.805	1.170	2.391	0.947	-1.350	-2.264	-3.446	2.610	2.775	-2.534	0.336	-2.843	-2.015	2.810	2.490	4.721	3.866	1.377	2.988	-0.887	0.487	-0.498	-1.978	468.750
-2.159	-1.941	-0.362	0.867	2.948	0.811	1.334	2.200	0.778	-1.321	-2.588	-3.902	2.826	2.827	-2.295	0.771	-2.486	-2.009	3.024	2.864	5.005	4.035	1.411	3.043	-1.376	0.148	-0.622	-2.372	472.656
-2.145	-1.747	-0.401	1.029	3.037	0.763	1.551	2.063	0.697	-1.197	-2.803	-4.290	3.088	2.868	-2.047	1.148	-2.197	-1.983	3.189	3.161	5.225	4.130	1.386	3.077	-1.842	-0.157	-0.719	-2.713	476.562
-2.152	-1.599	-0.479	1.140	3.078	0.674	1.807	2.004	0.715	-0.991	-2.896	-4.588	3.372	2.915	-1.824	1.438	-2.010	-1.945	3.296	3.360	5.371	4.149	1.299	3.093	-2.246	-0.401	-0.771	-2.973	480.469
-2.188	-1.482	-0.577	1.208	3.080	0.561	2.088	2.035	0.835	-0.717	-2.859	-4.773	3.659	2.976	-1.653	1.625	-1.944	-1.911	3.341	3.457	5.443	4.096	1.152	3.097	-2.568	-0.567	-0.766	-3.134	484.375
-2.247	-1.379	-0.674	1.239	3.052	0.437	2.380	2.151	1.044	-0.388	-2.699	-4.837	3.932	3.052	-1.556	1.706	-1.999	-1.902	3.328	3.462	5.449	3.985	0.956	3.098	-2.803	-0.650	-0.698	-3.184	488.281
-2.306	-1.279	-0.754	1.240	3.003	0.314	2.669	2.331	1.319	-0.021	-2.435	-4.778	4.176	3.134	-1.536	1.692	-2.160	-1.936	3.268	3.396	5.402	3.832	0.724	3.100	-2.966	-0.655	-0.571	-3.126	492.188
-2.337	-1.180	-0.805	1.210	2.938	0.197	2.938	2.542	1.627	0.363	-2.093	-4.606	4.380	3.200	-1.581	1.605	-2.396	-2.023	3.174	3.284	5.315	3.657	0.477	3.105	-3.078	-0.599	-0.397	-2.976	496.094
-2.311	-1.085	-0.825	1.147	2.858	0.087	3.167	2.746	1.929	0.741	-1.704	-4.337	4.532	3.225	-1.665	1.472	-2.669	-2.162	3.060	3.151	5.198	3.475	0.235	3.110	-3.165	-0.504	-0.198	-2.754	500.000
-2.211	-1.002	-0.822	1.050	2.758	-0.021	3.339	2.904	2.190	1.087	-1.301	-3.991	4.623	3.185	-1.755	1.322	-2.939	-2.337	2.939	3.017	5.059	3.300	0.017	3.106	-3.246	-0.392	0.002	-2.483	503.906
-2.037	-0.939	-0.809	0.919	2.634	-0.133	3.438	2.983	2.376	1.377	-0.910	-3.586	4.646	3.061	-1.821	1.180	-3.170	-2.524	2.824	2.894	4.898	3.141	-0.161	3.085	-3.331	-0.284	0.175	-2.185	507.812
-1.811	-0.896	-0.806	0.759	2.482	-0.252	3.454	2.964	2.469	1.591	-0.551	-3.143	4.597	2.848	-1.843	1.067	-3.335	-2.692	2.721	2.784	4.715	3.002	-0.289	3.038	-3.416	-0.190	0.299	-1.876	511.719
-1.566	-0.865	-0.832	0.582	2.304	-0.379	3.384	2.840	2.458	1.715	-0.238	-2.679	4.473	2.552	-1.818	0.996	-3.415	-2.810	2.638	2.687	4.509	2.886	-0.359	2.958	-3.486	-0.116	0.353	-1.566	515.625
-1.347	-0.832	-0.900	0.404	2.105	-0.507	3.231	2.622	2.347	1.740	0.022	-2.214	4.276	2.194	-1.759	0.977	-3.405	-2.857	2.583	2.596	4.281	2.793	-0.371	2.845	-3.522	-0.057	0.330	-1.260	519.531
-1.192	-0.777	-1.019	0.243	1.897	-0.626	3.004	2.334	2.148	1.663	0.222	-1.769	4.010	1.802	-1.690	1.009	-3.304	-2.822	2.563	2.505	4.034	2.724	-0.325	2.702	-3.499	-0.004	0.229	-0.962	523.438
-1.128	-0.683	-1.186	0.113	1.693	-0.723	2.718	2.007	1.882	1.486	0.357	-1.370	3.683	1.411	-1.641	1.090	-3.121	-2.707	2.585	2.410	3.778	2.680	-0.221	2.539	-3.400	0.057	0.058	-0.679	527.344
-1.161	-0.537	-1.389	0.027	1.504	-0.784	2.389	1.678	1.571	1.215	0.421	-1.043	3.305	1.056	-1.633	1.207	-2.873	-2.526	2.650	2.309	3.521	2.665	-0.066	2.369	-3.211	0.138	-0.161	-0.418	531.250
-1.279	-0.342	-1.605	-0.014	1.339	-0.801	2.034	1.380	1.236	0.858	0.403	-0.817	2.893	0.767	-1.678	1.342	-2.579	-2.302	2.757	2.199	3.274	2.677	0.137	2.210	-2.929	0.252	-0.405	-0.191	535.156
-1.450	-0.110	-1.803	-0.017	1.204	-0.770	1.668	1.138	0.895	0.426	0.298	-0.714	2.463	0.567	-1.771	1.471	-2.268	-2.055	2.894	2.079	3.043	2.718	0.379	2.078	-2.556	0.404	-0.642	-0.010	539.062
-1.635	0.137	-1.949	0.003	1.098	-0.696	1.305	0.964	0.559	-0.068	0.101	-0.746	2.038	0.465	-1.890	1.567	-1.972	-1.805	3.044	1.949	2.832	2.782	0.647	1.987	-2.105	0.601	-0.845	0.118	542.969
-1.798	0.368	-2.012	0.027	1.016	-0.596	0.954	0.860	0.235	-0.605	-0.183	-0.913	1.641	0.456	-2.005	1.604	-1.724	-1.560	3.186	1.803	2.644	2.865	0.929	1.947	-1.595	0.840	-0.988	0.188	546.875
-1.909	0.555	-1.973	0.034	0.951	-0.488	0.626	0.816	-0.072	-1.159	-0.539	-1.197	1.296	0.527	-2.083	1.560	-1.557	-1.322	3.299	1.639	2.477	2.958	1.209	1.963	-1.050	1.114	-1.054	0.204	550.781
-1.957	0.674	-1.827	0.008	0.898	-0.392	0.331	0.816	-0.357	-1.697	-0.944	-1.563	1.023	0.652	-2.095	1.425	-1.494	-1.084	3.370	1.453	2.333	3.051	1.473	2.031	-0.503	1.410	-1.036	0.173	554.688
-1.942	0.714	-1.586	-0.061	0.853	-0.325	0.080	0.843	-0.613	-2.180	-1.366	-1.969	0.838	0.803	-2.028	1.200	-1.547	-0.842	3.391	1.244	2.210	3.135	1.707	2.142	0.012	1.708	-0.941	0.108	558.594
-1.874	0.676	-1.280	-0.169	0.819	-0.291	-0.112	0.881	-0.830	-2.567	-1.767	-2.365	0.748	0.951	-1.887	0.899	-1.710	-0.594	3.364	1.012	2.109	3.199	1.901	2.280	0.461	1.986	-0.785	0.024	562.500
-1.766	0.575	-0.947	-0.306	0.798	-0.285	-0.230	0.915	-0.994	-2.819	-2.115	-2.704	0.754	1.076	-1.694	0.548	-1.963	-0.345	3.295	0.764	2.032	3.235	2.044	2.427	0.810	2.218	-0.590	-0.066	566.406
-1.632	0.434	-0.627	-0.454	0.798	-0.291	-0.263	0.938	-1.091	-2.907	-2.377	-2.949	0.849	1.167	-1.484	0.182	-2.277	-0.111	3.198	0.510	1.980	3.236	2.128	2.565	1.033	2.381	-0.384	-0.151	570.312
-1.481	0.280	-0.359	-0.595	0.824	-0.290	-0.202	0.949	-1.110	-2.817	-2.531	-3.077	1.020	1.224	-1.294	-0.163	-2.613	0.088	3.083	0.263	1.953	3.198	2.145	2.679	1.112	2.459	-0.190	-0.221	574.219
-1.326	0.138	-0.169	-0.711	0.878	-0.260	-0.043	0.949	-1.047	-2.548	-2.565	-3.081	1.256	1.258	-1.156	-0.454	-2.938	0.230	2.964	0.038	1.950	3.122	2.090	2.760	1.046	2.444	-0.024	-0.273	578.125
-1.178	0.027	-0.072	-0.790	0.960	-0.190	0.210	0.949	-0.902	-2.115	-2.477	-2.967	1.543	1.288	-1.091	-0.667	-3.224	0.293	2.846	-0.150	1.969	3.009	1.965	2.805	0.844	2.337	0.108	-0.303	582.031
-1.053	-0.045	-0.062	-0.827	1.067	-0.074	0.545	0.958	-0.686	-1.548	-2.274	-2.753	1.872	1.335	-1.100	-0.791	-3.455	0.258	2.733	-0.290	2.008	2.868	1.776	2.817	0.526	2.150	0.209	-0.311	585.938
-0.963	-0.076	-0.121	-0.824	1.193	0.080	0.947	0.987	-0.414	-0.882	-1.973	-2.463	2.233	1.414	-1.174	-0.828	-3.623	0.117	2.624	-0.373	2.065	2.708	1.538	2.805	0.120	1.901	0.288	-0.298	589.844
-0.917	-0.072	-0.216	-0.785	1.335	0.260	1.393	1.044	-0.107	-0.161	-1.595	-2.127	2.618	1.534	-1.289	-0.792	-3.733	-0.123	2.513	-0.398	2.139	2.540	1.270	2.775	-0.346	1.607	0.352	-0.268	593.750
-0.914	-0.039	-0.311	-0.715	1.489	0.446	1.860	1.131	0.214	0.572	-1.166	-1.774	3.016	1.694	-1.416	-0.704	-3.793	-0.444	2.396	-0.364	2.229	2.375	0.994	2.730	-0.849	1.285	0.406	-0.226	597.656
-0.941	0.015	-0.366	-0.620	1.652	0.622	2.323	1.247	0.531	1.273	-0.714	-1.430	3.411	1.883	-1.521	-0.586	-3.815	-0.811	2.268	-0.280	2.336	2.222	0.729	2.667	-1.374	0.942	0.442	-0.181	601.562
-0.969	0.085	-0.352	-0.502	1.823	0.778	2.758	1.386	0.825	1.907	-0.264	-1.119	3.783	2.082	-1.578	-0.464	-3.810	-1.179	2.128	-0.155	2.459	2.087	0.489	2.578	-1.915	0.582	0.448	-0.147	605.469
-0.964	0.166	-0.248	-0.365	2.001	0.908	3.141	1.538	1.082	2.440	0.156	-0.861	4.110	2.266	-1.567	-0.355	-3.785	-1.501	1.980	-0.001	2.598	1.978	0.287	2.454	-2.471	0.202	0.404	-0.137	609.375
-0.887	0.257	-0.049	-0.211	2.181	1.015	3.454	1.687	1.284	2.848	0.522	-0.669	4.370	2.414	-1.482	-0.269	-3.743	-1.733	1.835	0.170	2.753	1.900	0.130	2.289	-3.040	-0.200	0.295	-0.165	613.281
-0.715	0.363	0.233	-0.039	2.360	1.106	3.676	1.816	1.413	3.111	0.811	-0.553	4.543	2.508	-1.326	-0.209	-3.679	-1.846	1.708	0.350	2.923	1.858	0.028	2.080	-3.618	-0.623	0.109	-0.245	617.188
-0.440	0.491	0.571	0.149	2.531	1.189	3.793	1.906	1.451	3.216	0.998	-0.521	4.616	2.537	-1.114	-0.162	-3.587	-1.826	1.619	0.533	3.103	1.859	-0.014	1.836	-4.188	-1.059	-0.153	-0.384	621.094
-0.076	0.650	0.929	0.352	2.689	1.274	3.791	1.940	1.378	3.152	1.064	-0.577	4.581	2.500	-0.864	-0.112	-3.457	-1.678	1.584	0.720	3.290	1.904	0.010	1.571	-4.726	-1.491	-0.478	-0.579	625.000
0.341	0.849	1.265	0.566	2.828	1.366	3.662	1.906	1.182	2.916	0.995	-0.720	4.438	2.401	-0.591	-0.034	-3.282	-1.423	1.617	0.912	3.476	1.992	0.103	1.305	-5.201	-1.894	-0.844	-0.819	628.906
0.765	1.088	1.543	0.785	2.946	1.468	3.407	1.800	0.859	2.511	0.786	-0.947	4.189	2.252	-0.306	0.095	-3.063	-1.096	1.722	1.114	3.652	2.118	0.260	1.058	-5.580	-2.243	-1.223	-1.086	632.812
1.144	1.362	1.741	1.005	3.041	1.580	3.031	1.625	0.418	1.949	0.439	-1.255	3.846	2.066	-0.008	0.294	-2.802	-0.737	1.891	1.328	3.810	2.272	0.471	0.845	-5.833	-2.513	-1.588	-1.360	636.719
1.436	1.657	1.857	1.217	3.112	1.699	2.555	1.397	-0.117	1.251	-0.028	-1.637	3.420	1.857	0.307	0.573	-2.512	-0.388	2.109	1.554	3.940	2.442	0.722	0.676	-5.943	-2.691	-1.921	-1.623	640.625
1.616	1.955	1.909	1.417	3.159	1.821	2.004	1.138	-0.711	0.448	-0.591	-2.084	2.928	1.637	0.647	0.928	-2.204	-0.078	2.353	1.787	4.035	2.613	0.994	0.550	-5.907	-2.775	-2.212	-1.861	644.531
1.685	2.239	1.929	1.599	3.183	1.943	1.415	0.875	-1.319	-0.418	-1.215	-2.587	2.391	1.416	1.006	1.343	-1.896	0.178	2.599	2.019	4.091	2.774	1.267	0.458	-5.738	-2.780	-2.465	-2.072	648.438
1.666	2.491	1.959	1.764	3.187	2.061	0.827	0.640	-1.896	-1.300	-1.858	-3.131	1.830	1.203	1.369	1.788	-1.604	0.381	2.823	2.237	4.105	2.911	1.524	0.385	-5.464	-2.730	-2.693	-2.259	652.344
1.609	2.705	2.033	1.913	3.175	2.172	0.279	0.457	-2.399	-2.143	-2.478	-3.693	1.274	1.002	1.704	2.222	-1.340	0.547	3.006	2.423	4.076	3.016	1.748	0.315	-5.122	-2.658	-2.912	-2.432	656.250
1.569	2.877	2.171	2.047	3.153	2.271	-0.195	0.345	-2.798	-2.893	-3.035	-4.248	0.754	0.817	1.974	2.600	-1.119	0.699	3.134	2.558	4.005	3.081	1.926	0.233	-4.755	-2.592	-3.134	-2.599	660.156
1.599	3.010	2.372	2.165	3.125	2.355	-0.566	0.309	-3.071	-3.500	-3.493	-4.760	0.305	0.651	2.144	2.878	-0.951	0.854	3.199	2.623	3.896	3.102	2.052	0.135	-4.398	-2.554	-3.361	-2.764	664.062
1.730	3.107	2.613	2.262	3.095	2.414	-0.814	0.343	-3.214	-3.921	-3.823	-5.192	-0.037	0.507	2.192	3.020	-0.845	1.019	3.198	2.602	3.751	3.078	2.119	0.025	-4.080	-2.548	-3.579	-2.921	667.969
1.963	3.169	2.854	2.326	3.062	2.440	-0.928	0.433	-3.231	-4.124	-4.005	-5.507	-0.237	0.391	2.113	3.008	-0.809	1.184	3.132	2.482	3.576	3.010	2.125	-0.082	-3.815	-2.563	-3.758	-3.053	671.875
2.268	3.192	3.042	2.343	3.025	2.426	-0.904	0.558	-3.134	-4.093	-4.027	-5.671	-0.268	0.309	1.918	2.837	-0.850	1.327	3.006	2.263	3.381	2.903	2.073	-0.162	-3.605	-2.574	-3.861	-3.133	675.781
2.584	3.167	3.129	2.301	2.983	2.366	-0.744	0.701	-2.942	-3.826	-3.886	-5.661	-0.113	0.268	1.635	2.523	-0.973	1.417	2.824	1.950	3.174	2.764	1.967	-0.191	-3.439	-2.551	-3.849	-3.133	679.688
2.843	3.080	3.075	2.191	2.933	2.262	-0.457	0.846	-2.672	-3.339	-3.590	-5.467	0.229	0.275	1.303	2.095	-1.182	1.424	2.593	1.562	2.967	2.598	1.812	-0.146	-3.302	-2.464	-3.692	-3.028	683.594
2.979	2.923	2.865	2.016	2.878	2.122	-0.059	0.985	-2.346	-2.663	-3.153	-5.096	0.738	0.336	0.963	1.593	-1.472	1.323	2.322	1.126	2.771	2.416	1.621	-0.015	-3.179	-2.299	-3.379	-2.806	687.500
2.944	2.693	2.509	1.789	2.822	1.960	0.426	1.112	-1.983	-1.846	-2.601	-4.569	1.376	0.451	0.653	1.066	-1.832	1.106	2.021	0.678	2.598	2.223	1.407	0.198	-3.062	-2.058	-2.923	-2.475	691.406
2.724	2.404	2.043	1.535	2.771	1.796	0.968	1.225	-1.605	-0.948	-1.967	-3.925	2.090	0.615	0.405	0.561	-2.239	0.777	1.703	0.254	2.458	2.029	1.186	0.478	-2.950	-1.764	-2.360	-2.058	695.312
2.337	2.081	1.527	1.284	2.732	1.646	1.531	1.323	-1.233	-0.034	-1.289	-3.210	2.818	0.815	0.238	0.120	-2.659	0.356	1.384	-0.110	2.358	1.842	0.975	0.794	-2.858	-1.455	-1.745	-1.598	699.219
1.839	1.760	1.026	1.067	2.709	1.525	2.073	1.403	-0.891	0.831	-0.608	-2.475	3.501	1.036	0.154	-0.224	-3.056	-0.120	1.081	-0.386	2.300	1.669	0.790	1.109	-2.806	-1.181	-1.144	-1.143	703.125
1.306	1.477	0.604	0.910	2.704	1.443	2.555	1.460	-0.603	1.586	0.033	-1.769	4.085	1.257	0.145	-0.450	-3.390	-0.603	0.808	-0.557	2.287	1.517	0.641	1.385	-2.822	-0.989	-0.620	-0.739	707.031
0.832	1.261	0.310	0.828	2.716	1.400	2.941	1.491	-0.393	2.181	0.592	-1.133	4.534	1.462	0.191	-0.554	-3.629	-1.042	0.578	-0.620	2.316	1.393	0.536	1.588	-2.929	-0.916	-0.230	-0.426	710.938
0.502	1.129	0.170	0.822	2.739	1.390	3.200	1.487	-0.285	2.579	1.036	-0.600	4.826	1.637	0.270	-0.545	-3.754	-1.380	0.402	-0.581	2.383	1.300	0.475	1.696	-3.141	-0.981	-0.010	-0.227	714.844
0.383	1.084	0.188	0.885	2.769	1.403	3.312	1.442	-0.297	2.760	1.336	-0.193	4.956	1.774	0.358	-0.442	-3.756	-1.573	0.288	-0.460	2.482	1.245	0.458	1.704	-3.453	-1.187	0.024	-0.150	718.750
0.507	1.119	0.343	1.001	2.800	1.427	3.269	1.353	-0.442	2.719	1.472	0.074	4.935	1.871	0.438	-0.270	-3.641	-1.592	0.244	-0.277	2.607	1.233	0.481	1.616	-3.846	-1.513	-0.121	-0.186	722.656
0.868	1.221	0.604	1.151	2.830	1.454	3.075	1.215	-0.721	2.466	1.440	0.196	4.782	1.930	0.504	-0.055	-3.423	-1.432	0.277	-0.055	2.753	1.268	0.541	1.451	-4.284	-1.926	-0.418	-0.315	726.562
1.420	1.375	0.930	1.319	2.858	1.478	2.747	1.029	-1.121	2.027	1.246	0.176	4.523	1.954	0.560	0.182	-3.123	-1.113	0.390	0.187	2.914	1.355	0.636	1.235	-4.725	-2.384	-0.823	-0.511	730.469
2.088	1.568	1.284	1.493	2.887	1.501	2.317	0.802	-1.612	1.444	0.915	0.025	4.188	1.951	0.617	0.426	-2.768	-0.678	0.584	0.436	3.087	1.494	0.759	0.997	-5.127	-2.846	-1.285	-0.747	734.375
2.781	1.790	1.629	1.666	2.921	1.523	1.825	0.545	-2.151	0.767	0.482	-0.237	3.809	1.926	0.694	0.668	-2.385	-0.184	0.853	0.682	3.269	1.681	0.906	0.762	-5.459	-3.277	-1.753	-1.001	738.281
3.407	2.029	1.937	1.835	2.962	1.550	1.320	0.272	-2.685	0.058	-0.001	-0.580	3.417	1.888	0.808	0.906	-2.002	0.308	1.182	0.919	3.454	1.906	1.067	0.554	-5.705	-3.649	-2.178	-1.254	742.188
3.888	2.270	2.181	1.994	3.011	1.582	0.851	0.006	-3.160	-0.619	-0.480	-0.966	3.048	1.849	0.965	1.136	-1.643	0.741	1.548	1.138	3.637	2.154	1.234	0.389	-5.865	-3.948	-2.523	-1.490	746.094
4.170	2.495	2.343	2.134	3.064	1.615	0.466	-0.234	-3.525	-1.202	-0.898	-1.351	2.730	1.820	1.163	1.356	-1.329	1.073	1.920	1.330	3.809	2.403	1.393	0.278	-5.950	-4.163	-2.760	-1.692	750.000
4.233	2.679	2.407	2.241	3.113	1.640	0.202	-0.427	-3.741	-1.636	-1.203	-1.689	2.493	1.813	1.379	1.555	-1.076	1.275	2.264	1.482	3.958	2.631	1.532	0.225	-5.977	-4.289	-2.876	-1.842	753.906
4.090	2.796	2.364	2.297	3.146	1.648	0.084	-0.557	-3.786	-1.883	-1.360	-1.937	2.359	1.837	1.582	1.721	-0.897	1.333	2.548	1.581	4.075	2.816	1.637	0.231	-5.962	-4.323	-2.865	-1.920	757.812
3.782	2.820	2.216	2.283	3.152	1.624	0.118	-0.615	-3.660	-1.919	-1.349	-2.061	2.342	1.898	1.732	1.837	-0.800	1.251	2.743	1.612	4.150	2.938	1.697	0.291	-5.917	-4.262	-2.733	-1.906	761.719
3.370	2.735	1.975	2.188	3.117	1.559	0.293	-0.602	-3.381	-1.746	-1.171	-2.043	2.446	1.993	1.787	1.884	-0.792	1.045	2.830	1.567	4.174	2.986	1.701	0.400	-5.850	-4.110	-2.490	-1.783	765.625
2.927	2.533	1.667	2.006	3.036	1.449	0.581	-0.523	-2.986	-1.384	-0.845	-1.875	2.666	2.117	1.712	1.844	-0.876	0.741	2.803	1.442	4.143	2.959	1.647	0.547	-5.761	-3.873	-2.153	-1.545	769.531
2.523	2.218	1.330	1.747	2.905	1.298	0.943	-0.393	-2.523	-0.871	-0.402	-1.567	2.987	2.255	1.482	1.706	-1.052	0.374	2.668	1.240	4.055	2.861	1.537	0.724	-5.655	-3.564	-1.738	-1.195	773.438
2.217	1.807	1.003	1.429	2.728	1.117	1.335	-0.229	-2.043	-0.253	0.121	-1.141	3.388	2.392	1.090	1.464	-1.316	-0.018	2.440	0.971	3.911	2.704	1.376	0.917	-5.534	-3.201	-1.264	-0.746	777.344
2.049	1.322	0.721	1.075	2.513	0.923	1.719	-0.045	-1.590	0.424	0.689	-0.621	3.842	2.511	0.539	1.121	-1.664	-0.403	2.137	0.645	3.712	2.502	1.174	1.118	-5.404	-2.806	-0.746	-0.218	781.250
2.033	0.788	0.510	0.709	2.272	0.730	2.065	0.143	-1.195	1.121	1.274	-0.035	4.328	2.602	-0.151	0.687	-2.087	-0.757	1.783	0.276	3.464	2.271	0.943	1.318	-5.273	-2.397	-0.198	0.368	785.156
2.156	0.227	0.375	0.349	2.014	0.549	2.363	0.329	-0.868	1.813	1.858	0.590	4.826	2.659	-0.952	0.179	-2.569	-1.070	1.397	-0.122	3.176	2.023	0.692	1.514	-5.145	-1.988	0.369	0.990	789.062
2.382	-0.343	0.304	0.003	1.749	0.383	2.615	0.509	-0.601	2.488	2.433	1.234	5.324	2.689	-1.829	-0.379	-3.093	-1.346	0.998	-0.537	2.860	1.769	0.433	1.704	-5.023	-1.587	0.947	1.630	792.969
2.660	-0.912	0.270	-0.329	1.483	0.229	2.836	0.681	-0.370	3.144	2.995	1.878	5.817	2.701	-2.737	-0.959	-3.634	-1.598	0.600	-0.956	2.533	1.518	0.173	1.890	-4.903	-1.193	1.530	2.274	796.875
