FP1	F3	F7	FC3	C3	C5	P3	P7	PO7	PO3	O1	Oz	Pz	CPz	FP2	Fz	F4	F8	FC4	FCz	Cz	C4	C6	P4	P8	PO8	PO4	O2	time
1.410	1.371	-0.233	0.536	-0.400	0.067	-1.076	-1.096	-1.931	-1.665	-1.661	-1.968	-0.418	-0.039	1.465	1.249	0.587	1.123	0.689	1.195	0.819	0.664	0.583	-0.020	-0.139	-0.549	-1.158	-1.205	-199.219
1.136	1.061	-0.163	0.475	-0.366	-0.012	-0.914	-0.997	-1.624	-1.408	-1.390	-1.691	-0.241	0.009	1.233	1.082	0.605	1.145	0.615	1.057	0.719	0.547	0.578	0.047	-0.066	-0.486	-0.964	-1.053	-195.312
0.889	0.773	-0.100	0.412	-0.336	-0.086	-0.760	-0.903	-1.340	-1.159	-1.128	-1.420	-0.077	0.057	1.026	0.927	0.608	1.140	0.529	0.927	0.630	0.425	0.560	0.105	-0.004	-0.428	-0.779	-0.901	-191.406
0.689	0.524	-0.047	0.344	-0.312	-0.147	-0.619	-0.821	-1.102	-0.925	-0.887	-1.159	0.065	0.107	0.854	0.794	0.579	1.088	0.424	0.812	0.562	0.299	0.525	0.149	0.041	-0.373	-0.607	-0.748	-187.500
0.554	0.323	-0.007	0.268	-0.293	-0.192	-0.496	-0.753	-0.927	-0.714	-0.672	-0.911	0.174	0.156	0.723	0.684	0.510	0.981	0.296	0.713	0.518	0.169	0.467	0.176	0.069	-0.322	-0.455	-0.594	-183.594
0.486	0.169	0.020	0.184	-0.281	-0.217	-0.395	-0.699	-0.818	-0.533	-0.490	-0.679	0.244	0.201	0.632	0.597	0.403	0.829	0.149	0.630	0.500	0.040	0.388	0.185	0.083	-0.270	-0.327	-0.442	-179.688
0.479	0.059	0.034	0.093	-0.273	-0.223	-0.318	-0.658	-0.772	-0.386	-0.343	-0.466	0.271	0.235	0.573	0.528	0.266	0.651	-0.012	0.557	0.501	-0.084	0.292	0.175	0.088	-0.215	-0.224	-0.297	-175.781
0.516	-0.018	0.038	-0.000	-0.266	-0.208	-0.264	-0.625	-0.776	-0.275	-0.230	-0.277	0.255	0.254	0.536	0.468	0.115	0.472	-0.172	0.489	0.512	-0.195	0.187	0.151	0.092	-0.155	-0.147	-0.168	-171.875
0.573	-0.067	0.037	-0.090	-0.256	-0.175	-0.228	-0.593	-0.812	-0.202	-0.150	-0.114	0.201	0.251	0.507	0.410	-0.034	0.313	-0.315	0.421	0.524	-0.283	0.084	0.118	0.103	-0.088	-0.095	-0.060	-167.969
0.623	-0.096	0.035	-0.168	-0.237	-0.127	-0.203	-0.556	-0.860	-0.166	-0.101	0.016	0.116	0.224	0.475	0.345	-0.163	0.191	-0.425	0.350	0.525	-0.340	-0.003	0.080	0.125	-0.018	-0.065	0.023	-164.062
0.645	-0.108	0.034	-0.224	-0.206	-0.066	-0.179	-0.509	-0.904	-0.162	-0.081	0.110	0.010	0.174	0.428	0.271	-0.258	0.112	-0.488	0.277	0.509	-0.358	-0.063	0.044	0.158	0.051	-0.053	0.076	-160.156
0.622	-0.105	0.036	-0.250	-0.158	0.004	-0.149	-0.448	-0.929	-0.183	-0.083	0.164	-0.103	0.105	0.363	0.189	-0.309	0.075	-0.494	0.205	0.470	-0.334	-0.087	0.011	0.198	0.113	-0.056	0.100	-156.250
0.550	-0.089	0.036	-0.243	-0.093	0.078	-0.107	-0.374	-0.925	-0.221	-0.106	0.175	-0.211	0.025	0.284	0.105	-0.312	0.073	-0.439	0.141	0.412	-0.265	-0.071	-0.016	0.238	0.158	-0.071	0.095	-152.344
0.436	-0.062	0.031	-0.204	-0.013	0.150	-0.053	-0.291	-0.888	-0.266	-0.141	0.145	-0.302	-0.056	0.201	0.028	-0.268	0.100	-0.330	0.092	0.339	-0.158	-0.017	-0.038	0.269	0.180	-0.094	0.062	-148.438
0.292	-0.027	0.014	-0.139	0.074	0.214	0.011	-0.203	-0.818	-0.310	-0.184	0.078	-0.366	-0.126	0.128	-0.033	-0.183	0.146	-0.178	0.063	0.262	-0.022	0.069	-0.055	0.282	0.172	-0.124	0.005	-144.531
0.137	0.009	-0.020	-0.060	0.157	0.263	0.077	-0.119	-0.720	-0.344	-0.228	-0.013	-0.396	-0.176	0.080	-0.068	-0.071	0.205	-0.002	0.058	0.191	0.131	0.176	-0.067	0.275	0.134	-0.154	-0.071	-140.625
-0.013	0.040	-0.071	0.016	0.224	0.292	0.137	-0.048	-0.600	-0.362	-0.266	-0.114	-0.388	-0.196	0.065	-0.075	0.052	0.270	0.177	0.075	0.137	0.287	0.292	-0.072	0.246	0.071	-0.180	-0.156	-136.719
-0.143	0.058	-0.138	0.074	0.265	0.297	0.183	0.005	-0.468	-0.358	-0.291	-0.205	-0.344	-0.182	0.080	-0.058	0.166	0.333	0.336	0.106	0.108	0.432	0.401	-0.066	0.203	-0.007	-0.194	-0.238	-132.812
-0.245	0.056	-0.213	0.099	0.274	0.278	0.213	0.036	-0.334	-0.331	-0.300	-0.270	-0.264	-0.133	0.114	-0.025	0.256	0.386	0.457	0.141	0.109	0.556	0.491	-0.044	0.153	-0.088	-0.188	-0.305	-128.906
-0.315	0.027	-0.287	0.082	0.249	0.236	0.228	0.045	-0.205	-0.279	-0.288	-0.293	-0.156	-0.053	0.152	0.010	0.306	0.418	0.527	0.169	0.136	0.648	0.552	-0.001	0.106	-0.160	-0.154	-0.342	-125.000
-0.358	-0.028	-0.353	0.022	0.196	0.178	0.233	0.040	-0.085	-0.201	-0.250	-0.266	-0.027	0.049	0.172	0.032	0.309	0.417	0.541	0.177	0.183	0.704	0.575	0.067	0.069	-0.212	-0.089	-0.341	-121.094
-0.383	-0.108	-0.401	-0.074	0.126	0.111	0.239	0.029	0.027	-0.098	-0.184	-0.185	0.113	0.162	0.160	0.027	0.262	0.375	0.498	0.155	0.235	0.723	0.558	0.157	0.045	-0.240	0.006	-0.297	-117.188
-0.402	-0.205	-0.428	-0.191	0.052	0.047	0.255	0.023	0.137	0.030	-0.088	-0.055	0.252	0.269	0.104	-0.014	0.169	0.287	0.406	0.098	0.278	0.705	0.505	0.264	0.033	-0.241	0.128	-0.209	-113.281
-0.425	-0.308	-0.433	-0.311	-0.011	-0.007	0.290	0.032	0.250	0.181	0.039	0.113	0.379	0.359	0.006	-0.093	0.040	0.155	0.275	0.007	0.295	0.653	0.421	0.378	0.029	-0.217	0.266	-0.085	-109.375
-0.459	-0.404	-0.421	-0.413	-0.054	-0.043	0.346	0.060	0.371	0.349	0.190	0.302	0.486	0.421	-0.126	-0.203	-0.114	-0.010	0.119	-0.109	0.278	0.570	0.316	0.485	0.024	-0.173	0.408	0.065	-105.469
-0.505	-0.480	-0.397	-0.481	-0.072	-0.059	0.419	0.106	0.499	0.526	0.354	0.493	0.562	0.447	-0.278	-0.331	-0.276	-0.193	-0.047	-0.236	0.222	0.463	0.200	0.571	0.013	-0.115	0.541	0.226	-101.562
-0.557	-0.527	-0.367	-0.503	-0.064	-0.056	0.501	0.160	0.625	0.697	0.516	0.662	0.605	0.438	-0.429	-0.460	-0.427	-0.374	-0.207	-0.358	0.132	0.337	0.081	0.624	-0.007	-0.049	0.651	0.379	-97.656
-0.603	-0.539	-0.335	-0.478	-0.038	-0.042	0.577	0.210	0.738	0.845	0.658	0.792	0.611	0.398	-0.559	-0.571	-0.549	-0.532	-0.347	-0.457	0.018	0.200	-0.032	0.636	-0.033	0.021	0.729	0.510	-93.750
-0.634	-0.515	-0.305	-0.414	-0.005	-0.027	0.631	0.240	0.822	0.954	0.766	0.866	0.582	0.334	-0.652	-0.650	-0.627	-0.649	-0.452	-0.521	-0.105	0.062	-0.132	0.605	-0.059	0.092	0.769	0.603	-89.844
-0.639	-0.463	-0.275	-0.323	0.022	-0.021	0.648	0.236	0.862	1.009	0.825	0.878	0.522	0.258	-0.698	-0.687	-0.652	-0.713	-0.514	-0.543	-0.220	-0.067	-0.214	0.537	-0.075	0.167	0.772	0.653	-85.938
-0.613	-0.392	-0.245	-0.225	0.031	-0.037	0.618	0.190	0.849	1.001	0.831	0.828	0.440	0.178	-0.692	-0.678	-0.622	-0.720	-0.527	-0.525	-0.312	-0.178	-0.274	0.441	-0.073	0.244	0.745	0.659	-82.031
-0.556	-0.314	-0.209	-0.135	0.015	-0.081	0.540	0.103	0.779	0.930	0.782	0.725	0.342	0.100	-0.637	-0.627	-0.544	-0.671	-0.493	-0.475	-0.374	-0.264	-0.311	0.332	-0.047	0.326	0.697	0.626	-78.125
-0.473	-0.240	-0.165	-0.065	-0.030	-0.155	0.416	-0.019	0.659	0.801	0.686	0.582	0.239	0.030	-0.539	-0.542	-0.428	-0.580	-0.421	-0.404	-0.401	-0.320	-0.326	0.222	0.002	0.408	0.637	0.563	-74.219
-0.371	-0.176	-0.107	-0.020	-0.099	-0.252	0.258	-0.159	0.501	0.629	0.553	0.416	0.139	-0.031	-0.406	-0.434	-0.292	-0.460	-0.323	-0.325	-0.397	-0.345	-0.321	0.121	0.066	0.483	0.574	0.482	-70.312
-0.257	-0.124	-0.033	0.002	-0.181	-0.361	0.083	-0.297	0.325	0.431	0.397	0.244	0.045	-0.083	-0.249	-0.314	-0.150	-0.329	-0.213	-0.248	-0.369	-0.345	-0.300	0.036	0.132	0.540	0.511	0.391	-66.406
-0.138	-0.080	0.055	0.010	-0.260	-0.461	-0.091	-0.411	0.150	0.229	0.230	0.079	-0.037	-0.126	-0.082	-0.192	-0.017	-0.205	-0.108	-0.181	-0.325	-0.327	-0.270	-0.034	0.180	0.563	0.448	0.298	-62.500
-0.023	-0.039	0.154	0.016	-0.317	-0.532	-0.245	-0.479	0.001	0.042	0.069	-0.067	-0.107	-0.161	0.082	-0.078	0.097	-0.103	-0.019	-0.123	-0.274	-0.300	-0.240	-0.090	0.195	0.540	0.382	0.206	-58.594
0.082	0.008	0.256	0.032	-0.334	-0.557	-0.359	-0.484	-0.104	-0.111	-0.075	-0.184	-0.163	-0.188	0.226	0.024	0.183	-0.038	0.045	-0.077	-0.225	-0.273	-0.220	-0.139	0.167	0.465	0.307	0.120	-54.688
0.168	0.066	0.351	0.066	-0.299	-0.523	-0.422	-0.416	-0.147	-0.217	-0.189	-0.265	-0.206	-0.206	0.330	0.108	0.238	-0.018	0.082	-0.038	-0.182	-0.253	-0.215	-0.188	0.092	0.338	0.218	0.040	-50.781
0.226	0.135	0.429	0.121	-0.207	-0.429	-0.428	-0.274	-0.121	-0.269	-0.263	-0.306	-0.234	-0.214	0.379	0.173	0.263	-0.051	0.095	-0.006	-0.152	-0.243	-0.232	-0.241	-0.021	0.173	0.114	-0.028	-46.875
0.251	0.209	0.481	0.191	-0.064	-0.282	-0.376	-0.066	-0.022	-0.264	-0.289	-0.302	-0.250	-0.213	0.358	0.214	0.259	-0.135	0.091	0.018	-0.138	-0.242	-0.269	-0.300	-0.157	-0.009	-0.001	-0.081	-42.969
0.237	0.277	0.504	0.267	0.111	-0.100	-0.276	0.191	0.143	-0.208	-0.264	-0.253	-0.252	-0.204	0.262	0.228	0.231	-0.264	0.079	0.028	-0.146	-0.249	-0.321	-0.364	-0.296	-0.183	-0.121	-0.114	-39.062
0.182	0.326	0.496	0.332	0.295	0.094	-0.145	0.473	0.358	-0.111	-0.187	-0.161	-0.243	-0.190	0.096	0.213	0.186	-0.423	0.067	0.017	-0.179	-0.258	-0.380	-0.429	-0.414	-0.320	-0.234	-0.120	-35.156
0.088	0.342	0.462	0.373	0.460	0.273	-0.001	0.755	0.602	0.015	-0.066	-0.033	-0.226	-0.176	-0.126	0.164	0.129	-0.591	0.060	-0.022	-0.243	-0.268	-0.434	-0.489	-0.496	-0.402	-0.326	-0.098	-31.250
-0.035	0.318	0.410	0.379	0.581	0.414	0.133	1.010	0.852	0.154	0.090	0.120	-0.205	-0.169	-0.374	0.080	0.065	-0.742	0.058	-0.098	-0.340	-0.277	-0.476	-0.538	-0.529	-0.415	-0.388	-0.045	-27.344
-0.176	0.254	0.349	0.345	0.637	0.500	0.238	1.219	1.082	0.290	0.265	0.285	-0.186	-0.175	-0.616	-0.035	-0.003	-0.853	0.057	-0.211	-0.468	-0.288	-0.504	-0.573	-0.512	-0.364	-0.412	0.032	-23.438
-0.319	0.160	0.289	0.272	0.621	0.522	0.299	1.368	1.272	0.406	0.440	0.441	-0.176	-0.200	-0.818	-0.173	-0.072	-0.904	0.052	-0.358	-0.622	-0.303	-0.516	-0.590	-0.447	-0.259	-0.398	0.126	-19.531
-0.448	0.050	0.240	0.171	0.533	0.481	0.305	1.452	1.406	0.491	0.593	0.572	-0.181	-0.249	-0.952	-0.322	-0.138	-0.884	0.040	-0.527	-0.795	-0.326	-0.514	-0.592	-0.345	-0.124	-0.351	0.223	-15.625
-0.546	-0.058	0.207	0.054	0.384	0.385	0.257	1.474	1.478	0.534	0.709	0.660	-0.207	-0.324	-1.001	-0.465	-0.195	-0.795	0.019	-0.703	-0.975	-0.355	-0.502	-0.579	-0.217	0.018	-0.276	0.312	-11.719
-0.606	-0.148	0.192	-0.068	0.193	0.250	0.158	1.443	1.484	0.531	0.776	0.696	-0.259	-0.425	-0.961	-0.589	-0.239	-0.649	-0.012	-0.872	-1.151	-0.388	-0.481	-0.555	-0.075	0.147	-0.185	0.381	-7.812
-0.622	-0.211	0.193	-0.183	-0.020	0.094	0.018	1.372	1.432	0.482	0.787	0.678	-0.341	-0.548	-0.843	-0.680	-0.265	-0.465	-0.051	-1.017	-1.315	-0.420	-0.451	-0.523	0.074	0.251	-0.087	0.424	-3.906
-0.599	-0.244	0.204	-0.282	-0.234	-0.067	-0.150	1.274	1.330	0.393	0.748	0.612	-0.451	-0.687	-0.670	-0.733	-0.269	-0.269	-0.093	-1.128	-1.458	-0.447	-0.411	-0.482	0.224	0.330	0.012	0.443	0.000
-0.546	-0.249	0.220	-0.363	-0.433	-0.217	-0.332	1.159	1.189	0.275	0.667	0.512	-0.585	-0.834	-0.473	-0.746	-0.248	-0.084	-0.134	-1.198	-1.577	-0.462	-0.360	-0.432	0.375	0.389	0.106	0.443	3.906
-0.473	-0.233	0.233	-0.422	-0.601	-0.346	-0.514	1.035	1.020	0.139	0.557	0.394	-0.734	-0.976	-0.280	-0.722	-0.201	0.071	-0.166	-1.223	-1.667	-0.462	-0.297	-0.373	0.526	0.442	0.190	0.432	7.812
-0.393	-0.204	0.238	-0.460	-0.730	-0.449	-0.683	0.903	0.828	-0.006	0.432	0.272	-0.888	-1.103	-0.116	-0.666	-0.131	0.182	-0.181	-1.203	-1.725	-0.443	-0.222	-0.304	0.679	0.496	0.262	0.417	11.719
-0.311	-0.167	0.235	-0.475	-0.813	-0.526	-0.831	0.765	0.619	-0.150	0.304	0.160	-1.033	-1.201	0.007	-0.582	-0.039	0.245	-0.174	-1.141	-1.750	-0.407	-0.142	-0.227	0.830	0.559	0.317	0.405	15.625
-0.232	-0.124	0.226	-0.463	-0.848	-0.576	-0.950	0.619	0.394	-0.289	0.178	0.064	-1.157	-1.262	0.087	-0.478	0.070	0.262	-0.139	-1.042	-1.741	-0.359	-0.064	-0.149	0.972	0.625	0.352	0.394	19.531
-0.155	-0.073	0.217	-0.422	-0.833	-0.602	-1.036	0.468	0.157	-0.417	0.058	-0.013	-1.249	-1.284	0.132	-0.357	0.188	0.243	-0.081	-0.913	-1.700	-0.308	-0.003	-0.079	1.097	0.685	0.363	0.382	23.438
-0.077	-0.009	0.216	-0.349	-0.772	-0.605	-1.087	0.316	-0.083	-0.529	-0.053	-0.073	-1.303	-1.269	0.152	-0.228	0.305	0.199	-0.010	-0.769	-1.634	-0.267	0.027	-0.029	1.193	0.727	0.348	0.366	27.344
0.003	0.075	0.228	-0.244	-0.671	-0.587	-1.106	0.174	-0.314	-0.622	-0.152	-0.116	-1.318	-1.227	0.159	-0.102	0.408	0.142	0.060	-0.627	-1.557	-0.249	0.013	-0.008	1.252	0.740	0.310	0.344	31.250
0.086	0.178	0.258	-0.112	-0.539	-0.549	-1.093	0.053	-0.518	-0.689	-0.236	-0.147	-1.301	-1.173	0.158	0.013	0.484	0.081	0.113	-0.504	-1.482	-0.264	-0.051	-0.021	1.272	0.719	0.253	0.315	35.156
0.169	0.301	0.304	0.038	-0.393	-0.493	-1.055	-0.033	-0.674	-0.724	-0.299	-0.167	-1.262	-1.122	0.149	0.104	0.522	0.021	0.135	-0.416	-1.425	-0.315	-0.161	-0.070	1.253	0.664	0.188	0.281	39.062
0.249	0.435	0.363	0.195	-0.247	-0.424	-0.999	-0.072	-0.762	-0.724	-0.336	-0.183	-1.218	-1.089	0.129	0.165	0.517	-0.037	0.119	-0.373	-1.400	-0.399	-0.306	-0.146	1.202	0.584	0.123	0.244	42.969
0.324	0.572	0.427	0.344	-0.119	-0.347	-0.932	-0.054	-0.767	-0.691	-0.343	-0.203	-1.189	-1.089	0.096	0.192	0.471	-0.093	0.065	-0.377	-1.415	-0.505	-0.465	-0.242	1.128	0.492	0.064	0.204	46.875
0.390	0.696	0.492	0.473	-0.025	-0.268	-0.863	0.024	-0.679	-0.630	-0.319	-0.237	-1.197	-1.130	0.051	0.188	0.392	-0.147	-0.021	-0.423	-1.472	-0.619	-0.619	-0.343	1.045	0.402	0.017	0.159	50.781
0.446	0.795	0.553	0.570	0.022	-0.195	-0.804	0.165	-0.499	-0.552	-0.265	-0.292	-1.262	-1.221	-0.004	0.158	0.291	-0.200	-0.130	-0.500	-1.571	-0.727	-0.750	-0.439	0.968	0.334	-0.020	0.108	54.688
0.492	0.852	0.609	0.623	0.013	-0.138	-0.762	0.367	-0.230	-0.470	-0.182	-0.374	-1.401	-1.367	-0.063	0.108	0.180	-0.252	-0.251	-0.600	-1.709	-0.823	-0.845	-0.526	0.914	0.308	-0.049	0.055	58.594
0.526	0.856	0.662	0.626	-0.057	-0.103	-0.743	0.629	0.122	-0.396	-0.071	-0.477	-1.627	-1.573	-0.121	0.041	0.066	-0.304	-0.380	-0.715	-1.885	-0.908	-0.905	-0.604	0.901	0.344	-0.075	0.007	62.500
0.545	0.798	0.713	0.573	-0.188	-0.097	-0.750	0.956	0.552	-0.338	0.075	-0.590	-1.945	-1.846	-0.179	-0.045	-0.051	-0.362	-0.519	-0.846	-2.105	-0.994	-0.939	-0.679	0.946	0.464	-0.103	-0.023	66.406
0.538	0.674	0.760	0.460	-0.376	-0.120	-0.775	1.353	1.061	-0.293	0.266	-0.688	-2.354	-2.186	-0.246	-0.162	-0.182	-0.432	-0.677	-1.006	-2.376	-1.102	-0.967	-0.763	1.062	0.684	-0.134	-0.014	70.312
0.490	0.484	0.799	0.286	-0.611	-0.169	-0.806	1.833	1.658	-0.248	0.522	-0.738	-2.838	-2.595	-0.337	-0.325	-0.342	-0.528	-0.870	-1.213	-2.712	-1.257	-1.010	-0.870	1.258	1.015	-0.168	0.057	74.219
0.380	0.229	0.819	0.051	-0.883	-0.235	-0.821	2.406	2.352	-0.181	0.865	-0.702	-3.374	-3.063	-0.473	-0.556	-0.554	-0.663	-1.115	-1.490	-3.121	-1.483	-1.091	-1.010	1.532	1.459	-0.200	0.212	78.125
0.185	-0.085	0.808	-0.243	-1.175	-0.311	-0.796	3.077	3.151	-0.061	1.319	-0.542	-3.925	-3.576	-0.676	-0.873	-0.838	-0.849	-1.429	-1.858	-3.610	-1.793	-1.225	-1.187	1.875	2.004	-0.219	0.471	82.031
-0.111	-0.450	0.753	-0.592	-1.473	-0.389	-0.706	3.839	4.054	0.142	1.898	-0.230	-4.445	-4.104	-0.963	-1.286	-1.207	-1.095	-1.819	-2.328	-4.172	-2.187	-1.418	-1.394	2.266	2.628	-0.215	0.842	85.938
-0.515	-0.858	0.640	-0.987	-1.759	-0.464	-0.533	4.665	5.037	0.451	2.601	0.248	-4.880	-4.611	-1.340	-1.794	-1.665	-1.404	-2.280	-2.896	-4.785	-2.648	-1.663	-1.614	2.681	3.295	-0.174	1.320	89.844
-1.014	-1.298	0.463	-1.413	-2.018	-0.534	-0.270	5.508	6.056	0.875	3.403	0.879	-5.180	-5.049	-1.799	-2.377	-2.196	-1.766	-2.791	-3.536	-5.411	-3.138	-1.939	-1.819	3.089	3.962	-0.083	1.886	93.750
-1.580	-1.755	0.222	-1.850	-2.234	-0.600	0.077	6.304	7.041	1.406	4.257	1.628	-5.298	-5.370	-2.319	-2.998	-2.769	-2.163	-3.317	-4.205	-5.998	-3.605	-2.218	-1.973	3.457	4.577	0.064	2.503	97.656
-2.165	-2.209	-0.078	-2.271	-2.390	-0.664	0.490	6.978	7.908	2.015	5.095	2.433	-5.203	-5.526	-2.858	-3.605	-3.336	-2.565	-3.809	-4.842	-6.488	-3.993	-2.468	-2.046	3.753	5.084	0.266	3.123	101.562
-2.710	-2.634	-0.419	-2.641	-2.472	-0.725	0.936	7.452	8.568	2.657	5.839	3.219	-4.881	-5.480	-3.361	-4.139	-3.840	-2.932	-4.212	-5.379	-6.818	-4.248	-2.659	-2.012	3.942	5.425	0.510	3.685	105.469
-3.152	-2.994	-0.775	-2.925	-2.468	-0.785	1.382	7.662	8.941	3.275	6.408	3.900	-4.343	-5.210	-3.765	-4.538	-4.221	-3.224	-4.473	-5.747	-6.936	-4.331	-2.768	-1.862	3.992	5.544	0.772	4.123	109.375
-3.433	-3.251	-1.112	-3.085	-2.367	-0.840	1.791	7.561	8.967	3.811	6.734	4.395	-3.618	-4.713	-4.004	-4.745	-4.423	-3.398	-4.547	-5.886	-6.803	-4.218	-2.783	-1.608	3.876	5.392	1.011	4.375	113.281
-3.508	-3.365	-1.392	-3.092	-2.164	-0.885	2.133	7.129	8.614	4.211	6.768	4.639	-2.753	-4.009	-4.024	-4.719	-4.403	-3.424	-4.402	-5.756	-6.401	-3.908	-2.699	-1.276	3.569	4.933	1.183	4.385	117.188
-3.349	-3.300	-1.579	-2.925	-1.860	-0.911	2.383	6.373	7.880	4.431	6.487	4.592	-1.809	-3.133	-3.792	-4.436	-4.136	-3.285	-4.025	-5.339	-5.735	-3.417	-2.522	-0.910	3.063	4.154	1.241	4.116	121.094
-2.953	-3.036	-1.643	-2.577	-1.461	-0.910	2.529	5.330	6.802	4.447	5.900	4.240	-0.851	-2.138	-3.299	-3.898	-3.622	-2.981	-3.425	-4.646	-4.833	-2.776	-2.264	-0.559	2.362	3.067	1.144	3.557	125.000
-2.341	-2.569	-1.567	-2.061	-0.982	-0.876	2.563	4.060	5.442	4.250	5.044	3.602	0.055	-1.084	-2.568	-3.129	-2.882	-2.530	-2.630	-3.713	-3.744	-2.028	-1.941	-0.269	1.493	1.718	0.870	2.722	128.906
-1.557	-1.923	-1.349	-1.409	-0.448	-0.807	2.489	2.647	3.890	3.853	3.978	2.727	0.850	-0.037	-1.649	-2.178	-1.961	-1.964	-1.685	-2.601	-2.535	-1.219	-1.576	-0.075	0.504	0.183	0.417	1.658	132.812
-0.663	-1.142	-1.008	-0.669	0.109	-0.705	2.313	1.186	2.255	3.285	2.783	1.683	1.483	0.938	-0.615	-1.115	-0.925	-1.324	-0.653	-1.390	-1.284	-0.396	-1.192	0.005	-0.533	-1.431	-0.194	0.436	136.719
0.263	-0.293	-0.577	0.097	0.653	-0.580	2.049	-0.219	0.655	2.588	1.549	0.553	1.915	1.782	0.446	-0.024	0.146	-0.657	0.393	-0.172	-0.076	0.395	-0.809	-0.027	-1.532	-2.999	-0.914	-0.851	140.625
1.136	0.542	-0.103	0.822	1.143	-0.446	1.712	-1.467	-0.793	1.816	0.367	-0.571	2.121	2.444	1.437	1.002	1.163	-0.013	1.378	0.959	1.005	1.112	-0.448	-0.150	-2.399	-4.385	-1.676	-2.098	144.531
1.874	1.279	0.358	1.438	1.539	-0.318	1.325	-2.468	-1.979	1.030	-0.673	-1.602	2.094	2.887	2.267	1.872	2.038	0.563	2.225	1.911	1.882	1.720	-0.124	-0.328	-3.044	-5.462	-2.397	-3.198	148.438
2.404	1.838	0.753	1.887	1.807	-0.215	0.915	-3.149	-2.811	0.292	-1.492	-2.459	1.841	3.089	2.853	2.502	2.690	1.029	2.867	2.605	2.493	2.187	0.149	-0.516	-3.391	-6.119	-2.993	-4.054	152.344
2.666	2.153	1.032	2.121	1.923	-0.153	0.513	-3.462	-3.226	-0.335	-2.028	-3.073	1.390	3.044	3.137	2.826	3.052	1.350	3.252	2.979	2.794	2.491	0.359	-0.669	-3.387	-6.281	-3.382	-4.583	156.250
2.624	2.178	1.155	2.112	1.871	-0.146	0.154	-3.393	-3.189	-0.795	-2.236	-3.394	0.781	2.762	3.083	2.800	3.081	1.500	3.344	2.995	2.764	2.617	0.497	-0.743	-3.009	-5.908	-3.499	-4.726	160.156
2.267	1.894	1.094	1.849	1.650	-0.209	-0.129	-2.956	-2.704	-1.043	-2.094	-3.386	0.066	2.270	2.684	2.410	2.761	1.459	3.132	2.643	2.404	2.561	0.556	-0.708	-2.269	-5.005	-3.298	-4.452	164.062
1.609	1.307	0.837	1.338	1.266	-0.351	-0.310	-2.198	-1.805	-1.048	-1.603	-3.037	-0.696	1.608	1.963	1.671	2.104	1.222	2.631	1.940	1.743	2.330	0.536	-0.544	-1.208	-3.617	-2.759	-3.760	167.969
0.692	0.446	0.384	0.604	0.738	-0.577	-0.370	-1.190	-0.561	-0.802	-0.789	-2.355	-1.448	0.824	0.964	0.626	1.152	0.793	1.877	0.932	0.827	1.946	0.442	-0.248	0.108	-1.823	-1.891	-2.678	171.875
-0.425	-0.635	-0.247	-0.312	0.090	-0.890	-0.307	-0.022	0.936	-0.316	0.299	-1.373	-2.140	-0.030	-0.245	-0.656	-0.027	0.193	0.930	-0.314	-0.279	1.438	0.285	0.168	1.596	0.270	-0.734	-1.261	175.781
-1.667	-1.868	-1.023	-1.361	-0.647	-1.283	-0.132	1.209	2.577	0.375	1.592	-0.143	-2.736	-0.905	-1.581	-2.088	-1.353	-0.547	-0.140	-1.715	-1.499	0.844	0.079	0.680	3.163	2.539	0.652	0.410	179.688
-2.953	-3.175	-1.900	-2.482	-1.439	-1.745	0.131	2.410	4.252	1.219	3.006	1.259	-3.214	-1.753	-2.955	-3.580	-2.735	-1.380	-1.256	-3.181	-2.757	0.205	-0.161	1.254	4.719	4.858	2.183	2.239	183.594
-4.210	-4.477	-2.824	-3.614	-2.250	-2.255	0.452	3.503	5.855	2.152	4.453	2.748	-3.569	-2.536	-4.276	-5.039	-4.087	-2.250	-2.347	-4.624	-3.978	-0.439	-0.422	1.849	6.183	7.106	3.767	4.119	187.500
-5.373	-5.702	-3.737	-4.699	-3.042	-2.788	0.797	4.431	7.300	3.107	5.845	4.232	-3.807	-3.225	-5.466	-6.386	-5.334	-3.100	-3.352	-5.965	-5.099	-1.054	-0.691	2.426	7.490	9.177	5.312	5.944	191.406
-6.394	-6.792	-4.586	-5.688	-3.780	-3.315	1.137	5.165	8.525	4.022	7.112	5.626	-3.945	-3.800	-6.464	-7.560	-6.418	-3.874	-4.223	-7.144	-6.072	-1.612	-0.962	2.947	8.592	10.987	6.733	7.620	195.312
-7.245	-7.708	-5.326	-6.545	-4.436	-3.806	1.452	5.705	9.499	4.849	8.198	6.857	-4.000	-4.251	-7.238	-8.523	-7.301	-4.526	-4.934	-8.123	-6.866	-2.094	-1.227	3.386	9.464	12.479	7.962	9.069	199.219
-7.914	-8.431	-5.925	-7.245	-4.984	-4.234	1.733	6.070	10.218	5.554	9.074	7.874	-3.989	-4.573	-7.780	-9.258	-7.965	-5.032	-5.474	-8.884	-7.468	-2.491	-1.484	3.722	10.099	13.621	8.956	10.239	203.125
-8.403	-8.962	-6.369	-7.783	-5.411	-4.579	1.979	6.298	10.700	6.127	9.729	8.648	-3.923	-4.767	-8.107	-9.770	-8.415	-5.387	-5.850	-9.429	-7.881	-2.805	-1.732	3.951	10.505	14.407	9.695	11.105	207.031
-8.722	-9.317	-6.657	-8.163	-5.710	-4.829	2.199	6.430	10.982	6.572	10.178	9.179	-3.803	-4.838	-8.254	-10.081	-8.672	-5.604	-6.080	-9.778	-8.119	-3.041	-1.973	4.074	10.699	14.851	10.182	11.666	210.938
-8.889	-9.523	-6.807	-8.399	-5.884	-4.982	2.409	6.508	11.110	6.909	10.448	9.484	-3.621	-4.789	-8.265	-10.223	-8.769	-5.713	-6.191	-9.957	-8.203	-3.212	-2.207	4.105	10.707	14.982	10.440	11.945	214.844
-8.922	-9.613	-6.845	-8.514	-5.939	-5.040	2.624	6.563	11.129	7.169	10.572	9.597	-3.362	-4.621	-8.184	-10.232	-8.744	-5.749	-6.212	-10.000	-8.158	-3.328	-2.435	4.059	10.552	14.839	10.503	11.975	218.750
-8.842	-9.622	-6.805	-8.530	-5.891	-5.016	2.858	6.614	11.075	7.378	10.586	9.560	-3.007	-4.337	-8.048	-10.143	-8.635	-5.743	-6.167	-9.937	-8.002	-3.398	-2.652	3.959	10.255	14.461	10.406	11.799	222.656
-8.668	-9.577	-6.721	-8.471	-5.756	-4.922	3.117	6.663	10.973	7.560	10.519	9.413	-2.538	-3.937	-7.878	-9.984	-8.471	-5.716	-6.076	-9.793	-7.754	-3.425	-2.852	3.823	9.834	13.886	10.185	11.458	226.562
-8.416	-9.496	-6.621	-8.353	-5.552	-4.778	3.402	6.697	10.827	7.727	10.389	9.187	-1.948	-3.428	-7.682	-9.776	-8.270	-5.676	-5.950	-9.584	-7.424	-3.408	-3.024	3.671	9.306	13.147	9.868	10.989	230.469
-8.100	-9.389	-6.526	-8.193	-5.297	-4.600	3.698	6.697	10.628	7.875	10.203	8.905	-1.240	-2.820	-7.457	-9.529	-8.039	-5.616	-5.793	-9.321	-7.016	-3.343	-3.156	3.515	8.686	12.275	9.474	10.424	234.375
-7.733	-9.252	-6.445	-7.997	-5.009	-4.407	3.985	6.635	10.358	7.989	9.956	8.581	-0.437	-2.131	-7.188	-9.246	-7.777	-5.518	-5.605	-9.004	-6.536	-3.226	-3.239	3.363	7.991	11.297	9.013	9.786	238.281
-7.326	-9.078	-6.377	-7.772	-4.704	-4.214	4.235	6.489	9.995	8.045	9.641	8.215	0.424	-1.388	-6.865	-8.926	-7.477	-5.362	-5.378	-8.634	-5.985	-3.053	-3.264	3.221	7.244	10.246	8.494	9.097	242.188
-6.889	-8.857	-6.312	-7.520	-4.393	-4.036	4.418	6.244	9.522	8.010	9.244	7.806	1.286	-0.625	-6.477	-8.564	-7.128	-5.130	-5.101	-8.206	-5.371	-2.823	-3.227	3.086	6.473	9.155	7.920	8.372	246.094
-6.436	-8.581	-6.237	-7.240	-4.088	-3.884	4.505	5.894	8.931	7.856	8.757	7.348	2.089	0.120	-6.026	-8.157	-6.720	-4.813	-4.761	-7.717	-4.704	-2.532	-3.124	2.958	5.712	8.065	7.296	7.629	250.000
-5.980	-8.248	-6.140	-6.933	-3.794	-3.764	4.472	5.444	8.225	7.558	8.172	6.835	2.766	0.810	-5.522	-7.703	-6.244	-4.411	-4.343	-7.169	-4.000	-2.176	-2.951	2.833	4.995	7.020	6.633	6.885	253.906
-5.536	-7.862	-6.010	-6.603	-3.519	-3.678	4.308	4.907	7.416	7.103	7.490	6.266	3.264	1.411	-4.984	-7.204	-5.696	-3.933	-3.833	-6.565	-3.279	-1.753	-2.704	2.713	4.358	6.063	5.946	6.156	257.812
-5.119	-7.437	-5.846	-6.251	-3.266	-3.621	4.011	4.302	6.527	6.493	6.720	5.643	3.544	1.901	-4.435	-6.665	-5.078	-3.394	-3.226	-5.916	-2.563	-1.262	-2.383	2.600	3.829	5.229	5.253	5.456	261.719
-4.739	-6.987	-5.651	-5.884	-3.036	-3.586	3.598	3.651	5.588	5.748	5.878	4.973	3.591	2.269	-3.898	-6.095	-4.401	-2.814	-2.528	-5.236	-1.872	-0.705	-1.989	2.501	3.428	4.542	4.578	4.796	265.625
-4.402	-6.531	-5.437	-5.506	-2.827	-3.561	3.096	2.978	4.634	4.904	4.988	4.266	3.420	2.519	-3.395	-5.506	-3.686	-2.212	-1.760	-4.542	-1.222	-0.092	-1.531	2.426	3.162	4.007	3.943	4.181	269.531
-4.109	-6.085	-5.222	-5.122	-2.635	-3.534	2.548	2.308	3.705	4.011	4.084	3.536	3.071	2.672	-2.944	-4.913	-2.961	-1.611	-0.955	-3.852	-0.622	0.561	-1.023	2.385	3.023	3.613	3.369	3.607	273.438
-3.862	-5.666	-5.024	-4.738	-2.450	-3.493	2.002	1.670	2.841	3.128	3.200	2.798	2.607	2.759	-2.558	-4.331	-2.258	-1.034	-0.152	-3.182	-0.072	1.230	-0.483	2.385	2.989	3.331	2.871	3.068	277.344
-3.661	-5.284	-4.862	-4.360	-2.264	-3.431	1.511	1.092	2.082	2.319	2.374	2.072	2.102	2.820	-2.249	-3.777	-1.612	-0.506	0.604	-2.546	0.433	1.890	0.066	2.430	3.030	3.121	2.457	2.553	281.250
-3.513	-4.948	-4.752	-3.993	-2.065	-3.345	1.124	0.602	1.464	1.642	1.645	1.381	1.637	2.893	-2.025	-3.268	-1.056	-0.056	1.274	-1.955	0.903	2.513	0.601	2.521	3.112	2.946	2.129	2.055	285.156
-3.426	-4.665	-4.702	-3.647	-1.847	-3.236	0.883	0.231	1.017	1.145	1.047	0.753	1.282	3.014	-1.894	-2.825	-0.617	0.286	1.826	-1.421	1.346	3.076	1.096	2.654	3.202	2.772	1.886	1.576	289.062
-3.418	-4.442	-4.717	-3.333	-1.605	-3.108	0.817	0.002	0.761	0.862	0.611	0.218	1.094	3.208	-1.866	-2.467	-0.317	0.489	2.241	-0.954	1.767	3.558	1.529	2.821	3.276	2.580	1.727	1.126	292.969
-3.506	-4.287	-4.798	-3.062	-1.340	-2.967	0.941	-0.068	0.708	0.812	0.360	-0.191	1.106	3.485	-1.954	-2.214	-0.166	0.531	2.510	-0.564	2.168	3.949	1.880	3.014	3.321	2.366	1.652	0.725	296.875
-3.707	-4.206	-4.942	-2.848	-1.058	-2.819	1.252	0.026	0.856	0.993	0.304	-0.446	1.329	3.844	-2.167	-2.080	-0.165	0.399	2.637	-0.264	2.543	4.241	2.136	3.223	3.337	2.145	1.659	0.402	300.781
-4.030	-4.207	-5.144	-2.700	-0.772	-2.672	1.731	0.277	1.192	1.386	0.443	-0.529	1.750	4.270	-2.511	-2.073	-0.304	0.103	2.635	-0.063	2.880	4.439	2.290	3.442	3.333	1.940	1.751	0.182	304.688
-4.473	-4.290	-5.400	-2.627	-0.495	-2.532	2.342	0.660	1.688	1.957	0.761	-0.434	2.333	4.738	-2.980	-2.191	-0.563	-0.330	2.524	0.033	3.167	4.546	2.342	3.662	3.327	1.782	1.925	0.087	308.594
-5.022	-4.454	-5.701	-2.629	-0.246	-2.406	3.041	1.140	2.307	2.658	1.230	-0.172	3.029	5.214	-3.552	-2.423	-0.916	-0.855	2.330	0.020	3.392	4.573	2.302	3.879	3.334	1.697	2.177	0.128	312.500
-5.647	-4.691	-6.039	-2.702	-0.037	-2.299	3.775	1.672	3.003	3.434	1.809	0.229	3.783	5.667	-4.195	-2.744	-1.332	-1.418	2.077	-0.094	3.542	4.532	2.186	4.086	3.371	1.707	2.496	0.299	316.406
-6.311	-4.985	-6.399	-2.835	0.120	-2.215	4.494	2.210	3.728	4.229	2.453	0.727	4.538	6.068	-4.865	-3.125	-1.778	-1.964	1.790	-0.295	3.614	4.435	2.010	4.281	3.444	1.819	2.867	0.583	320.312
-6.968	-5.315	-6.762	-3.010	0.222	-2.157	5.155	2.712	4.432	4.987	3.109	1.271	5.242	6.396	-5.517	-3.530	-2.226	-2.449	1.492	-0.564	3.608	4.295	1.795	4.459	3.555	2.030	3.270	0.948	324.219
-7.574	-5.652	-7.107	-3.207	0.273	-2.121	5.725	3.145	5.072	5.662	3.729	1.811	5.854	6.639	-6.110	-3.925	-2.651	-2.845	1.201	-0.873	3.531	4.127	1.559	4.618	3.698	2.321	3.680	1.357	328.125
-8.091	-5.968	-7.410	-3.404	0.284	-2.104	6.184	3.490	5.615	6.220	4.273	2.298	6.345	6.794	-6.612	-4.280	-3.035	-3.143	0.928	-1.197	3.396	3.942	1.318	4.756	3.861	2.666	4.075	1.770	332.031
-8.492	-6.234	-7.650	-3.578	0.270	-2.095	6.528	3.741	6.038	6.640	4.710	2.698	6.698	6.865	-7.004	-4.574	-3.369	-3.348	0.682	-1.511	3.220	3.753	1.087	4.873	4.035	3.031	4.429	2.153	335.938
-8.765	-6.427	-7.812	-3.712	0.246	-2.084	6.761	3.902	6.335	6.918	5.024	2.990	6.907	6.862	-7.285	-4.797	-3.649	-3.479	0.465	-1.796	3.021	3.570	0.878	4.965	4.207	3.384	4.726	2.481	339.844
-8.912	-6.533	-7.888	-3.794	0.228	-2.057	6.895	3.990	6.511	7.062	5.215	3.172	6.976	6.795	-7.464	-4.948	-3.878	-3.557	0.275	-2.041	2.815	3.400	0.701	5.033	4.371	3.698	4.952	2.738	343.750
-8.950	-6.550	-7.883	-3.820	0.223	-2.005	6.948	4.026	6.583	7.094	5.294	3.255	6.916	6.674	-7.560	-5.035	-4.059	-3.604	0.110	-2.242	2.616	3.249	0.565	5.073	4.524	3.951	5.101	2.923	347.656
-8.905	-6.487	-7.808	-3.794	0.235	-1.922	6.939	4.033	6.576	7.041	5.287	3.262	6.745	6.510	-7.595	-5.075	-4.200	-3.634	-0.036	-2.401	2.433	3.117	0.474	5.086	4.667	4.136	5.176	3.045	351.562
-8.810	-6.361	-7.682	-3.726	0.259	-1.806	6.881	4.033	6.515	6.934	5.221	3.220	6.480	6.305	-7.584	-5.082	-4.305	-3.653	-0.167	-2.528	2.266	3.001	0.430	5.069	4.802	4.253	5.184	3.119	355.469
-8.694	-6.198	-7.528	-3.634	0.288	-1.661	6.790	4.045	6.426	6.800	5.129	3.158	6.141	6.063	-7.543	-5.075	-4.379	-3.658	-0.286	-2.632	2.111	2.897	0.431	5.022	4.935	4.317	5.138	3.162	359.375
-8.582	-6.025	-7.369	-3.538	0.310	-1.497	6.675	4.085	6.331	6.660	5.034	3.097	5.747	5.784	-7.477	-5.067	-4.428	-3.639	-0.394	-2.726	1.958	2.796	0.474	4.946	5.069	4.346	5.053	3.192	363.281
-8.491	-5.870	-7.225	-3.458	0.316	-1.326	6.544	4.163	6.245	6.529	4.955	3.048	5.317	5.471	-7.394	-5.069	-4.455	-3.584	-0.492	-2.820	1.795	2.692	0.550	4.842	5.210	4.364	4.946	3.220	367.188
-8.432	-5.753	-7.110	-3.411	0.297	-1.160	6.406	4.283	6.179	6.409	4.897	3.012	4.872	5.129	-7.299	-5.088	-4.465	-3.489	-0.580	-2.919	1.613	2.579	0.649	4.717	5.362	4.398	4.831	3.249	371.094
-8.404	-5.685	-7.030	-3.406	0.253	-1.007	6.267	4.447	6.138	6.300	4.858	2.978	4.433	4.771	-7.203	-5.124	-4.464	-3.357	-0.656	-3.026	1.410	2.457	0.758	4.577	5.526	4.467	4.718	3.279	375.000
-8.405	-5.671	-6.985	-3.445	0.184	-0.876	6.139	4.649	6.125	6.199	4.829	2.936	4.025	4.414	-7.120	-5.177	-4.458	-3.205	-0.722	-3.140	1.187	2.326	0.863	4.433	5.700	4.583	4.616	3.304	378.906
-8.424	-5.705	-6.968	-3.523	0.098	-0.767	6.031	4.878	6.141	6.104	4.803	2.881	3.673	4.082	-7.064	-5.242	-4.456	-3.057	-0.781	-3.257	0.954	2.191	0.949	4.294	5.876	4.748	4.530	3.319	382.812
-8.454	-5.780	-6.971	-3.629	0.003	-0.682	5.954	5.117	6.184	6.021	4.781	2.820	3.403	3.797	-7.047	-5.317	-4.467	-2.941	-0.840	-3.375	0.726	2.056	1.005	4.170	6.042	4.950	4.466	3.326	386.719
-8.488	-5.887	-6.985	-3.751	-0.092	-0.619	5.915	5.346	6.249	5.959	4.769	2.776	3.236	3.580	-7.077	-5.397	-4.499	-2.882	-0.904	-3.489	0.516	1.926	1.022	4.072	6.180	5.172	4.429	3.334	390.625
-8.522	-6.013	-7.007	-3.876	-0.179	-0.577	5.917	5.545	6.330	5.934	4.783	2.783	3.186	3.443	-7.148	-5.478	-4.557	-2.893	-0.978	-3.596	0.339	1.805	1.002	4.006	6.271	5.384	4.422	3.358	394.531
-8.551	-6.149	-7.035	-3.992	-0.252	-0.556	5.957	5.692	6.412	5.956	4.835	2.870	3.254	3.393	-7.245	-5.557	-4.641	-2.973	-1.061	-3.692	0.204	1.697	0.951	3.975	6.299	5.560	4.448	3.409	398.438
-8.571	-6.281	-7.068	-4.088	-0.306	-0.552	6.021	5.773	6.477	6.028	4.932	3.053	3.429	3.425	-7.344	-5.625	-4.743	-3.106	-1.149	-3.770	0.120	1.609	0.881	3.977	6.253	5.669	4.500	3.494	402.344
-8.572	-6.394	-7.103	-4.151	-0.334	-0.562	6.093	5.777	6.503	6.135	5.062	3.320	3.684	3.527	-7.410	-5.674	-4.851	-3.264	-1.230	-3.822	0.091	1.548	0.808	4.004	6.130	5.687	4.565	3.603	406.250
-8.538	-6.472	-7.132	-4.171	-0.328	-0.575	6.151	5.701	6.466	6.251	5.197	3.629	3.983	3.684	-7.411	-5.693	-4.946	-3.409	-1.289	-3.834	0.121	1.521	0.751	4.043	5.932	5.600	4.620	3.709	410.156
-8.452	-6.495	-7.140	-4.136	-0.278	-0.580	6.171	5.551	6.344	6.335	5.292	3.911	4.285	3.877	-7.319	-5.667	-5.010	-3.507	-1.312	-3.796	0.211	1.538	0.727	4.077	5.672	5.395	4.634	3.771	414.062
-8.294	-6.449	-7.107	-4.037	-0.176	-0.561	6.135	5.338	6.125	6.344	5.298	4.087	4.550	4.090	-7.117	-5.588	-5.023	-3.527	-1.283	-3.696	0.364	1.605	0.747	4.089	5.362	5.073	4.573	3.745	417.969
-8.050	-6.322	-7.011	-3.870	-0.015	-0.505	6.029	5.077	5.804	6.240	5.170	4.086	4.745	4.306	-6.800	-5.446	-4.970	-3.451	-1.191	-3.530	0.575	1.728	0.819	4.062	5.015	4.638	4.408	3.592	421.875
-7.712	-6.109	-6.833	-3.636	0.202	-0.401	5.848	4.787	5.391	5.998	4.881	3.860	4.846	4.510	-6.379	-5.242	-4.844	-3.271	-1.034	-3.299	0.837	1.905	0.941	3.983	4.643	4.101	4.120	3.287	425.781
-7.284	-5.817	-6.558	-3.343	0.468	-0.247	5.594	4.485	4.904	5.613	4.426	3.401	4.844	4.688	-5.876	-4.981	-4.645	-2.995	-0.817	-3.015	1.134	2.128	1.104	3.845	4.255	3.480	3.707	2.828	429.688
-6.780	-5.461	-6.184	-3.008	0.766	-0.045	5.279	4.185	4.372	5.101	3.830	2.739	4.740	4.827	-5.321	-4.675	-4.383	-2.641	-0.553	-2.695	1.447	2.383	1.297	3.647	3.857	2.799	3.183	2.240	433.594
-6.227	-5.068	-5.722	-2.652	1.074	0.192	4.919	3.901	3.828	4.500	3.142	1.941	4.551	4.916	-4.753	-4.345	-4.080	-2.235	-0.264	-2.363	1.753	2.649	1.503	3.401	3.457	2.088	2.584	1.565	437.500
-5.658	-4.669	-5.197	-2.302	1.366	0.447	4.538	3.645	3.308	3.860	2.426	1.098	4.301	4.949	-4.213	-4.015	-3.762	-1.811	0.024	-2.049	2.028	2.904	1.705	3.123	3.067	1.385	1.958	0.868	441.406
-5.116	-4.301	-4.646	-1.985	1.615	0.699	4.159	3.425	2.843	3.240	1.755	0.308	4.022	4.925	-3.740	-3.716	-3.461	-1.401	0.285	-1.781	2.250	3.128	1.889	2.841	2.704	0.733	1.366	0.215	445.312
-4.644	-4.002	-4.118	-1.726	1.799	0.923	3.807	3.244	2.457	2.700	1.196	-0.340	3.750	4.850	-3.366	-3.477	-3.207	-1.038	0.496	-1.583	2.402	3.306	2.045	2.590	2.390	0.181	0.869	-0.324	449.219
-4.283	-3.802	-3.662	-1.547	1.906	1.098	3.505	3.100	2.164	2.286	0.801	-0.777	3.520	4.736	-3.114	-3.327	-3.026	-0.751	0.639	-1.474	2.474	3.431	2.169	2.404	2.149	-0.228	0.525	-0.693	453.125
-4.067	-3.725	-3.326	-1.463	1.928	1.209	3.271	2.989	1.969	2.034	0.600	-0.964	3.366	4.602	-2.998	-3.287	-2.936	-0.562	0.709	-1.461	2.467	3.509	2.264	2.319	2.004	-0.458	0.378	-0.852	457.031
-4.016	-3.777	-3.143	-1.476	1.875	1.249	3.122	2.901	1.867	1.960	0.599	-0.895	3.316	4.473	-3.022	-3.366	-2.947	-0.484	0.705	-1.546	2.388	3.551	2.334	2.359	1.968	-0.489	0.452	-0.786	460.938
-4.136	-3.953	-3.129	-1.582	1.763	1.218	3.066	2.829	1.845	2.059	0.779	-0.595	3.384	4.372	-3.179	-3.562	-3.054	-0.522	0.637	-1.714	2.253	3.573	2.383	2.535	2.045	-0.322	0.749	-0.503	464.844
-4.413	-4.233	-3.279	-1.765	1.615	1.130	3.108	2.766	1.888	2.309	1.101	-0.114	3.576	4.322	-3.452	-3.856	-3.247	-0.672	0.519	-1.946	2.085	3.593	2.413	2.841	2.223	0.018	1.240	-0.039	468.750
-4.817	-4.582	-3.564	-1.999	1.461	1.003	3.245	2.707	1.978	2.674	1.512	0.481	3.880	4.337	-3.814	-4.216	-3.502	-0.919	0.370	-2.213	1.908	3.622	2.420	3.251	2.476	0.483	1.873	0.550	472.656
-5.300	-4.959	-3.942	-2.255	1.325	0.861	3.463	2.654	2.099	3.105	1.955	1.113	4.269	4.423	-4.226	-4.598	-3.789	-1.237	0.213	-2.481	1.750	3.669	2.403	3.723	2.765	1.009	2.576	1.192	476.562
-5.807	-5.318	-4.355	-2.501	1.228	0.725	3.742	2.609	2.234	3.552	2.374	1.703	4.704	4.572	-4.641	-4.954	-4.069	-1.592	0.071	-2.716	1.630	3.733	2.358	4.203	3.046	1.524	3.266	1.809	480.469
-6.283	-5.617	-4.749	-2.708	1.181	0.616	4.052	2.578	2.371	3.962	2.720	2.183	5.134	4.766	-5.006	-5.237	-4.304	-1.945	-0.033	-2.888	1.563	3.807	2.283	4.633	3.276	1.960	3.861	2.327	484.375
-6.672	-5.817	-5.071	-2.848	1.186	0.546	4.358	2.564	2.496	4.291	2.960	2.502	5.507	4.975	-5.274	-5.409	-4.459	-2.257	-0.084	-2.975	1.551	3.878	2.182	4.962	3.420	2.263	4.290	2.690	488.281
-6.932	-5.895	-5.281	-2.907	1.236	0.522	4.624	2.569	2.601	4.507	3.078	2.632	5.772	5.162	-5.407	-5.447	-4.508	-2.491	-0.073	-2.968	1.583	3.929	2.060	5.149	3.458	2.403	4.507	2.865	492.188
-7.035	-5.839	-5.354	-2.878	1.318	0.541	4.815	2.592	2.677	4.591	3.076	2.571	5.891	5.291	-5.382	-5.348	-4.440	-2.622	-0.005	-2.872	1.641	3.945	1.924	5.173	3.385	2.376	4.495	2.849	496.094
-6.972	-5.658	-5.285	-2.766	1.411	0.594	4.908	2.625	2.721	4.545	2.973	2.347	5.840	5.328	-5.195	-5.126	-4.263	-2.639	0.104	-2.707	1.696	3.908	1.783	5.034	3.215	2.203	4.271	2.670	500.000
-6.753	-5.377	-5.088	-2.591	1.493	0.666	4.888	2.661	2.732	4.385	2.801	2.010	5.618	5.251	-4.864	-4.816	-4.000	-2.546	0.230	-2.503	1.718	3.811	1.643	4.753	2.977	1.927	3.882	2.378	503.906
-6.409	-5.032	-4.792	-2.379	1.546	0.741	4.758	2.688	2.717	4.144	2.601	1.626	5.247	5.052	-4.425	-4.460	-3.689	-2.364	0.342	-2.297	1.682	3.649	1.509	4.369	2.709	1.605	3.400	2.042	507.812
-5.986	-4.670	-4.442	-2.166	1.550	0.799	4.534	2.700	2.685	3.863	2.415	1.268	4.767	4.740	-3.927	-4.106	-3.376	-2.126	0.410	-2.127	1.568	3.426	1.383	3.931	2.450	1.296	2.907	1.731	511.719
-5.537	-4.335	-4.086	-1.984	1.496	0.822	4.243	2.694	2.648	3.588	2.282	1.003	4.233	4.337	-3.430	-3.800	-3.101	-1.875	0.412	-2.022	1.371	3.152	1.263	3.494	2.239	1.053	2.480	1.508	515.625
-5.118	-4.066	-3.768	-1.863	1.380	0.799	3.920	2.671	2.621	3.356	2.231	0.881	3.706	3.880	-2.990	-3.576	-2.899	-1.653	0.338	-2.001	1.096	2.844	1.148	3.106	2.101	0.911	2.183	1.415	519.531
-4.773	-3.885	-3.525	-1.818	1.208	0.723	3.600	2.638	2.616	3.196	2.275	0.926	3.240	3.408	-2.654	-3.450	-2.787	-1.496	0.193	-2.066	0.760	2.523	1.033	2.803	2.048	0.888	2.051	1.472	523.438
-4.531	-3.800	-3.377	-1.852	0.997	0.598	3.314	2.605	2.643	3.121	2.410	1.132	2.876	2.961	-2.451	-3.424	-2.767	-1.429	-0.006	-2.205	0.389	2.210	0.915	2.606	2.075	0.978	2.086	1.668	527.344
-4.403	-3.801	-3.325	-1.953	0.768	0.437	3.086	2.584	2.706	3.129	2.619	1.466	2.636	2.572	-2.386	-3.482	-2.823	-1.458	-0.232	-2.393	0.014	1.925	0.791	2.516	2.163	1.156	2.258	1.967	531.250
-4.376	-3.862	-3.352	-2.098	0.549	0.261	2.928	2.585	2.806	3.203	2.870	1.871	2.519	2.260	-2.439	-3.596	-2.928	-1.573	-0.455	-2.598	-0.332	1.683	0.659	2.513	2.285	1.382	2.513	2.316	535.156
-4.426	-3.950	-3.426	-2.253	0.362	0.091	2.845	2.613	2.933	3.314	3.126	2.279	2.501	2.033	-2.570	-3.731	-3.050	-1.748	-0.646	-2.785	-0.623	1.493	0.517	2.566	2.408	1.611	2.782	2.654	539.062
-4.515	-4.030	-3.511	-2.388	0.227	-0.052	2.826	2.666	3.075	3.430	3.347	2.621	2.546	1.886	-2.727	-3.852	-3.154	-1.943	-0.782	-2.924	-0.837	1.355	0.370	2.638	2.503	1.800	2.998	2.922	542.969
-4.604	-4.069	-3.568	-2.475	0.153	-0.152	2.857	2.735	3.212	3.518	3.497	2.842	2.609	1.804	-2.859	-3.928	-3.211	-2.117	-0.852	-2.992	-0.965	1.266	0.225	2.692	2.548	1.914	3.107	3.076	546.875
-4.656	-4.049	-3.570	-2.499	0.139	-0.202	2.914	2.803	3.324	3.553	3.555	2.907	2.647	1.768	-2.922	-3.939	-3.203	-2.235	-0.855	-2.982	-1.008	1.218	0.094	2.700	2.534	1.936	3.082	3.091	550.781
-4.646	-3.961	-3.503	-2.456	0.176	-0.203	2.976	2.853	3.392	3.522	3.512	2.809	2.632	1.756	-2.892	-3.879	-3.124	-2.273	-0.799	-2.895	-0.979	1.200	-0.007	2.650	2.462	1.864	2.924	2.970	554.688
-4.559	-3.816	-3.368	-2.359	0.245	-0.163	3.024	2.868	3.404	3.424	3.378	2.570	2.548	1.750	-2.765	-3.754	-2.983	-2.225	-0.703	-2.747	-0.896	1.203	-0.067	2.543	2.345	1.714	2.660	2.737	558.594
-4.396	-3.631	-3.182	-2.224	0.328	-0.097	3.044	2.837	3.354	3.273	3.175	2.233	2.401	1.737	-2.555	-3.580	-2.799	-2.103	-0.590	-2.560	-0.783	1.214	-0.079	2.392	2.200	1.511	2.340	2.435	562.500
-4.167	-3.433	-2.968	-2.077	0.406	-0.018	3.031	2.757	3.245	3.091	2.936	1.852	2.210	1.710	-2.294	-3.379	-2.597	-1.932	-0.482	-2.361	-0.663	1.226	-0.045	2.219	2.050	1.286	2.017	2.113	566.406
-3.894	-3.245	-2.752	-1.940	0.467	0.059	2.987	2.631	3.087	2.908	2.695	1.485	2.005	1.669	-2.018	-3.177	-2.405	-1.746	-0.398	-2.172	-0.556	1.230	0.024	2.047	1.912	1.068	1.745	1.818	570.312
-3.604	-3.085	-2.558	-1.828	0.506	0.126	2.920	2.470	2.893	2.748	2.483	1.179	1.820	1.621	-1.767	-2.995	-2.245	-1.577	-0.350	-2.011	-0.474	1.222	0.112	1.898	1.801	0.880	1.562	1.586	574.219
-3.325	-2.964	-2.397	-1.752	0.524	0.174	2.841	2.290	2.678	2.633	2.324	0.967	1.684	1.575	-1.572	-2.849	-2.135	-1.449	-0.343	-1.890	-0.422	1.201	0.199	1.786	1.723	0.733	1.487	1.437	578.125
-3.081	-2.878	-2.275	-1.709	0.528	0.203	2.761	2.105	2.457	2.572	2.227	0.860	1.617	1.542	-1.455	-2.745	-2.082	-1.375	-0.375	-1.809	-0.395	1.168	0.268	1.718	1.679	0.631	1.517	1.375	582.031
-2.887	-2.817	-2.188	-1.692	0.528	0.214	2.690	1.929	2.244	2.564	2.190	0.853	1.624	1.531	-1.421	-2.680	-2.083	-1.354	-0.437	-1.763	-0.385	1.128	0.306	1.690	1.660	0.566	1.633	1.385	585.938
-2.753	-2.767	-2.129	-1.687	0.534	0.209	2.630	1.774	2.048	2.597	2.202	0.922	1.699	1.545	-1.462	-2.644	-2.126	-1.374	-0.516	-1.739	-0.379	1.087	0.309	1.695	1.655	0.525	1.799	1.444	589.844
-2.673	-2.710	-2.087	-1.679	0.552	0.194	2.580	1.646	1.877	2.651	2.243	1.034	1.821	1.585	-1.559	-2.620	-2.193	-1.419	-0.595	-1.721	-0.362	1.053	0.282	1.718	1.648	0.495	1.975	1.523	593.750
-2.638	-2.634	-2.055	-1.657	0.585	0.173	2.535	1.548	1.735	2.702	2.289	1.155	1.958	1.642	-1.686	-2.589	-2.256	-1.469	-0.656	-1.691	-0.324	1.035	0.240	1.744	1.628	0.461	2.126	1.597	597.656
-2.629	-2.534	-2.029	-1.612	0.630	0.152	2.485	1.480	1.622	2.728	2.319	1.251	2.081	1.707	-1.821	-2.533	-2.292	-1.509	-0.679	-1.637	-0.258	1.040	0.198	1.762	1.584	0.415	2.222	1.644	601.562
-2.627	-2.411	-2.009	-1.546	0.681	0.139	2.419	1.437	1.536	2.710	2.320	1.301	2.160	1.766	-1.946	-2.440	-2.277	-1.531	-0.649	-1.547	-0.164	1.075	0.176	1.762	1.515	0.353	2.248	1.654	605.469
-2.618	-2.273	-1.995	-1.462	0.729	0.138	2.332	1.415	1.476	2.641	2.283	1.291	2.174	1.806	-2.050	-2.305	-2.199	-1.529	-0.559	-1.419	-0.048	1.141	0.187	1.743	1.427	0.281	2.204	1.627	609.375
-2.589	-2.135	-1.991	-1.373	0.764	0.152	2.222	1.406	1.439	2.520	2.214	1.224	2.116	1.819	-2.133	-2.131	-2.056	-1.507	-0.410	-1.257	0.077	1.236	0.241	1.706	1.332	0.208	2.101	1.570	613.281
-2.535	-2.010	-1.996	-1.290	0.777	0.181	2.093	1.405	1.423	2.360	2.120	1.110	1.986	1.796	-2.197	-1.931	-1.859	-1.469	-0.216	-1.075	0.193	1.349	0.335	1.657	1.245	0.147	1.957	1.497	617.188
-2.457	-1.909	-2.009	-1.224	0.767	0.223	1.954	1.409	1.426	2.175	2.017	0.968	1.795	1.736	-2.244	-1.723	-1.632	-1.422	-0.001	-0.891	0.281	1.466	0.462	1.599	1.181	0.108	1.795	1.419	621.094
-2.358	-1.839	-2.019	-1.181	0.734	0.275	1.817	1.418	1.447	1.987	1.918	0.818	1.558	1.639	-2.274	-1.527	-1.402	-1.370	0.209	-0.725	0.326	1.571	0.604	1.535	1.150	0.098	1.633	1.345	625.000
-2.244	-1.796	-2.016	-1.161	0.684	0.333	1.693	1.431	1.485	1.809	1.832	0.675	1.290	1.511	-2.279	-1.359	-1.195	-1.317	0.386	-0.593	0.317	1.646	0.740	1.465	1.154	0.116	1.483	1.280	628.906
-2.121	-1.774	-1.986	-1.158	0.627	0.394	1.590	1.448	1.532	1.655	1.763	0.550	1.010	1.359	-2.249	-1.231	-1.032	-1.262	0.510	-0.507	0.253	1.679	0.853	1.387	1.189	0.155	1.350	1.219	632.812
-1.989	-1.759	-1.917	-1.160	0.574	0.457	1.511	1.470	1.580	1.526	1.707	0.445	0.731	1.191	-2.173	-1.141	-0.921	-1.202	0.571	-0.467	0.143	1.664	0.927	1.298	1.240	0.198	1.235	1.154	636.719
-1.847	-1.736	-1.802	-1.157	0.534	0.522	1.451	1.491	1.619	1.419	1.655	0.358	0.465	1.016	-2.040	-1.084	-0.857	-1.131	0.575	-0.465	0.003	1.603	0.955	1.196	1.291	0.229	1.128	1.076	640.625
-1.686	-1.695	-1.643	-1.137	0.512	0.591	1.402	1.508	1.639	1.325	1.595	0.281	0.223	0.844	-1.845	-1.046	-0.829	-1.043	0.532	-0.487	-0.147	1.504	0.940	1.081	1.320	0.228	1.023	0.977	644.531
-1.499	-1.627	-1.444	-1.098	0.510	0.664	1.354	1.514	1.632	1.234	1.519	0.204	0.013	0.679	-1.589	-1.011	-0.818	-0.934	0.463	-0.516	-0.288	1.383	0.890	0.952	1.312	0.179	0.909	0.849	648.438
-1.280	-1.532	-1.220	-1.038	0.524	0.742	1.298	1.505	1.594	1.134	1.420	0.121	-0.161	0.526	-1.279	-0.965	-0.803	-0.802	0.390	-0.536	-0.403	1.256	0.819	0.812	1.255	0.071	0.778	0.692	652.344
-1.028	-1.414	-0.983	-0.964	0.548	0.827	1.227	1.479	1.529	1.017	1.298	0.025	-0.299	0.386	-0.927	-0.900	-0.771	-0.652	0.332	-0.539	-0.481	1.140	0.743	0.662	1.144	-0.097	0.624	0.508	656.250
-0.745	-1.282	-0.751	-0.885	0.573	0.918	1.137	1.440	1.444	0.882	1.156	-0.086	-0.405	0.260	-0.550	-0.812	-0.713	-0.490	0.303	-0.518	-0.519	1.049	0.677	0.506	0.982	-0.320	0.443	0.303	660.156
-0.444	-1.148	-0.536	-0.810	0.593	1.013	1.028	1.393	1.351	0.729	1.003	-0.214	-0.486	0.147	-0.165	-0.705	-0.628	-0.325	0.312	-0.476	-0.520	0.989	0.630	0.344	0.779	-0.583	0.236	0.086	664.062
-0.136	-1.022	-0.351	-0.745	0.602	1.110	0.902	1.347	1.260	0.561	0.848	-0.354	-0.556	0.046	0.206	-0.584	-0.519	-0.162	0.360	-0.416	-0.491	0.961	0.610	0.180	0.549	-0.865	0.006	-0.133	667.969
0.162	-0.911	-0.202	-0.697	0.596	1.204	0.761	1.307	1.176	0.384	0.700	-0.503	-0.629	-0.044	0.546	-0.457	-0.393	-0.006	0.442	-0.344	-0.441	0.961	0.616	0.014	0.309	-1.143	-0.238	-0.345	671.875
0.439	-0.817	-0.092	-0.667	0.573	1.287	0.606	1.274	1.102	0.201	0.563	-0.656	-0.720	-0.121	0.839	-0.330	-0.258	0.144	0.550	-0.266	-0.380	0.982	0.644	-0.147	0.077	-1.394	-0.486	-0.540	675.781
0.684	-0.742	-0.021	-0.656	0.530	1.351	0.436	1.244	1.032	0.014	0.441	-0.806	-0.839	-0.187	1.077	-0.207	-0.118	0.290	0.672	-0.185	-0.317	1.016	0.689	-0.301	-0.132	-1.601	-0.727	-0.713	679.688
0.893	-0.682	0.017	-0.661	0.468	1.385	0.248	1.210	0.959	-0.176	0.334	-0.946	-0.991	-0.238	1.258	-0.087	0.025	0.438	0.797	-0.102	-0.255	1.056	0.742	-0.441	-0.308	-1.757	-0.948	-0.859	683.594
1.065	-0.637	0.031	-0.679	0.387	1.382	0.041	1.164	0.874	-0.370	0.239	-1.071	-1.176	-0.273	1.392	0.028	0.170	0.590	0.918	-0.015	-0.195	1.098	0.799	-0.563	-0.446	-1.860	-1.142	-0.977	687.500
1.203	-0.601	0.030	-0.705	0.288	1.337	-0.186	1.096	0.769	-0.567	0.156	-1.177	-1.383	-0.289	1.492	0.142	0.317	0.746	1.027	0.080	-0.134	1.144	0.854	-0.664	-0.547	-1.920	-1.303	-1.068	691.406
1.312	-0.572	0.025	-0.735	0.177	1.250	-0.427	1.005	0.641	-0.763	0.083	-1.263	-1.595	-0.285	1.574	0.254	0.464	0.904	1.123	0.186	-0.067	1.193	0.905	-0.744	-0.617	-1.952	-1.431	-1.136	695.312
1.398	-0.549	0.022	-0.762	0.060	1.127	-0.671	0.893	0.493	-0.952	0.021	-1.327	-1.792	-0.258	1.648	0.365	0.607	1.057	1.206	0.306	0.011	1.252	0.952	-0.803	-0.664	-1.972	-1.530	-1.184	699.219
1.465	-0.527	0.028	-0.778	-0.052	0.981	-0.903	0.767	0.331	-1.122	-0.029	-1.369	-1.949	-0.208	1.719	0.471	0.737	1.197	1.277	0.439	0.100	1.324	0.995	-0.842	-0.698	-1.996	-1.605	-1.216	703.125
1.517	-0.504	0.041	-0.779	-0.149	0.830	-1.104	0.638	0.169	-1.260	-0.065	-1.392	-2.044	-0.134	1.781	0.568	0.847	1.313	1.340	0.580	0.202	1.411	1.036	-0.862	-0.725	-2.038	-1.660	-1.233	707.031
1.555	-0.478	0.058	-0.759	-0.220	0.694	-1.253	0.517	0.016	-1.355	-0.085	-1.398	-2.059	-0.038	1.822	0.650	0.928	1.396	1.396	0.720	0.310	1.515	1.079	-0.864	-0.752	-2.102	-1.700	-1.239	710.938
1.578	-0.444	0.074	-0.718	-0.257	0.590	-1.334	0.414	-0.115	-1.398	-0.088	-1.390	-1.987	0.080	1.829	0.709	0.974	1.436	1.445	0.850	0.418	1.631	1.126	-0.847	-0.780	-2.191	-1.726	-1.237	714.844
1.580	-0.399	0.082	-0.655	-0.252	0.532	-1.334	0.336	-0.215	-1.388	-0.078	-1.374	-1.830	0.214	1.791	0.743	0.984	1.429	1.487	0.960	0.519	1.752	1.178	-0.812	-0.810	-2.301	-1.738	-1.233	718.750
1.562	-0.339	0.080	-0.577	-0.205	0.526	-1.252	0.287	-0.281	-1.331	-0.058	-1.355	-1.603	0.360	1.703	0.748	0.960	1.376	1.518	1.041	0.605	1.870	1.234	-0.760	-0.840	-2.422	-1.737	-1.231	722.656
1.523	-0.265	0.068	-0.490	-0.121	0.569	-1.095	0.265	-0.311	-1.237	-0.036	-1.339	-1.330	0.509	1.568	0.728	0.908	1.278	1.534	1.087	0.670	1.971	1.286	-0.696	-0.866	-2.545	-1.723	-1.236	726.562
1.470	-0.181	0.050	-0.404	-0.011	0.652	-0.879	0.266	-0.307	-1.121	-0.017	-1.328	-1.040	0.649	1.397	0.685	0.834	1.143	1.533	1.096	0.712	2.044	1.327	-0.626	-0.885	-2.656	-1.694	-1.250	730.469
1.414	-0.094	0.034	-0.330	0.111	0.757	-0.630	0.284	-0.276	-1.000	-0.006	-1.326	-0.768	0.770	1.207	0.627	0.749	0.980	1.511	1.071	0.730	2.081	1.344	-0.557	-0.893	-2.744	-1.654	-1.272	734.375
1.373	-0.013	0.029	-0.274	0.227	0.865	-0.379	0.312	-0.226	-0.888	-0.008	-1.331	-0.543	0.857	1.018	0.565	0.662	0.804	1.468	1.019	0.726	2.075	1.331	-0.499	-0.890	-2.797	-1.603	-1.299	738.281
1.362	0.052	0.043	-0.244	0.318	0.958	-0.157	0.340	-0.166	-0.798	-0.023	-1.342	-0.388	0.902	0.852	0.508	0.581	0.629	1.408	0.950	0.704	2.029	1.283	-0.457	-0.878	-2.811	-1.547	-1.328	742.188
1.395	0.093	0.082	-0.241	0.372	1.022	0.008	0.363	-0.106	-0.736	-0.050	-1.359	-0.316	0.899	0.730	0.466	0.515	0.473	1.336	0.876	0.667	1.949	1.206	-0.435	-0.859	-2.789	-1.489	-1.357	746.094
1.477	0.107	0.148	-0.262	0.380	1.051	0.099	0.376	-0.052	-0.704	-0.085	-1.377	-0.330	0.848	0.668	0.447	0.468	0.348	1.258	0.809	0.620	1.845	1.108	-0.434	-0.838	-2.739	-1.432	-1.385	750.000
1.603	0.095	0.237	-0.303	0.342	1.045	0.112	0.380	-0.009	-0.696	-0.122	-1.391	-0.417	0.758	0.671	0.451	0.441	0.262	1.180	0.756	0.567	1.731	1.000	-0.451	-0.821	-2.675	-1.380	-1.411	753.906
1.760	0.061	0.343	-0.357	0.263	1.011	0.055	0.380	0.027	-0.701	-0.149	-1.394	-0.557	0.644	0.733	0.476	0.431	0.215	1.106	0.722	0.514	1.617	0.893	-0.481	-0.815	-2.611	-1.332	-1.432	757.812
1.927	0.013	0.454	-0.414	0.157	0.960	-0.051	0.382	0.060	-0.702	-0.155	-1.376	-0.718	0.526	0.837	0.517	0.433	0.197	1.036	0.710	0.465	1.509	0.790	-0.517	-0.828	-2.565	-1.285	-1.444	761.719
2.080	-0.040	0.557	-0.469	0.040	0.902	-0.177	0.394	0.100	-0.683	-0.128	-1.325	-0.869	0.425	0.960	0.565	0.437	0.193	0.970	0.718	0.429	1.412	0.692	-0.554	-0.869	-2.548	-1.238	-1.444	765.625
2.196	-0.090	0.637	-0.511	-0.070	0.847	-0.293	0.422	0.155	-0.627	-0.057	-1.231	-0.978	0.363	1.075	0.611	0.437	0.181	0.907	0.744	0.412	1.324	0.593	-0.585	-0.946	-2.568	-1.187	-1.424	769.531
2.255	-0.130	0.680	-0.537	-0.157	0.801	-0.370	0.468	0.235	-0.521	0.064	-1.083	-1.018	0.353	1.158	0.650	0.428	0.137	0.846	0.784	0.421	1.242	0.488	-0.610	-1.069	-2.625	-1.130	-1.379	773.438
2.246	-0.155	0.676	-0.541	-0.211	0.761	-0.386	0.536	0.343	-0.358	0.233	-0.874	-0.970	0.404	1.193	0.680	0.407	0.041	0.789	0.835	0.462	1.160	0.367	-0.628	-1.243	-2.717	-1.066	-1.304	777.344
2.162	-0.165	0.619	-0.524	-0.227	0.725	-0.331	0.623	0.482	-0.135	0.446	-0.602	-0.826	0.518	1.170	0.700	0.374	-0.124	0.736	0.892	0.536	1.075	0.226	-0.640	-1.469	-2.835	-0.995	-1.198	781.250
2.008	-0.162	0.509	-0.486	-0.204	0.686	-0.201	0.728	0.652	0.145	0.694	-0.269	-0.589	0.688	1.088	0.713	0.333	-0.363	0.686	0.952	0.643	0.982	0.061	-0.650	-1.744	-2.972	-0.917	-1.061	785.156
1.795	-0.150	0.352	-0.433	-0.150	0.639	-0.007	0.848	0.849	0.472	0.968	0.116	-0.274	0.904	0.956	0.722	0.286	-0.673	0.639	1.013	0.778	0.879	-0.127	-0.658	-2.059	-3.117	-0.834	-0.898	789.062
1.542	-0.134	0.161	-0.371	-0.076	0.581	0.233	0.979	1.065	0.833	1.257	0.539	0.097	1.149	0.789	0.730	0.236	-1.039	0.593	1.071	0.933	0.767	-0.335	-0.668	-2.404	-3.265	-0.747	-0.717	792.969
1.271	-0.118	-0.045	-0.305	0.007	0.515	0.496	1.113	1.291	1.210	1.550	0.982	0.493	1.406	0.604	0.738	0.186	-1.435	0.546	1.128	1.097	0.647	-0.557	-0.679	-2.763	-3.410	-0.657	-0.526	796.875
