FP1	F3	F7	FC3	C3	C5	P3	P7	PO7	PO3	O1	Oz	Pz	CPz	FP2	Fz	F4	F8	FC4	FCz	Cz	C4	C6	P4	P8	PO8	PO4	O2	time
0.552	0.350	0.939	-0.423	-0.095	0.368	0.141	0.959	1.118	0.075	0.602	0.147	-0.306	-0.484	0.793	-0.725	-0.997	0.142	-1.394	-0.475	-0.620	-0.941	-0.264	-0.825	-0.565	-0.844	-0.554	-0.641	-199.219
0.781	0.420	0.930	-0.167	-0.021	0.358	0.035	0.623	0.676	-0.097	0.267	-0.085	-0.271	-0.297	0.661	-0.309	-0.614	0.075	-0.933	-0.071	-0.272	-0.649	-0.239	-0.784	-0.601	-0.896	-0.654	-0.691	-195.312
0.984	0.484	0.911	0.066	0.047	0.342	-0.061	0.305	0.262	-0.255	-0.041	-0.295	-0.232	-0.116	0.550	0.080	-0.251	0.020	-0.506	0.301	0.055	-0.380	-0.220	-0.743	-0.635	-0.946	-0.746	-0.734	-191.406
1.143	0.541	0.877	0.256	0.102	0.320	-0.142	0.019	-0.103	-0.387	-0.301	-0.467	-0.186	0.050	0.479	0.418	0.071	-0.009	-0.142	0.618	0.341	-0.154	-0.207	-0.701	-0.666	-0.996	-0.821	-0.771	-187.500
1.240	0.591	0.829	0.394	0.142	0.290	-0.203	-0.222	-0.402	-0.486	-0.499	-0.592	-0.136	0.194	0.454	0.687	0.334	-0.005	0.141	0.859	0.568	0.018	-0.200	-0.657	-0.692	-1.043	-0.876	-0.797	-183.594
1.268	0.631	0.769	0.474	0.162	0.254	-0.244	-0.407	-0.623	-0.549	-0.628	-0.664	-0.084	0.310	0.474	0.873	0.528	0.030	0.333	1.012	0.726	0.134	-0.198	-0.608	-0.708	-1.082	-0.906	-0.809	-179.688
1.226	0.662	0.704	0.498	0.161	0.215	-0.267	-0.532	-0.764	-0.578	-0.691	-0.689	-0.037	0.392	0.528	0.974	0.648	0.091	0.441	1.075	0.808	0.199	-0.195	-0.552	-0.710	-1.105	-0.911	-0.805	-175.781
1.122	0.684	0.640	0.476	0.142	0.176	-0.278	-0.597	-0.830	-0.579	-0.699	-0.679	-0.004	0.437	0.602	0.994	0.701	0.169	0.480	1.057	0.819	0.226	-0.187	-0.488	-0.698	-1.109	-0.894	-0.785	-171.875
0.976	0.698	0.583	0.424	0.110	0.143	-0.284	-0.609	-0.835	-0.565	-0.670	-0.651	0.009	0.446	0.680	0.948	0.700	0.255	0.474	0.977	0.771	0.234	-0.168	-0.418	-0.669	-1.090	-0.862	-0.755	-167.969
0.811	0.707	0.537	0.358	0.075	0.121	-0.289	-0.581	-0.797	-0.547	-0.626	-0.626	-0.004	0.426	0.747	0.860	0.661	0.344	0.446	0.861	0.686	0.239	-0.132	-0.346	-0.626	-1.054	-0.825	-0.727	-164.062
0.651	0.712	0.503	0.295	0.048	0.115	-0.298	-0.531	-0.740	-0.538	-0.588	-0.622	-0.045	0.386	0.793	0.754	0.605	0.428	0.419	0.737	0.587	0.254	-0.078	-0.276	-0.574	-1.003	-0.791	-0.708	-160.156
0.515	0.712	0.478	0.247	0.040	0.127	-0.311	-0.473	-0.681	-0.547	-0.571	-0.650	-0.109	0.337	0.807	0.653	0.547	0.504	0.408	0.630	0.498	0.288	-0.005	-0.213	-0.517	-0.945	-0.766	-0.705	-156.250
0.414	0.701	0.455	0.217	0.054	0.155	-0.324	-0.420	-0.631	-0.573	-0.580	-0.707	-0.190	0.294	0.783	0.570	0.498	0.566	0.418	0.554	0.441	0.342	0.086	-0.162	-0.457	-0.880	-0.753	-0.715	-152.344
0.344	0.671	0.421	0.200	0.092	0.191	-0.334	-0.380	-0.593	-0.611	-0.611	-0.781	-0.276	0.266	0.717	0.513	0.460	0.608	0.447	0.515	0.424	0.409	0.189	-0.123	-0.395	-0.804	-0.745	-0.727	-148.438
0.292	0.611	0.364	0.188	0.143	0.223	-0.337	-0.355	-0.562	-0.649	-0.648	-0.850	-0.355	0.259	0.611	0.477	0.433	0.624	0.486	0.506	0.449	0.480	0.297	-0.095	-0.327	-0.711	-0.733	-0.722	-144.531
0.239	0.513	0.272	0.164	0.195	0.237	-0.329	-0.341	-0.529	-0.675	-0.672	-0.888	-0.417	0.275	0.473	0.450	0.410	0.612	0.525	0.513	0.507	0.543	0.402	-0.073	-0.249	-0.588	-0.706	-0.682	-140.625
0.164	0.371	0.138	0.116	0.231	0.220	-0.313	-0.334	-0.485	-0.677	-0.664	-0.873	-0.452	0.308	0.315	0.419	0.386	0.574	0.552	0.518	0.580	0.585	0.495	-0.052	-0.156	-0.429	-0.650	-0.591	-136.719
0.053	0.189	-0.037	0.037	0.236	0.165	-0.292	-0.327	-0.424	-0.647	-0.608	-0.792	-0.459	0.349	0.154	0.371	0.355	0.516	0.559	0.504	0.650	0.599	0.569	-0.028	-0.044	-0.229	-0.561	-0.443	-132.812
-0.100	-0.023	-0.242	-0.073	0.199	0.072	-0.271	-0.313	-0.345	-0.585	-0.496	-0.644	-0.440	0.386	0.005	0.299	0.316	0.444	0.546	0.459	0.697	0.581	0.619	0.003	0.084	0.006	-0.437	-0.243	-128.906
-0.289	-0.246	-0.456	-0.207	0.120	-0.050	-0.254	-0.288	-0.247	-0.495	-0.331	-0.441	-0.400	0.406	-0.120	0.201	0.265	0.365	0.512	0.378	0.707	0.533	0.643	0.040	0.225	0.261	-0.286	-0.006	-125.000
-0.498	-0.461	-0.657	-0.349	0.004	-0.187	-0.245	-0.246	-0.134	-0.385	-0.123	-0.201	-0.350	0.400	-0.215	0.082	0.204	0.282	0.461	0.265	0.670	0.460	0.641	0.082	0.370	0.516	-0.119	0.245	-121.094
-0.706	-0.651	-0.822	-0.485	-0.136	-0.322	-0.241	-0.181	-0.009	-0.263	0.114	0.049	-0.298	0.361	-0.284	-0.053	0.131	0.196	0.398	0.125	0.586	0.372	0.615	0.125	0.508	0.752	0.050	0.487	-117.188
-0.892	-0.800	-0.935	-0.599	-0.281	-0.437	-0.238	-0.092	0.127	-0.137	0.358	0.288	-0.252	0.288	-0.336	-0.195	0.045	0.104	0.323	-0.031	0.459	0.277	0.567	0.166	0.631	0.949	0.207	0.702	-113.281
-1.038	-0.903	-0.988	-0.680	-0.414	-0.520	-0.229	0.025	0.274	-0.012	0.592	0.498	-0.217	0.186	-0.387	-0.339	-0.055	0.002	0.237	-0.196	0.299	0.182	0.500	0.200	0.730	1.097	0.344	0.877	-109.375
-1.135	-0.960	-0.986	-0.725	-0.520	-0.564	-0.204	0.166	0.431	0.110	0.798	0.669	-0.190	0.064	-0.449	-0.480	-0.172	-0.109	0.137	-0.360	0.120	0.092	0.420	0.225	0.803	1.193	0.456	1.008	-105.469
-1.184	-0.978	-0.942	-0.734	-0.588	-0.570	-0.156	0.325	0.596	0.229	0.964	0.797	-0.168	-0.063	-0.532	-0.614	-0.303	-0.228	0.023	-0.517	-0.063	0.011	0.331	0.243	0.849	1.241	0.545	1.095	-101.562
-1.192	-0.968	-0.875	-0.713	-0.613	-0.544	-0.081	0.494	0.767	0.345	1.083	0.882	-0.144	-0.179	-0.636	-0.737	-0.444	-0.349	-0.103	-0.658	-0.232	-0.059	0.240	0.256	0.867	1.245	0.612	1.141	-97.656
-1.173	-0.939	-0.803	-0.667	-0.592	-0.492	0.022	0.659	0.934	0.457	1.152	0.928	-0.109	-0.267	-0.752	-0.843	-0.583	-0.463	-0.234	-0.776	-0.372	-0.117	0.149	0.266	0.858	1.214	0.664	1.150	-93.750
-1.138	-0.899	-0.744	-0.603	-0.530	-0.424	0.149	0.807	1.085	0.562	1.171	0.939	-0.057	-0.314	-0.864	-0.924	-0.708	-0.560	-0.359	-0.863	-0.472	-0.161	0.065	0.278	0.824	1.150	0.701	1.124	-89.844
-1.100	-0.852	-0.707	-0.525	-0.432	-0.343	0.293	0.924	1.204	0.659	1.145	0.919	0.018	-0.312	-0.953	-0.974	-0.806	-0.631	-0.466	-0.911	-0.525	-0.189	-0.011	0.295	0.763	1.058	0.726	1.064	-85.938
-1.065	-0.797	-0.695	-0.433	-0.306	-0.254	0.444	1.000	1.276	0.741	1.081	0.873	0.115	-0.260	-1.001	-0.986	-0.864	-0.669	-0.544	-0.918	-0.530	-0.203	-0.076	0.317	0.677	0.939	0.738	0.974	-82.031
-1.032	-0.730	-0.703	-0.329	-0.158	-0.154	0.590	1.027	1.287	0.805	0.986	0.805	0.230	-0.169	-0.997	-0.958	-0.875	-0.671	-0.587	-0.883	-0.494	-0.202	-0.130	0.341	0.567	0.795	0.733	0.856	-78.125
-0.994	-0.645	-0.718	-0.214	-0.000	-0.046	0.721	1.002	1.226	0.846	0.869	0.719	0.356	-0.054	-0.937	-0.892	-0.839	-0.636	-0.591	-0.811	-0.428	-0.191	-0.172	0.361	0.435	0.629	0.709	0.715	-74.219
-0.936	-0.540	-0.725	-0.088	0.159	0.070	0.823	0.926	1.091	0.864	0.737	0.620	0.480	0.064	-0.824	-0.793	-0.758	-0.569	-0.560	-0.710	-0.349	-0.174	-0.201	0.370	0.286	0.442	0.663	0.558	-70.312
-0.844	-0.413	-0.707	0.045	0.310	0.189	0.889	0.805	0.890	0.856	0.596	0.512	0.590	0.165	-0.670	-0.667	-0.641	-0.473	-0.502	-0.593	-0.273	-0.157	-0.220	0.361	0.124	0.240	0.593	0.392	-66.406
-0.709	-0.267	-0.651	0.180	0.443	0.301	0.912	0.648	0.639	0.824	0.449	0.399	0.674	0.231	-0.490	-0.526	-0.497	-0.357	-0.425	-0.470	-0.212	-0.142	-0.228	0.329	-0.046	0.029	0.501	0.223	-62.500
-0.528	-0.108	-0.549	0.309	0.550	0.398	0.891	0.466	0.358	0.770	0.302	0.285	0.724	0.255	-0.304	-0.378	-0.340	-0.232	-0.340	-0.354	-0.175	-0.133	-0.229	0.276	-0.215	-0.180	0.395	0.060	-58.594
-0.309	0.053	-0.402	0.424	0.625	0.467	0.828	0.275	0.077	0.699	0.158	0.174	0.735	0.233	-0.131	-0.233	-0.182	-0.110	-0.256	-0.253	-0.166	-0.130	-0.226	0.206	-0.375	-0.373	0.285	-0.089	-54.688
-0.072	0.204	-0.219	0.516	0.664	0.502	0.730	0.088	-0.179	0.616	0.023	0.074	0.711	0.173	0.013	-0.102	-0.038	-0.002	-0.184	-0.174	-0.182	-0.133	-0.223	0.131	-0.513	-0.534	0.186	-0.216	-50.781
0.157	0.331	-0.015	0.576	0.665	0.498	0.606	-0.083	-0.387	0.526	-0.098	-0.009	0.658	0.084	0.118	0.010	0.083	0.079	-0.126	-0.120	-0.219	-0.141	-0.224	0.062	-0.615	-0.644	0.111	-0.310	-46.875
0.352	0.423	0.189	0.597	0.626	0.456	0.464	-0.229	-0.533	0.432	-0.202	-0.068	0.585	-0.020	0.180	0.099	0.174	0.126	-0.086	-0.090	-0.270	-0.153	-0.231	0.013	-0.665	-0.686	0.075	-0.364	-42.969
0.495	0.470	0.373	0.577	0.548	0.378	0.313	-0.346	-0.612	0.336	-0.284	-0.098	0.500	-0.128	0.203	0.163	0.231	0.136	-0.061	-0.081	-0.327	-0.168	-0.244	-0.006	-0.654	-0.650	0.083	-0.375	-39.062
0.577	0.470	0.518	0.517	0.434	0.271	0.161	-0.432	-0.630	0.241	-0.343	-0.100	0.407	-0.234	0.198	0.204	0.259	0.113	-0.047	-0.088	-0.386	-0.183	-0.256	0.008	-0.577	-0.533	0.136	-0.344	-35.156
0.598	0.425	0.609	0.422	0.288	0.141	0.012	-0.489	-0.599	0.147	-0.380	-0.074	0.309	-0.334	0.177	0.225	0.265	0.064	-0.039	-0.104	-0.444	-0.199	-0.264	0.050	-0.436	-0.343	0.225	-0.274	-31.250
0.571	0.343	0.640	0.302	0.118	-0.004	-0.130	-0.521	-0.532	0.058	-0.395	-0.024	0.206	-0.430	0.152	0.231	0.255	0.002	-0.032	-0.125	-0.505	-0.217	-0.262	0.113	-0.241	-0.096	0.337	-0.177	-27.344
0.511	0.235	0.611	0.170	-0.067	-0.157	-0.259	-0.529	-0.442	-0.020	-0.388	0.045	0.096	-0.523	0.134	0.223	0.236	-0.062	-0.024	-0.149	-0.573	-0.237	-0.249	0.182	-0.010	0.186	0.455	-0.060	-23.438
0.431	0.115	0.528	0.037	-0.256	-0.312	-0.372	-0.515	-0.337	-0.079	-0.360	0.128	-0.023	-0.617	0.124	0.201	0.211	-0.119	-0.021	-0.179	-0.654	-0.262	-0.227	0.246	0.237	0.475	0.564	0.065	-19.531
0.344	-0.004	0.404	-0.083	-0.437	-0.460	-0.462	-0.478	-0.223	-0.109	-0.308	0.220	-0.145	-0.712	0.120	0.162	0.176	-0.165	-0.027	-0.220	-0.753	-0.296	-0.201	0.294	0.479	0.749	0.654	0.191	-15.625
0.251	-0.115	0.254	-0.184	-0.598	-0.593	-0.524	-0.416	-0.103	-0.104	-0.232	0.317	-0.266	-0.805	0.113	0.102	0.128	-0.199	-0.053	-0.278	-0.871	-0.339	-0.178	0.323	0.699	0.989	0.721	0.315	-11.719
0.155	-0.211	0.092	-0.263	-0.729	-0.703	-0.552	-0.330	0.019	-0.060	-0.135	0.418	-0.374	-0.890	0.089	0.019	0.061	-0.227	-0.106	-0.358	-1.002	-0.390	-0.162	0.333	0.885	1.184	0.769	0.435	-7.812
0.051	-0.291	-0.071	-0.321	-0.825	-0.782	-0.545	-0.225	0.136	0.020	-0.018	0.518	-0.458	-0.959	0.037	-0.087	-0.030	-0.258	-0.187	-0.461	-1.136	-0.443	-0.153	0.332	1.032	1.330	0.806	0.550	-3.906
-0.063	-0.355	-0.223	-0.362	-0.883	-0.828	-0.506	-0.106	0.238	0.126	0.110	0.613	-0.507	-1.004	-0.049	-0.211	-0.144	-0.300	-0.293	-0.582	-1.256	-0.491	-0.150	0.328	1.142	1.430	0.837	0.662	0.000
-0.184	-0.408	-0.361	-0.393	-0.904	-0.838	-0.443	0.014	0.315	0.242	0.239	0.698	-0.515	-1.017	-0.168	-0.343	-0.272	-0.355	-0.413	-0.711	-1.349	-0.527	-0.148	0.327	1.219	1.491	0.869	0.766	3.906
-0.306	-0.452	-0.478	-0.420	-0.895	-0.817	-0.365	0.122	0.358	0.353	0.358	0.768	-0.482	-0.997	-0.306	-0.470	-0.403	-0.420	-0.531	-0.835	-1.402	-0.544	-0.140	0.333	1.269	1.520	0.901	0.859	7.812
-0.419	-0.490	-0.572	-0.448	-0.865	-0.773	-0.285	0.207	0.362	0.441	0.457	0.818	-0.412	-0.948	-0.449	-0.580	-0.524	-0.487	-0.633	-0.940	-1.412	-0.541	-0.124	0.347	1.297	1.524	0.931	0.934	11.719
-0.513	-0.522	-0.641	-0.477	-0.826	-0.717	-0.211	0.260	0.332	0.498	0.534	0.851	-0.315	-0.878	-0.576	-0.665	-0.623	-0.545	-0.708	-1.020	-1.384	-0.524	-0.100	0.365	1.309	1.509	0.953	0.989	15.625
-0.579	-0.551	-0.686	-0.508	-0.788	-0.664	-0.150	0.282	0.277	0.523	0.591	0.874	-0.202	-0.800	-0.674	-0.723	-0.694	-0.587	-0.754	-1.075	-1.334	-0.502	-0.076	0.383	1.309	1.481	0.964	1.023	19.531
-0.616	-0.578	-0.710	-0.539	-0.760	-0.624	-0.101	0.281	0.216	0.528	0.639	0.903	-0.082	-0.730	-0.737	-0.763	-0.740	-0.608	-0.779	-1.111	-1.283	-0.491	-0.064	0.396	1.298	1.447	0.966	1.047	23.438
-0.632	-0.608	-0.719	-0.571	-0.747	-0.606	-0.058	0.271	0.170	0.530	0.697	0.956	0.036	-0.679	-0.767	-0.797	-0.768	-0.612	-0.796	-1.144	-1.254	-0.505	-0.077	0.402	1.278	1.412	0.965	1.071	27.344
-0.637	-0.644	-0.724	-0.604	-0.751	-0.612	-0.013	0.268	0.159	0.554	0.780	1.052	0.147	-0.657	-0.776	-0.842	-0.792	-0.606	-0.822	-1.190	-1.266	-0.553	-0.126	0.402	1.254	1.383	0.970	1.111	31.250
-0.647	-0.692	-0.738	-0.637	-0.769	-0.637	0.045	0.287	0.199	0.620	0.901	1.201	0.248	-0.667	-0.781	-0.911	-0.822	-0.602	-0.869	-1.259	-1.330	-0.639	-0.212	0.399	1.227	1.367	0.991	1.178	35.156
-0.674	-0.752	-0.772	-0.674	-0.796	-0.672	0.122	0.337	0.295	0.739	1.062	1.399	0.335	-0.706	-0.794	-1.011	-0.865	-0.611	-0.942	-1.359	-1.446	-0.755	-0.328	0.398	1.202	1.371	1.036	1.275	39.062
-0.727	-0.822	-0.829	-0.711	-0.824	-0.706	0.219	0.422	0.442	0.905	1.248	1.624	0.401	-0.770	-0.827	-1.137	-0.921	-0.640	-1.037	-1.484	-1.603	-0.885	-0.457	0.404	1.185	1.400	1.107	1.392	42.969
-0.805	-0.894	-0.909	-0.745	-0.848	-0.728	0.331	0.536	0.626	1.099	1.436	1.835	0.436	-0.854	-0.879	-1.276	-0.984	-0.691	-1.138	-1.622	-1.784	-1.008	-0.578	0.422	1.183	1.460	1.198	1.510	46.875
-0.902	-0.955	-1.001	-0.773	-0.862	-0.726	0.443	0.675	0.828	1.289	1.592	1.983	0.426	-0.955	-0.946	-1.411	-1.043	-0.759	-1.229	-1.756	-1.968	-1.105	-0.670	0.451	1.206	1.559	1.297	1.603	50.781
-1.008	-0.995	-1.088	-0.788	-0.865	-0.697	0.542	0.831	1.034	1.437	1.685	2.018	0.356	-1.075	-1.024	-1.524	-1.089	-0.835	-1.293	-1.872	-2.139	-1.163	-0.719	0.490	1.263	1.708	1.391	1.646	54.688
-1.113	-1.007	-1.156	-0.789	-0.861	-0.641	0.612	1.008	1.239	1.511	1.695	1.907	0.210	-1.219	-1.108	-1.610	-1.118	-0.910	-1.323	-1.963	-2.292	-1.181	-0.724	0.532	1.367	1.918	1.467	1.624	58.594
-1.217	-0.996	-1.192	-0.782	-0.858	-0.563	0.644	1.215	1.453	1.497	1.625	1.641	-0.022	-1.397	-1.203	-1.672	-1.136	-0.978	-1.325	-2.035	-2.431	-1.174	-0.691	0.571	1.531	2.206	1.517	1.540	62.500
-1.326	-0.978	-1.194	-0.780	-0.869	-0.476	0.636	1.473	1.699	1.400	1.500	1.250	-0.341	-1.622	-1.323	-1.732	-1.158	-1.040	-1.318	-2.107	-2.574	-1.165	-0.641	0.599	1.765	2.587	1.543	1.420	66.406
-1.454	-0.982	-1.171	-0.804	-0.912	-0.393	0.598	1.805	2.014	1.250	1.371	0.796	-0.735	-1.901	-1.486	-1.821	-1.214	-1.105	-1.332	-2.212	-2.748	-1.186	-0.597	0.611	2.076	3.071	1.558	1.305	70.312
-1.619	-1.040	-1.141	-0.877	-1.000	-0.328	0.552	2.235	2.432	1.096	1.303	0.365	-1.175	-2.236	-1.714	-1.973	-1.332	-1.193	-1.400	-2.381	-2.979	-1.266	-0.583	0.604	2.459	3.654	1.581	1.250	74.219
-1.839	-1.181	-1.126	-1.017	-1.140	-0.295	0.524	2.771	2.978	0.998	1.358	0.055	-1.617	-2.614	-2.019	-2.219	-1.542	-1.325	-1.553	-2.642	-3.282	-1.423	-0.619	0.584	2.895	4.316	1.633	1.305	78.125
-2.120	-1.418	-1.148	-1.233	-1.328	-0.298	0.548	3.405	3.652	1.013	1.584	-0.053	-2.002	-3.006	-2.403	-2.571	-1.858	-1.521	-1.805	-3.005	-3.659	-1.659	-0.715	0.559	3.351	5.009	1.733	1.499	82.031
-2.455	-1.744	-1.223	-1.513	-1.544	-0.335	0.654	4.100	4.420	1.185	1.994	0.091	-2.265	-3.368	-2.845	-3.014	-2.273	-1.787	-2.152	-3.452	-4.081	-1.955	-0.874	0.542	3.772	5.661	1.890	1.830	85.938
-2.819	-2.123	-1.350	-1.826	-1.755	-0.395	0.865	4.791	5.213	1.530	2.564	0.489	-2.343	-3.639	-3.305	-3.508	-2.753	-2.115	-2.560	-3.938	-4.496	-2.273	-1.081	0.543	4.094	6.178	2.095	2.256	89.844
-3.167	-2.498	-1.515	-2.124	-1.918	-0.459	1.189	5.390	5.931	2.036	3.228	1.092	-2.183	-3.756	-3.725	-3.984	-3.238	-2.475	-2.975	-4.392	-4.833	-2.558	-1.314	0.574	4.246	6.453	2.321	2.700	93.750
-3.443	-2.797	-1.687	-2.345	-1.985	-0.506	1.618	5.802	6.460	2.659	3.889	1.805	-1.758	-3.661	-4.041	-4.358	-3.651	-2.824	-3.323	-4.729	-5.007	-2.753	-1.540	0.639	4.162	6.386	2.526	3.057	97.656
-3.585	-2.949	-1.824	-2.429	-1.916	-0.512	2.123	5.936	6.689	3.329	4.439	2.503	-1.067	-3.311	-4.188	-4.545	-3.907	-3.106	-3.527	-4.861	-4.942	-2.803	-1.726	0.732	3.792	5.897	2.657	3.216	101.562
-3.532	-2.891	-1.881	-2.325	-1.683	-0.461	2.660	5.727	6.536	3.963	4.773	3.058	-0.144	-2.694	-4.117	-4.473	-3.935	-3.273	-3.523	-4.722	-4.585	-2.672	-1.841	0.840	3.113	4.944	2.659	3.084	105.469
-3.242	-2.588	-1.819	-2.006	-1.280	-0.343	3.177	5.147	5.962	4.479	4.814	3.362	0.947	-1.829	-3.800	-4.099	-3.689	-3.287	-3.272	-4.273	-3.919	-2.348	-1.867	0.942	2.136	3.538	2.488	2.600	109.375
-2.699	-2.037	-1.613	-1.472	-0.727	-0.164	3.616	4.218	4.983	4.806	4.527	3.343	2.117	-0.774	-3.239	-3.422	-3.159	-3.133	-2.771	-3.521	-2.973	-1.850	-1.798	1.015	0.911	1.748	2.120	1.760	113.281
-1.918	-1.272	-1.258	-0.760	-0.070	0.061	3.927	3.012	3.672	4.901	3.924	2.988	3.264	0.381	-2.466	-2.488	-2.382	-2.820	-2.058	-2.519	-1.820	-1.224	-1.646	1.033	-0.474	-0.301	1.557	0.615	117.188
-0.952	-0.362	-0.778	0.068	0.627	0.303	4.071	1.638	2.152	4.749	3.065	2.337	4.281	1.522	-1.542	-1.382	-1.432	-2.379	-1.205	-1.361	-0.573	-0.539	-1.434	0.981	-1.901	-2.433	0.832	-0.728	121.094
0.115	0.597	-0.215	0.922	1.282	0.524	4.024	0.234	0.577	4.366	2.051	1.479	5.072	2.531	-0.552	-0.224	-0.412	-1.858	-0.310	-0.172	0.630	0.127	-1.194	0.852	-3.233	-4.450	0.006	-2.123	125.000
1.178	1.495	0.369	1.703	1.816	0.688	3.784	-1.057	-0.889	3.798	1.002	0.536	5.563	3.293	0.409	0.856	0.561	-1.308	0.521	0.912	1.650	0.696	-0.954	0.652	-4.332	-6.146	-0.840	-3.407	128.906
2.123	2.225	0.905	2.317	2.157	0.759	3.365	-2.107	-2.093	3.109	0.044	-0.357	5.713	3.723	1.244	1.732	1.374	-0.784	1.190	1.762	2.368	1.103	-0.740	0.401	-5.077	-7.343	-1.612	-4.422	132.812
2.847	2.696	1.326	2.685	2.255	0.713	2.800	-2.818	-2.918	2.375	-0.712	-1.077	5.514	3.771	1.870	2.299	1.933	-0.329	1.619	2.276	2.699	1.306	-0.567	0.128	-5.379	-7.910	-2.220	-5.040	136.719
3.268	2.849	1.580	2.756	2.086	0.536	2.133	-3.138	-3.290	1.668	-1.183	-1.525	4.993	3.431	2.226	2.492	2.179	0.021	1.764	2.392	2.605	1.292	-0.444	-0.130	-5.197	-7.781	-2.591	-5.180	140.625
3.340	2.662	1.633	2.514	1.654	0.233	1.414	-3.061	-3.188	1.049	-1.323	-1.641	4.204	2.738	2.282	2.287	2.086	0.245	1.614	2.093	2.100	1.072	-0.372	-0.338	-4.538	-6.960	-2.671	-4.816	144.531
3.059	2.151	1.475	1.977	0.994	-0.181	0.692	-2.621	-2.643	0.561	-1.126	-1.411	3.218	1.758	2.038	1.701	1.668	0.331	1.193	1.407	1.240	0.682	-0.344	-0.464	-3.456	-5.520	-2.440	-3.974	148.438
2.455	1.367	1.122	1.194	0.157	-0.675	0.009	-1.889	-1.726	0.224	-0.623	-0.860	2.111	0.579	1.527	0.792	0.973	0.279	0.552	0.402	0.112	0.174	-0.350	-0.490	-2.043	-3.583	-1.911	-2.731	152.344
1.594	0.387	0.610	0.235	-0.789	-1.216	-0.603	-0.954	-0.537	0.035	0.127	-0.048	0.953	-0.704	0.799	-0.355	0.069	0.098	-0.240	-0.829	-1.181	-0.397	-0.377	-0.409	-0.414	-1.303	-1.122	-1.192	156.250
0.559	-0.697	-0.010	-0.820	-1.774	-1.767	-1.127	0.086	0.813	-0.025	1.045	0.941	-0.199	-2.005	-0.079	-1.640	-0.961	-0.197	-1.110	-2.182	-2.535	-0.977	-0.413	-0.228	1.311	1.154	-0.136	0.520	160.156
-0.556	-1.796	-0.683	-1.888	-2.733	-2.295	-1.553	1.143	2.211	0.013	2.046	2.013	-1.305	-3.253	-1.037	-2.960	-2.031	-0.586	-1.985	-3.552	-3.857	-1.524	-0.449	0.035	3.020	3.631	0.972	2.280	164.062
-1.662	-2.829	-1.354	-2.897	-3.610	-2.773	-1.886	2.142	3.562	0.113	3.049	3.080	-2.339	-4.395	-2.007	-4.221	-3.065	-1.042	-2.805	-4.850	-5.076	-2.009	-0.483	0.354	4.621	5.993	2.125	3.980	167.969
-2.685	-3.738	-1.980	-3.792	-4.365	-3.180	-2.131	3.034	4.792	0.245	3.988	4.065	-3.289	-5.399	-2.935	-5.349	-3.999	-1.537	-3.524	-6.005	-6.144	-2.416	-0.519	0.699	6.046	8.140	3.253	5.534	171.875
-3.576	-4.491	-2.530	-4.539	-4.976	-3.509	-2.295	3.790	5.855	0.388	4.819	4.918	-4.144	-6.248	-3.780	-6.296	-4.792	-2.044	-4.117	-6.976	-7.037	-2.741	-0.562	1.045	7.257	10.007	4.302	6.887	175.781
-4.311	-5.082	-2.993	-5.127	-5.439	-3.757	-2.383	4.401	6.731	0.534	5.520	5.612	-4.897	-6.939	-4.520	-7.046	-5.427	-2.536	-4.578	-7.748	-7.752	-2.990	-0.619	1.371	8.239	11.564	5.237	8.015	179.688
-4.893	-5.530	-3.369	-5.564	-5.763	-3.931	-2.394	4.877	7.421	0.691	6.092	6.150	-5.531	-7.473	-5.150	-7.606	-5.908	-2.991	-4.915	-8.331	-8.297	-3.169	-0.693	1.668	8.999	12.809	6.041	8.917	183.594
-5.345	-5.866	-3.672	-5.875	-5.967	-4.041	-2.324	5.237	7.945	0.877	6.555	6.552	-6.029	-7.854	-5.681	-8.006	-6.256	-3.392	-5.148	-8.751	-8.694	-3.287	-0.781	1.933	9.557	13.764	6.719	9.614	187.500
-5.700	-6.132	-3.920	-6.091	-6.074	-4.098	-2.165	5.503	8.331	1.114	6.936	6.852	-6.365	-8.086	-6.129	-8.290	-6.504	-3.732	-5.304	-9.046	-8.963	-3.352	-0.879	2.172	9.940	14.456	7.283	10.136	191.406
-5.993	-6.365	-4.133	-6.247	-6.106	-4.112	-1.911	5.698	8.607	1.426	7.264	7.088	-6.517	-8.173	-6.513	-8.502	-6.690	-4.011	-5.408	-9.255	-9.126	-3.374	-0.978	2.395	10.176	14.919	7.753	10.512	195.312
-6.251	-6.596	-4.325	-6.370	-6.082	-4.089	-1.559	5.839	8.799	1.828	7.562	7.289	-6.461	-8.116	-6.847	-8.679	-6.848	-4.236	-5.487	-9.412	-9.199	-3.360	-1.072	2.612	10.288	15.182	8.149	10.770	199.219
-6.489	-6.841	-4.509	-6.482	-6.015	-4.036	-1.113	5.939	8.921	2.326	7.846	7.477	-6.186	-7.918	-7.137	-8.849	-7.002	-4.419	-5.556	-9.541	-9.194	-3.316	-1.154	2.831	10.293	15.267	8.484	10.927	203.125
-6.711	-7.105	-4.691	-6.596	-5.915	-3.957	-0.585	6.000	8.979	2.910	8.116	7.659	-5.689	-7.583	-7.384	-9.024	-7.164	-4.575	-5.625	-9.653	-9.115	-3.248	-1.221	3.058	10.202	15.190	8.769	10.994	207.031
-6.910	-7.380	-4.874	-6.715	-5.785	-3.859	0.007	6.022	8.973	3.560	8.363	7.826	-4.981	-7.115	-7.582	-9.202	-7.332	-4.714	-5.689	-9.748	-8.961	-3.157	-1.270	3.292	10.022	14.963	9.004	10.974	210.938
-7.075	-7.651	-5.061	-6.837	-5.629	-3.749	0.637	5.998	8.894	4.242	8.568	7.963	-4.090	-6.521	-7.723	-9.370	-7.489	-4.840	-5.737	-9.813	-8.726	-3.039	-1.298	3.532	9.758	14.596	9.188	10.865	214.844
-7.194	-7.898	-5.251	-6.954	-5.448	-3.637	1.273	5.919	8.733	4.913	8.707	8.043	-3.056	-5.815	-7.798	-9.506	-7.610	-4.951	-5.747	-9.831	-8.401	-2.886	-1.302	3.772	9.416	14.103	9.312	10.663	218.750
-7.257	-8.103	-5.444	-7.054	-5.246	-3.532	1.884	5.777	8.482	5.529	8.758	8.043	-1.933	-5.014	-7.801	-9.588	-7.669	-5.036	-5.696	-9.779	-7.980	-2.687	-1.277	4.004	9.009	13.499	9.368	10.364	222.656
-7.262	-8.248	-5.636	-7.126	-5.027	-3.446	2.436	5.568	8.140	6.045	8.703	7.942	-0.783	-4.142	-7.729	-9.595	-7.641	-5.079	-5.565	-9.640	-7.460	-2.433	-1.222	4.219	8.551	12.807	9.347	9.972	226.562
-7.212	-8.322	-5.819	-7.158	-4.798	-3.387	2.903	5.289	7.711	6.428	8.532	7.731	0.329	-3.228	-7.586	-9.515	-7.511	-5.063	-5.340	-9.404	-6.846	-2.118	-1.134	4.409	8.065	12.057	9.244	9.495	230.469
-7.119	-8.324	-5.987	-7.142	-4.566	-3.358	3.263	4.950	7.211	6.653	8.247	7.414	1.345	-2.308	-7.382	-9.343	-7.276	-4.975	-5.021	-9.071	-6.155	-1.743	-1.015	4.566	7.574	11.283	9.059	8.950	234.375
-6.997	-8.258	-6.130	-7.075	-4.337	-3.358	3.506	4.564	6.663	6.717	7.864	7.008	2.215	-1.417	-7.135	-9.088	-6.946	-4.810	-4.620	-8.653	-5.411	-1.318	-0.866	4.687	7.104	10.523	8.799	8.364	238.281
-6.866	-8.139	-6.244	-6.960	-4.117	-3.381	3.632	4.156	6.101	6.630	7.407	6.542	2.905	-0.590	-6.871	-8.770	-6.546	-4.577	-4.159	-8.174	-4.649	-0.856	-0.690	4.773	6.681	9.812	8.477	7.767	242.188
-6.749	-7.990	-6.330	-6.805	-3.908	-3.419	3.656	3.753	5.562	6.421	6.912	6.055	3.401	0.145	-6.619	-8.415	-6.108	-4.296	-3.670	-7.665	-3.902	-0.378	-0.488	4.832	6.329	9.185	8.114	7.192	246.094
-6.665	-7.837	-6.398	-6.625	-3.716	-3.465	3.599	3.386	5.089	6.130	6.419	5.585	3.708	0.769	-6.411	-8.055	-5.668	-3.995	-3.184	-7.158	-3.206	0.095	-0.259	4.874	6.066	8.668	7.736	6.671	250.000
-6.637	-7.708	-6.465	-6.439	-3.543	-3.513	3.489	3.083	4.720	5.806	5.971	5.169	3.850	1.277	-6.274	-7.721	-5.260	-3.708	-2.726	-6.684	-2.584	0.548	-0.008	4.912	5.904	8.277	7.371	6.230	253.906
-6.681	-7.625	-6.550	-6.267	-3.390	-3.559	3.359	2.869	4.484	5.495	5.602	4.833	3.864	1.671	-6.227	-7.437	-4.910	-3.468	-2.317	-6.265	-2.052	0.964	0.262	4.958	5.849	8.017	7.046	5.887	257.812
-6.807	-7.603	-6.675	-6.125	-3.259	-3.605	3.238	2.756	4.398	5.240	5.339	4.594	3.794	1.966	-6.280	-7.218	-4.635	-3.299	-1.965	-5.912	-1.612	1.338	0.538	5.023	5.893	7.884	6.782	5.649	261.719
-7.020	-7.644	-6.858	-6.024	-3.150	-3.654	3.152	2.744	4.462	5.073	5.195	4.455	3.691	2.186	-6.431	-7.069	-4.438	-3.218	-1.670	-5.625	-1.254	1.667	0.806	5.113	6.022	7.863	6.599	5.517	265.625
-7.315	-7.739	-7.111	-5.969	-3.062	-3.711	3.119	2.823	4.658	5.012	5.168	4.409	3.604	2.359	-6.670	-6.981	-4.315	-3.227	-1.425	-5.391	-0.959	1.952	1.049	5.230	6.212	7.932	6.506	5.481	269.531
-7.677	-7.870	-7.437	-5.955	-2.991	-3.782	3.151	2.970	4.953	5.065	5.244	4.444	3.574	2.515	-6.975	-6.937	-4.250	-3.319	-1.221	-5.193	-0.704	2.200	1.252	5.372	6.436	8.064	6.506	5.522	273.438
-8.085	-8.011	-7.828	-5.973	-2.931	-3.871	3.251	3.154	5.303	5.223	5.396	4.541	3.634	2.682	-7.321	-6.916	-4.229	-3.480	-1.045	-5.010	-0.463	2.417	1.402	5.537	6.662	8.228	6.594	5.620	277.344
-8.511	-8.140	-8.266	-6.007	-2.875	-3.977	3.412	3.341	5.660	5.473	5.594	4.681	3.806	2.884	-7.680	-6.896	-4.235	-3.694	-0.891	-4.822	-0.215	2.610	1.494	5.719	6.863	8.396	6.759	5.750	281.250
-8.925	-8.238	-8.725	-6.039	-2.815	-4.096	3.626	3.501	5.979	5.792	5.807	4.846	4.100	3.137	-8.025	-6.860	-4.258	-3.944	-0.756	-4.616	0.055	2.787	1.530	5.915	7.016	8.542	6.987	5.890	285.156
-9.303	-8.293	-9.176	-6.056	-2.743	-4.220	3.879	3.609	6.227	6.158	6.008	5.021	4.511	3.453	-8.338	-6.802	-4.294	-4.220	-0.642	-4.387	0.356	2.952	1.517	6.122	7.108	8.646	7.257	6.020	289.062
-9.627	-8.306	-9.592	-6.045	-2.650	-4.338	4.155	3.653	6.384	6.546	6.180	5.195	5.027	3.833	-8.607	-6.722	-4.344	-4.514	-0.553	-4.137	0.690	3.111	1.473	6.340	7.135	8.697	7.552	6.128	292.969
-9.888	-8.284	-9.952	-6.000	-2.533	-4.437	4.442	3.631	6.447	6.936	6.314	5.359	5.626	4.272	-8.831	-6.628	-4.411	-4.819	-0.493	-3.876	1.053	3.265	1.416	6.568	7.103	8.692	7.853	6.206	296.875
-10.092	-8.240	-10.246	-5.921	-2.387	-4.505	4.726	3.555	6.424	7.311	6.409	5.507	6.282	4.759	-9.020	-6.533	-4.498	-5.130	-0.465	-3.614	1.438	3.418	1.368	6.807	7.025	8.633	8.142	6.251	300.781
-10.249	-8.186	-10.476	-5.809	-2.211	-4.536	4.998	3.442	6.337	7.656	6.469	5.636	6.965	5.279	-9.188	-6.447	-4.602	-5.439	-0.461	-3.360	1.836	3.574	1.348	7.055	6.921	8.530	8.404	6.266	304.688
-10.378	-8.134	-10.649	-5.671	-2.004	-4.524	5.254	3.318	6.208	7.959	6.500	5.739	7.641	5.815	-9.353	-6.378	-4.715	-5.737	-0.470	-3.120	2.240	3.738	1.367	7.308	6.809	8.394	8.624	6.253	308.594
-10.496	-8.087	-10.782	-5.510	-1.767	-4.467	5.488	3.204	6.062	8.210	6.505	5.810	8.281	6.349	-9.529	-6.325	-4.823	-6.013	-0.477	-2.894	2.644	3.913	1.428	7.559	6.707	8.237	8.791	6.215	312.500
-10.618	-8.046	-10.891	-5.331	-1.501	-4.368	5.702	3.121	5.917	8.401	6.487	5.841	8.857	6.863	-9.726	-6.280	-4.909	-6.259	-0.463	-2.677	3.045	4.102	1.527	7.798	6.629	8.071	8.896	6.153	316.406
-10.752	-8.003	-10.989	-5.136	-1.210	-4.230	5.894	3.081	5.787	8.526	6.446	5.827	9.346	7.342	-9.948	-6.232	-4.959	-6.469	-0.415	-2.462	3.440	4.304	1.651	8.016	6.581	7.906	8.933	6.069	320.312
-10.900	-7.946	-11.088	-4.924	-0.899	-4.060	6.065	3.089	5.678	8.583	6.381	5.763	9.733	7.771	-10.193	-6.165	-4.961	-6.642	-0.323	-2.240	3.826	4.517	1.786	8.201	6.563	7.749	8.903	5.965	324.219
-11.056	-7.865	-11.192	-4.696	-0.575	-3.866	6.213	3.140	5.593	8.574	6.294	5.649	10.009	8.139	-10.452	-6.066	-4.910	-6.780	-0.186	-2.006	4.200	4.735	1.920	8.345	6.570	7.608	8.809	5.841	328.125
-11.208	-7.750	-11.300	-4.454	-0.249	-3.655	6.339	3.227	5.531	8.505	6.190	5.493	10.175	8.435	-10.717	-5.928	-4.811	-6.889	-0.010	-1.757	4.552	4.950	2.042	8.444	6.594	7.484	8.663	5.702	332.031
-11.346	-7.601	-11.407	-4.203	0.067	-3.439	6.444	3.338	5.494	8.389	6.079	5.311	10.237	8.654	-10.976	-5.751	-4.677	-6.977	0.191	-1.500	4.872	5.151	2.149	8.497	6.627	7.382	8.482	5.556	335.938
-11.459	-7.425	-11.506	-3.952	0.358	-3.227	6.529	3.462	5.482	8.245	5.979	5.127	10.209	8.792	-11.220	-5.544	-4.525	-7.053	0.396	-1.247	5.145	5.326	2.237	8.508	6.659	7.302	8.285	5.415	339.844
-11.544	-7.236	-11.587	-3.712	0.613	-3.025	6.599	3.593	5.500	8.094	5.909	4.969	10.109	8.852	-11.440	-5.327	-4.380	-7.123	0.584	-1.015	5.356	5.464	2.306	8.481	6.687	7.245	8.097	5.291	343.750
-11.602	-7.052	-11.643	-3.494	0.821	-2.843	6.661	3.727	5.554	7.959	5.890	4.864	9.959	8.837	-11.633	-5.121	-4.265	-7.193	0.733	-0.822	5.492	5.555	2.352	8.427	6.707	7.211	7.938	5.198	347.656
-11.641	-6.892	-11.668	-3.312	0.973	-2.684	6.724	3.868	5.647	7.860	5.936	4.832	9.781	8.759	-11.798	-4.952	-4.199	-7.264	0.827	-0.688	5.542	5.592	2.373	8.354	6.718	7.198	7.826	5.148	351.562
-11.670	-6.771	-11.659	-3.176	1.069	-2.551	6.793	4.018	5.781	7.812	6.051	4.882	9.594	8.630	-11.935	-4.839	-4.191	-7.335	0.858	-0.623	5.505	5.572	2.368	8.271	6.724	7.202	7.771	5.143	355.469
-11.696	-6.697	-11.617	-3.091	1.110	-2.444	6.873	4.182	5.951	7.820	6.223	5.006	9.415	8.464	-12.045	-4.796	-4.243	-7.401	0.826	-0.635	5.385	5.499	2.334	8.186	6.726	7.220	7.770	5.180	359.375
-11.722	-6.672	-11.543	-3.059	1.105	-2.360	6.960	4.361	6.148	7.878	6.428	5.181	9.253	8.275	-12.129	-4.822	-4.347	-7.457	0.737	-0.717	5.195	5.379	2.275	8.103	6.726	7.247	7.815	5.247	363.281
-11.743	-6.688	-11.439	-3.076	1.065	-2.291	7.052	4.558	6.362	7.973	6.635	5.370	9.109	8.074	-12.184	-4.910	-4.486	-7.495	0.604	-0.859	4.949	5.221	2.194	8.024	6.728	7.278	7.884	5.323	367.188
-11.751	-6.734	-11.308	-3.132	1.004	-2.230	7.138	4.769	6.582	8.086	6.810	5.529	8.976	7.865	-12.208	-5.042	-4.641	-7.511	0.440	-1.043	4.665	5.034	2.096	7.943	6.732	7.308	7.955	5.386	371.094
-11.735	-6.791	-11.155	-3.215	0.933	-2.169	7.212	4.991	6.797	8.195	6.927	5.621	8.844	7.650	-12.197	-5.194	-4.792	-7.497	0.258	-1.249	4.358	4.826	1.986	7.856	6.739	7.332	8.003	5.416	375.000
-11.684	-6.846	-10.985	-3.310	0.864	-2.100	7.266	5.218	7.001	8.284	6.973	5.621	8.698	7.428	-12.152	-5.345	-4.922	-7.448	0.068	-1.460	4.040	4.603	1.866	7.752	6.747	7.347	8.007	5.402	378.906
-11.591	-6.885	-10.807	-3.402	0.803	-2.021	7.298	5.440	7.188	8.343	6.950	5.524	8.530	7.196	-12.077	-5.476	-5.020	-7.361	-0.122	-1.662	3.720	4.369	1.740	7.624	6.748	7.348	7.957	5.343	382.812
-11.450	-6.898	-10.628	-3.480	0.752	-1.933	7.308	5.644	7.350	8.373	6.875	5.350	8.338	6.955	-11.975	-5.577	-5.082	-7.237	-0.306	-1.847	3.407	4.129	1.609	7.466	6.734	7.325	7.853	5.249	386.719
-11.263	-6.882	-10.456	-3.538	0.710	-1.839	7.298	5.814	7.480	8.379	6.770	5.136	8.130	6.710	-11.852	-5.643	-5.110	-7.077	-0.477	-2.014	3.106	3.890	1.476	7.278	6.689	7.270	7.704	5.138	390.625
-11.031	-6.839	-10.295	-3.572	0.675	-1.746	7.273	5.932	7.563	8.370	6.658	4.930	7.922	6.471	-11.708	-5.678	-5.109	-6.888	-0.630	-2.164	2.824	3.659	1.343	7.063	6.601	7.170	7.525	5.030	394.531
-10.761	-6.777	-10.143	-3.586	0.643	-1.657	7.233	5.984	7.584	8.354	6.557	4.775	7.733	6.251	-11.540	-5.690	-5.085	-6.679	-0.757	-2.302	2.565	3.445	1.214	6.830	6.457	7.016	7.330	4.939	398.438
-10.458	-6.703	-9.997	-3.583	0.614	-1.577	7.178	5.965	7.533	8.332	6.473	4.697	7.579	6.059	-11.343	-5.688	-5.046	-6.458	-0.855	-2.432	2.336	3.259	1.093	6.589	6.253	6.798	7.132	4.870	402.344
-10.131	-6.627	-9.844	-3.572	0.587	-1.507	7.106	5.879	7.400	8.296	6.399	4.703	7.470	5.904	-11.109	-5.681	-4.994	-6.230	-0.920	-2.557	2.140	3.109	0.986	6.347	5.995	6.513	6.934	4.815	406.250
-9.788	-6.556	-9.675	-3.561	0.565	-1.444	7.012	5.738	7.187	8.235	6.320	4.772	7.405	5.787	-10.834	-5.677	-4.930	-5.996	-0.951	-2.679	1.978	3.003	0.898	6.114	5.696	6.163	6.731	4.754	410.156
-9.433	-6.493	-9.475	-3.552	0.551	-1.381	6.890	5.566	6.901	8.131	6.214	4.864	7.368	5.703	-10.511	-5.678	-4.853	-5.754	-0.948	-2.797	1.850	2.946	0.840	5.892	5.377	5.754	6.510	4.662	414.062
-9.071	-6.437	-9.234	-3.546	0.551	-1.307	6.734	5.386	6.557	7.965	6.060	4.929	7.336	5.639	-10.140	-5.684	-4.759	-5.497	-0.914	-2.906	1.752	2.939	0.822	5.681	5.060	5.297	6.255	4.509	417.969
-8.702	-6.382	-8.941	-3.539	0.567	-1.214	6.540	5.222	6.171	7.724	5.840	4.917	7.275	5.578	-9.724	-5.688	-4.645	-5.219	-0.851	-3.004	1.677	2.980	0.854	5.478	4.768	4.804	5.950	4.276	421.875
-8.322	-6.319	-8.590	-3.525	0.599	-1.092	6.303	5.087	5.757	7.399	5.548	4.797	7.153	5.499	-9.269	-5.684	-4.511	-4.914	-0.766	-3.087	1.616	3.060	0.941	5.275	4.516	4.292	5.585	3.956	425.781
-7.926	-6.237	-8.182	-3.495	0.641	-0.939	6.017	4.981	5.327	6.988	5.187	4.557	6.940	5.381	-8.780	-5.664	-4.360	-4.579	-0.665	-3.152	1.553	3.163	1.087	5.065	4.315	3.783	5.158	3.557	429.688
-7.511	-6.129	-7.720	-3.446	0.683	-0.760	5.680	4.895	4.890	6.500	4.773	4.207	6.617	5.204	-8.264	-5.623	-4.196	-4.214	-0.560	-3.200	1.476	3.274	1.288	4.842	4.169	3.298	4.679	3.106	433.594
-7.075	-5.993	-7.217	-3.377	0.712	-0.566	5.293	4.811	4.451	5.951	4.331	3.779	6.182	4.958	-7.725	-5.560	-4.028	-3.823	-0.462	-3.234	1.371	3.374	1.539	4.605	4.077	2.859	4.169	2.637	437.500
-6.624	-5.830	-6.691	-3.292	0.715	-0.374	4.862	4.709	4.016	5.364	3.888	3.314	5.647	4.641	-7.169	-5.477	-3.863	-3.415	-0.380	-3.261	1.229	3.450	1.825	4.355	4.035	2.487	3.656	2.188	441.406
-6.171	-5.651	-6.163	-3.199	0.684	-0.202	4.402	4.573	3.593	4.767	3.471	2.856	5.041	4.264	-6.606	-5.384	-3.711	-3.000	-0.323	-3.289	1.045	3.491	2.129	4.104	4.032	2.194	3.172	1.791	445.312
-5.736	-5.469	-5.655	-3.107	0.620	-0.061	3.936	4.396	3.198	4.195	3.105	2.442	4.410	3.846	-6.051	-5.293	-3.581	-2.593	-0.298	-3.326	0.821	3.496	2.429	3.865	4.059	1.988	2.749	1.468	449.219
-5.342	-5.301	-5.191	-3.024	0.530	0.042	3.495	4.185	2.848	3.681	2.809	2.105	3.804	3.416	-5.529	-5.221	-3.482	-2.215	-0.308	-3.382	0.568	3.467	2.702	3.657	4.100	1.865	2.415	1.231	453.125
-5.016	-5.164	-4.788	-2.957	0.428	0.111	3.111	3.957	2.566	3.259	2.596	1.862	3.275	3.007	-5.070	-5.184	-3.424	-1.888	-0.355	-3.464	0.298	3.411	2.923	3.498	4.143	1.821	2.192	1.082	457.031
-4.781	-5.075	-4.460	-2.909	0.331	0.154	2.817	3.734	2.371	2.957	2.475	1.725	2.872	2.651	-4.708	-5.194	-3.416	-1.636	-0.437	-3.575	0.029	3.339	3.071	3.402	4.176	1.843	2.095	1.020	460.938
-4.650	-5.045	-4.214	-2.882	0.256	0.182	2.634	3.541	2.275	2.794	2.448	1.697	2.627	2.373	-4.469	-5.260	-3.464	-1.483	-0.551	-3.713	-0.222	3.260	3.135	3.380	4.190	1.921	2.129	1.038	464.844
-4.628	-5.082	-4.052	-2.876	0.211	0.208	2.573	3.398	2.279	2.775	2.508	1.771	2.557	2.192	-4.372	-5.379	-3.573	-1.444	-0.690	-3.874	-0.439	3.183	3.112	3.433	4.181	2.043	2.290	1.131	468.750
-4.707	-5.183	-3.970	-2.894	0.197	0.235	2.628	3.319	2.375	2.892	2.645	1.936	2.656	2.113	-4.416	-5.545	-3.736	-1.527	-0.847	-4.048	-0.613	3.115	3.008	3.556	4.151	2.197	2.562	1.291	472.656
-4.865	-5.340	-3.959	-2.935	0.208	0.266	2.782	3.305	2.544	3.119	2.841	2.172	2.901	2.127	-4.582	-5.740	-3.942	-1.722	-1.010	-4.223	-0.741	3.057	2.842	3.732	4.102	2.369	2.918	1.508	476.562
-5.074	-5.535	-4.004	-2.997	0.232	0.295	3.006	3.353	2.760	3.422	3.073	2.455	3.248	2.212	-4.835	-5.945	-4.172	-2.007	-1.170	-4.391	-0.826	3.010	2.635	3.936	4.040	2.548	3.320	1.765	480.469
-5.301	-5.744	-4.089	-3.075	0.252	0.315	3.263	3.452	2.996	3.757	3.316	2.755	3.644	2.341	-5.128	-6.136	-4.403	-2.349	-1.316	-4.540	-0.880	2.968	2.412	4.139	3.971	2.718	3.724	2.041	484.375
-5.513	-5.940	-4.195	-3.163	0.258	0.323	3.517	3.590	3.228	4.079	3.545	3.041	4.029	2.477	-5.409	-6.293	-4.610	-2.708	-1.440	-4.664	-0.914	2.923	2.195	4.311	3.899	2.864	4.082	2.311	488.281
-5.681	-6.095	-4.304	-3.249	0.241	0.313	3.734	3.752	3.438	4.349	3.741	3.284	4.348	2.586	-5.633	-6.399	-4.769	-3.044	-1.536	-4.757	-0.945	2.868	1.999	4.423	3.828	2.973	4.352	2.549	492.188
-5.785	-6.186	-4.400	-3.320	0.203	0.290	3.889	3.923	3.610	4.535	3.890	3.461	4.553	2.638	-5.765	-6.442	-4.861	-3.323	-1.599	-4.815	-0.984	2.796	1.832	4.455	3.760	3.037	4.502	2.734	496.094
-5.813	-6.195	-4.469	-3.365	0.148	0.258	3.961	4.088	3.735	4.618	3.986	3.558	4.612	2.613	-5.786	-6.415	-4.872	-3.523	-1.625	-4.836	-1.041	2.701	1.698	4.398	3.699	3.052	4.517	2.850	500.000
-5.766	-6.116	-4.503	-3.373	0.085	0.223	3.941	4.230	3.808	4.593	4.032	3.574	4.511	2.497	-5.696	-6.319	-4.797	-3.633	-1.614	-4.820	-1.122	2.585	1.595	4.256	3.649	3.025	4.400	2.896	503.906
-5.653	-5.954	-4.496	-3.342	0.021	0.194	3.828	4.332	3.829	4.468	4.040	3.520	4.252	2.292	-5.506	-6.163	-4.639	-3.653	-1.568	-4.770	-1.229	2.450	1.521	4.042	3.614	2.966	4.174	2.879	507.812
-5.488	-5.727	-4.451	-3.277	-0.040	0.172	3.627	4.380	3.801	4.262	4.024	3.417	3.854	2.004	-5.241	-5.960	-4.412	-3.594	-1.493	-4.695	-1.364	2.301	1.477	3.778	3.600	2.894	3.877	2.818	511.719
-5.292	-5.458	-4.369	-3.189	-0.102	0.159	3.349	4.366	3.732	3.998	4.002	3.291	3.347	1.648	-4.931	-5.733	-4.139	-3.467	-1.401	-4.608	-1.528	2.143	1.461	3.490	3.616	2.831	3.554	2.737	515.625
-5.083	-5.180	-4.258	-3.095	-0.173	0.149	3.009	4.285	3.634	3.704	3.986	3.168	2.765	1.244	-4.605	-5.504	-3.847	-3.287	-1.306	-4.527	-1.720	1.981	1.476	3.205	3.667	2.794	3.247	2.661	519.531
-4.877	-4.921	-4.123	-3.016	-0.265	0.137	2.628	4.141	3.516	3.404	3.983	3.067	2.144	0.810	-4.286	-5.300	-3.566	-3.064	-1.224	-4.469	-1.940	1.821	1.523	2.944	3.759	2.801	2.992	2.609	523.438
-4.685	-4.708	-3.972	-2.968	-0.389	0.115	2.224	3.943	3.389	3.114	3.989	2.998	1.519	0.368	-3.991	-5.142	-3.323	-2.810	-1.166	-4.452	-2.184	1.668	1.604	2.719	3.891	2.861	2.810	2.595	527.344
-4.512	-4.557	-3.808	-2.965	-0.550	0.079	1.820	3.710	3.259	2.845	3.992	2.958	0.914	-0.064	-3.724	-5.043	-3.133	-2.535	-1.138	-4.483	-2.444	1.529	1.715	2.537	4.061	2.972	2.705	2.619	531.250
-4.356	-4.474	-3.637	-3.010	-0.747	0.026	1.437	3.462	3.134	2.601	3.977	2.934	0.353	-0.470	-3.486	-5.007	-3.005	-2.252	-1.139	-4.564	-2.712	1.410	1.849	2.394	4.256	3.127	2.664	2.669	535.156
-4.212	-4.451	-3.459	-3.099	-0.968	-0.039	1.098	3.226	3.019	2.381	3.927	2.908	-0.150	-0.834	-3.269	-5.027	-2.935	-1.972	-1.163	-4.684	-2.972	1.314	1.997	2.281	4.458	3.306	2.664	2.728	539.062
-4.068	-4.473	-3.277	-3.216	-1.194	-0.109	0.822	3.027	2.920	2.184	3.831	2.859	-0.580	-1.144	-3.068	-5.085	-2.908	-1.712	-1.199	-4.824	-3.209	1.243	2.138	2.184	4.644	3.484	2.673	2.772	542.969
-3.917	-4.518	-3.092	-3.340	-1.399	-0.172	0.627	2.887	2.847	2.011	3.692	2.774	-0.927	-1.391	-2.882	-5.154	-2.907	-1.486	-1.235	-4.962	-3.408	1.188	2.252	2.088	4.783	3.636	2.663	2.780	546.875
-3.753	-4.562	-2.904	-3.446	-1.558	-0.217	0.526	2.821	2.808	1.869	3.522	2.649	-1.180	-1.568	-2.716	-5.207	-2.913	-1.312	-1.264	-5.071	-3.556	1.139	2.314	1.982	4.851	3.734	2.613	2.739	550.781
-3.577	-4.587	-2.718	-3.512	-1.648	-0.232	0.525	2.835	2.814	1.768	3.344	2.494	-1.333	-1.671	-2.579	-5.219	-2.910	-1.204	-1.284	-5.130	-3.640	1.084	2.302	1.858	4.827	3.762	2.513	2.647	554.688
-3.395	-4.578	-2.538	-3.522	-1.657	-0.210	0.622	2.923	2.867	1.721	3.188	2.328	-1.380	-1.698	-2.486	-5.173	-2.892	-1.174	-1.295	-5.125	-3.658	1.011	2.204	1.717	4.703	3.713	2.369	2.514	558.594
-3.224	-4.531	-2.370	-3.470	-1.584	-0.151	0.805	3.068	2.966	1.741	3.082	2.178	-1.323	-1.653	-2.451	-5.061	-2.855	-1.229	-1.304	-5.050	-3.610	0.913	2.020	1.567	4.485	3.590	2.199	2.362	562.500
-3.078	-4.447	-2.223	-3.358	-1.441	-0.062	1.055	3.245	3.099	1.833	3.045	2.074	-1.169	-1.542	-2.482	-4.890	-2.807	-1.366	-1.318	-4.910	-3.503	0.791	1.764	1.421	4.193	3.410	2.029	2.218	566.406
-2.974	-4.334	-2.106	-3.200	-1.249	0.045	1.345	3.424	3.247	1.996	3.085	2.034	-0.933	-1.376	-2.580	-4.675	-2.755	-1.570	-1.343	-4.719	-3.349	0.655	1.466	1.297	3.860	3.196	1.886	2.105	570.312
-2.918	-4.205	-2.030	-3.015	-1.037	0.153	1.645	3.574	3.387	2.217	3.194	2.070	-0.635	-1.172	-2.734	-4.437	-2.707	-1.820	-1.380	-4.496	-3.163	0.520	1.160	1.211	3.522	2.973	1.792	2.041	574.219
-2.909	-4.072	-2.002	-2.825	-0.834	0.246	1.927	3.670	3.496	2.475	3.350	2.175	-0.299	-0.947	-2.922	-4.199	-2.668	-2.084	-1.426	-4.262	-2.962	0.405	0.886	1.175	3.216	2.761	1.758	2.027	578.125
-2.936	-3.947	-2.024	-2.651	-0.666	0.310	2.164	3.697	3.554	2.740	3.519	2.329	0.045	-0.720	-3.115	-3.982	-2.639	-2.328	-1.471	-4.038	-2.762	0.328	0.678	1.194	2.969	2.576	1.785	2.057	582.031
-2.982	-3.840	-2.093	-2.510	-0.550	0.335	2.337	3.650	3.548	2.982	3.665	2.505	0.371	-0.509	-3.283	-3.798	-2.616	-2.520	-1.503	-3.839	-2.578	0.302	0.558	1.264	2.799	2.425	1.860	2.111	585.938
-3.025	-3.755	-2.198	-2.413	-0.495	0.321	2.435	3.533	3.475	3.173	3.757	2.670	0.656	-0.330	-3.401	-3.652	-2.590	-2.636	-1.512	-3.673	-2.419	0.333	0.538	1.373	2.710	2.309	1.965	2.169	589.844
-3.048	-3.691	-2.323	-2.361	-0.499	0.271	2.454	3.364	3.341	3.290	3.771	2.798	0.881	-0.193	-3.453	-3.541	-2.556	-2.660	-1.487	-3.542	-2.292	0.418	0.615	1.504	2.695	2.224	2.075	2.210	593.750
-3.040	-3.643	-2.446	-2.347	-0.551	0.195	2.399	3.161	3.159	3.323	3.700	2.870	1.032	-0.106	-3.435	-3.454	-2.504	-2.593	-1.426	-3.442	-2.199	0.546	0.774	1.636	2.739	2.165	2.166	2.223	597.656
-2.996	-3.600	-2.547	-2.359	-0.637	0.104	2.277	2.948	2.946	3.272	3.552	2.878	1.107	-0.070	-3.356	-3.378	-2.432	-2.446	-1.332	-3.362	-2.138	0.699	0.992	1.745	2.821	2.123	2.220	2.203	601.562
-2.916	-3.554	-2.608	-2.383	-0.738	0.011	2.099	2.746	2.719	3.145	3.344	2.823	1.105	-0.080	-3.229	-3.295	-2.335	-2.242	-1.212	-3.288	-2.101	0.858	1.240	1.815	2.917	2.092	2.223	2.153	605.469
-2.804	-3.493	-2.618	-2.401	-0.838	-0.074	1.879	2.569	2.494	2.958	3.101	2.713	1.032	-0.129	-3.070	-3.192	-2.211	-2.007	-1.074	-3.206	-2.077	1.006	1.490	1.833	3.005	2.065	2.168	2.079	609.375
-2.663	-3.410	-2.572	-2.401	-0.924	-0.140	1.628	2.425	2.282	2.726	2.848	2.558	0.896	-0.206	-2.892	-3.054	-2.059	-1.769	-0.926	-3.101	-2.057	1.130	1.721	1.791	3.063	2.031	2.053	1.989	613.281
-2.496	-3.300	-2.475	-2.372	-0.984	-0.181	1.356	2.314	2.089	2.466	2.604	2.369	0.709	-0.302	-2.703	-2.874	-1.877	-1.546	-0.774	-2.962	-2.027	1.221	1.917	1.690	3.077	1.983	1.882	1.885	617.188
-2.301	-3.160	-2.335	-2.308	-1.014	-0.193	1.075	2.231	1.916	2.192	2.384	2.154	0.481	-0.405	-2.505	-2.650	-1.665	-1.351	-0.621	-2.785	-1.978	1.277	2.070	1.536	3.037	1.913	1.662	1.766	621.094
-2.079	-2.989	-2.165	-2.209	-1.010	-0.174	0.795	2.163	1.758	1.914	2.189	1.919	0.225	-0.508	-2.298	-2.387	-1.429	-1.185	-0.469	-2.570	-1.906	1.299	2.177	1.342	2.944	1.817	1.404	1.631	625.000
-1.829	-2.788	-1.983	-2.077	-0.974	-0.125	0.525	2.098	1.610	1.641	2.020	1.672	-0.044	-0.604	-2.084	-2.093	-1.176	-1.045	-0.322	-2.321	-1.808	1.290	2.239	1.121	2.805	1.697	1.122	1.477	628.906
-1.558	-2.565	-1.803	-1.918	-0.910	-0.051	0.276	2.025	1.466	1.381	1.869	1.422	-0.308	-0.688	-1.864	-1.784	-0.918	-0.922	-0.184	-2.051	-1.687	1.254	2.259	0.891	2.636	1.560	0.834	1.307	632.812
-1.275	-2.328	-1.639	-1.742	-0.823	0.039	0.060	1.937	1.324	1.143	1.732	1.181	-0.551	-0.756	-1.647	-1.478	-0.670	-0.812	-0.060	-1.774	-1.548	1.196	2.240	0.668	2.455	1.417	0.560	1.127	636.719
-0.994	-2.092	-1.502	-1.559	-0.721	0.138	-0.113	1.835	1.186	0.939	1.608	0.964	-0.755	-0.805	-1.442	-1.195	-0.453	-0.714	0.043	-1.509	-1.402	1.122	2.189	0.468	2.283	1.281	0.316	0.950	640.625
-0.729	-1.872	-1.395	-1.380	-0.612	0.237	-0.234	1.727	1.058	0.778	1.498	0.785	-0.904	-0.835	-1.264	-0.955	-0.284	-0.635	0.116	-1.273	-1.260	1.040	2.111	0.302	2.136	1.164	0.119	0.789	644.531
-0.497	-1.683	-1.319	-1.217	-0.502	0.333	-0.298	1.624	0.949	0.671	1.407	0.653	-0.992	-0.845	-1.126	-0.772	-0.178	-0.587	0.156	-1.083	-1.134	0.956	2.014	0.177	2.025	1.073	-0.023	0.656	648.438
-0.309	-1.534	-1.268	-1.077	-0.399	0.425	-0.301	1.542	0.870	0.622	1.341	0.572	-1.015	-0.838	-1.040	-0.656	-0.142	-0.579	0.158	-0.950	-1.033	0.879	1.908	0.096	1.952	1.008	-0.108	0.560	652.344
-0.170	-1.429	-1.231	-0.963	-0.305	0.516	-0.249	1.491	0.827	0.630	1.301	0.536	-0.981	-0.818	-1.008	-0.609	-0.173	-0.621	0.125	-0.880	-0.964	0.817	1.804	0.058	1.914	0.964	-0.144	0.499	656.250
-0.078	-1.368	-1.197	-0.877	-0.223	0.606	-0.153	1.477	0.818	0.685	1.285	0.533	-0.903	-0.786	-1.028	-0.623	-0.261	-0.712	0.065	-0.867	-0.927	0.778	1.713	0.057	1.902	0.930	-0.141	0.466	660.156
-0.025	-1.344	-1.158	-0.816	-0.154	0.697	-0.029	1.495	0.831	0.771	1.282	0.542	-0.798	-0.746	-1.086	-0.684	-0.384	-0.840	-0.009	-0.900	-0.916	0.769	1.649	0.089	1.905	0.893	-0.117	0.445	664.062
0.002	-1.349	-1.107	-0.778	-0.101	0.783	0.102	1.532	0.850	0.867	1.277	0.542	-0.682	-0.701	-1.162	-0.772	-0.517	-0.986	-0.081	-0.962	-0.921	0.795	1.623	0.147	1.913	0.846	-0.086	0.420	667.969
0.016	-1.374	-1.044	-0.762	-0.064	0.858	0.219	1.570	0.851	0.951	1.257	0.517	-0.574	-0.651	-1.234	-0.867	-0.636	-1.124	-0.134	-1.031	-0.929	0.860	1.647	0.225	1.919	0.782	-0.063	0.373	671.875
0.030	-1.409	-0.973	-0.764	-0.045	0.913	0.302	1.587	0.816	1.003	1.209	0.456	-0.486	-0.599	-1.282	-0.951	-0.718	-1.227	-0.154	-1.088	-0.927	0.961	1.724	0.316	1.921	0.702	-0.056	0.292	675.781
0.054	-1.446	-0.902	-0.782	-0.047	0.941	0.335	1.566	0.731	1.010	1.123	0.354	-0.428	-0.549	-1.288	-1.011	-0.753	-1.271	-0.135	-1.118	-0.907	1.092	1.851	0.413	1.920	0.608	-0.072	0.173	679.688
0.093	-1.479	-0.836	-0.814	-0.071	0.938	0.309	1.498	0.593	0.964	1.000	0.218	-0.408	-0.507	-1.239	-1.039	-0.734	-1.240	-0.079	-1.114	-0.866	1.241	2.017	0.507	1.918	0.509	-0.112	0.019	683.594
0.150	-1.503	-0.779	-0.856	-0.118	0.903	0.221	1.379	0.408	0.866	0.842	0.057	-0.430	-0.481	-1.131	-1.038	-0.667	-1.131	0.006	-1.077	-0.809	1.391	2.205	0.588	1.919	0.411	-0.174	-0.163	687.500
0.227	-1.515	-0.732	-0.904	-0.187	0.839	0.076	1.218	0.191	0.721	0.661	-0.115	-0.496	-0.477	-0.964	-1.013	-0.564	-0.950	0.107	-1.016	-0.747	1.528	2.396	0.646	1.924	0.321	-0.255	-0.357	691.406
0.326	-1.515	-0.690	-0.953	-0.277	0.753	-0.117	1.026	-0.040	0.544	0.471	-0.282	-0.603	-0.501	-0.747	-0.975	-0.441	-0.718	0.206	-0.947	-0.691	1.638	2.572	0.675	1.933	0.243	-0.348	-0.546	695.312
0.449	-1.504	-0.650	-0.999	-0.384	0.652	-0.345	0.819	-0.264	0.348	0.288	-0.429	-0.745	-0.555	-0.492	-0.935	-0.315	-0.458	0.291	-0.884	-0.654	1.711	2.720	0.671	1.943	0.180	-0.447	-0.714	699.219
0.600	-1.488	-0.604	-1.038	-0.504	0.544	-0.591	0.614	-0.465	0.152	0.127	-0.543	-0.909	-0.636	-0.219	-0.900	-0.203	-0.200	0.351	-0.842	-0.645	1.745	2.832	0.633	1.946	0.129	-0.544	-0.848	703.125
0.778	-1.472	-0.548	-1.068	-0.632	0.433	-0.841	0.423	-0.632	-0.031	0.001	-0.616	-1.082	-0.738	0.053	-0.878	-0.117	0.032	0.379	-0.830	-0.668	1.741	2.907	0.569	1.936	0.086	-0.630	-0.937	707.031
0.984	-1.459	-0.478	-1.090	-0.760	0.323	-1.079	0.256	-0.762	-0.189	-0.082	-0.645	-1.246	-0.850	0.305	-0.871	-0.064	0.220	0.376	-0.850	-0.721	1.706	2.946	0.487	1.906	0.046	-0.699	-0.978	710.938
1.211	-1.453	-0.395	-1.105	-0.884	0.219	-1.291	0.120	-0.855	-0.313	-0.120	-0.631	-1.386	-0.960	0.523	-0.875	-0.045	0.359	0.343	-0.899	-0.796	1.650	2.955	0.397	1.852	0.003	-0.746	-0.975	714.844
1.447	-1.453	-0.298	-1.117	-0.996	0.122	-1.465	0.018	-0.917	-0.400	-0.120	-0.583	-1.485	-1.057	0.698	-0.888	-0.058	0.449	0.287	-0.966	-0.882	1.580	2.938	0.311	1.773	-0.048	-0.769	-0.937	718.750
1.675	-1.460	-0.194	-1.129	-1.091	0.038	-1.590	-0.049	-0.952	-0.447	-0.089	-0.510	-1.536	-1.128	0.827	-0.904	-0.096	0.499	0.214	-1.041	-0.967	1.506	2.897	0.238	1.672	-0.112	-0.768	-0.875	722.656
1.874	-1.469	-0.089	-1.144	-1.165	-0.029	-1.658	-0.077	-0.961	-0.453	-0.037	-0.424	-1.533	-1.166	0.909	-0.918	-0.153	0.517	0.128	-1.112	-1.039	1.432	2.835	0.184	1.557	-0.187	-0.749	-0.804	726.562
2.023	-1.478	0.009	-1.164	-1.213	-0.072	-1.661	-0.066	-0.943	-0.418	0.026	-0.332	-1.475	-1.165	0.948	-0.926	-0.223	0.509	0.036	-1.170	-1.091	1.360	2.753	0.152	1.437	-0.272	-0.714	-0.732	730.469
2.108	-1.484	0.091	-1.189	-1.236	-0.090	-1.598	-0.015	-0.890	-0.341	0.099	-0.240	-1.369	-1.127	0.944	-0.928	-0.300	0.476	-0.060	-1.212	-1.120	1.291	2.652	0.141	1.319	-0.362	-0.669	-0.668	734.375
2.117	-1.485	0.148	-1.216	-1.235	-0.082	-1.473	0.071	-0.796	-0.219	0.181	-0.145	-1.220	-1.053	0.898	-0.926	-0.384	0.412	-0.154	-1.238	-1.126	1.223	2.534	0.152	1.214	-0.449	-0.617	-0.612	738.281
2.050	-1.480	0.172	-1.244	-1.217	-0.053	-1.294	0.187	-0.654	-0.054	0.277	-0.044	-1.039	-0.952	0.810	-0.921	-0.470	0.311	-0.245	-1.252	-1.114	1.157	2.402	0.182	1.127	-0.525	-0.557	-0.562	742.188
1.915	-1.470	0.158	-1.271	-1.187	-0.011	-1.076	0.318	-0.466	0.151	0.394	0.071	-0.834	-0.832	0.683	-0.919	-0.555	0.168	-0.327	-1.260	-1.089	1.095	2.267	0.231	1.061	-0.584	-0.486	-0.512	746.094
1.729	-1.458	0.101	-1.295	-1.153	0.032	-0.838	0.449	-0.243	0.387	0.530	0.207	-0.611	-0.703	0.526	-0.922	-0.634	-0.020	-0.397	-1.270	-1.057	1.040	2.138	0.300	1.018	-0.621	-0.399	-0.453	750.000
1.512	-1.448	0.003	-1.315	-1.124	0.065	-0.601	0.561	-0.006	0.641	0.684	0.366	-0.380	-0.573	0.351	-0.931	-0.699	-0.247	-0.451	-1.283	-1.022	0.998	2.030	0.387	0.995	-0.633	-0.294	-0.381	753.906
1.289	-1.445	-0.133	-1.335	-1.104	0.077	-0.384	0.638	0.219	0.899	0.845	0.547	-0.145	-0.447	0.179	-0.944	-0.743	-0.500	-0.485	-1.299	-0.985	0.972	1.953	0.493	0.988	-0.622	-0.168	-0.290	757.812
1.082	-1.455	-0.296	-1.357	-1.099	0.063	-0.203	0.669	0.406	1.143	1.004	0.744	0.084	-0.328	0.032	-0.958	-0.762	-0.762	-0.498	-1.316	-0.944	0.962	1.912	0.614	0.989	-0.593	-0.022	-0.179	761.719
0.911	-1.482	-0.474	-1.384	-1.109	0.021	-0.066	0.655	0.534	1.361	1.151	0.949	0.299	-0.219	-0.073	-0.972	-0.758	-1.014	-0.494	-1.330	-0.901	0.965	1.904	0.742	0.991	-0.551	0.138	-0.047	765.625
0.787	-1.529	-0.650	-1.420	-1.131	-0.046	0.026	0.603	0.593	1.546	1.281	1.155	0.490	-0.120	-0.127	-0.983	-0.737	-1.237	-0.479	-1.339	-0.855	0.971	1.912	0.868	0.988	-0.504	0.305	0.103	769.531
0.716	-1.590	-0.808	-1.465	-1.163	-0.130	0.083	0.530	0.589	1.697	1.398	1.355	0.648	-0.034	-0.130	-0.992	-0.713	-1.419	-0.463	-1.343	-0.811	0.971	1.914	0.980	0.974	-0.458	0.471	0.269	773.438
0.697	-1.659	-0.933	-1.523	-1.197	-0.224	0.117	0.458	0.538	1.821	1.507	1.544	0.765	0.037	-0.093	-1.003	-0.700	-1.556	-0.454	-1.345	-0.772	0.953	1.882	1.068	0.946	-0.416	0.631	0.448	777.344
0.723	-1.725	-1.014	-1.591	-1.230	-0.321	0.147	0.407	0.461	1.928	1.619	1.719	0.840	0.092	-0.032	-1.020	-0.713	-1.649	-0.460	-1.351	-0.746	0.909	1.789	1.121	0.901	-0.383	0.777	0.635	781.250
0.784	-1.777	-1.049	-1.668	-1.257	-0.415	0.186	0.392	0.383	2.031	1.744	1.881	0.873	0.130	0.037	-1.045	-0.762	-1.708	-0.485	-1.363	-0.737	0.835	1.616	1.138	0.840	-0.359	0.909	0.827	785.156
0.867	-1.810	-1.040	-1.753	-1.277	-0.504	0.243	0.420	0.320	2.139	1.888	2.034	0.872	0.152	0.098	-1.080	-0.849	-1.743	-0.528	-1.386	-0.745	0.733	1.360	1.119	0.764	-0.345	1.027	1.021	789.062
0.961	-1.824	-1.001	-1.842	-1.289	-0.587	0.323	0.487	0.281	2.258	2.053	2.181	0.849	0.164	0.145	-1.125	-0.968	-1.767	-0.587	-1.419	-0.770	0.608	1.033	1.074	0.677	-0.337	1.137	1.216	792.969
1.055	-1.826	-0.946	-1.933	-1.297	-0.665	0.420	0.579	0.264	2.390	2.234	2.328	0.817	0.172	0.177	-1.175	-1.106	-1.790	-0.656	-1.459	-0.803	0.470	0.665	1.016	0.584	-0.332	1.242	1.412	796.875
