FP1	F3	F7	FC3	C3	C5	P3	P7	PO7	PO3	O1	Oz	Pz	CPz	FP2	Fz	F4	F8	FC4	FCz	Cz	C4	C6	P4	P8	PO8	PO4	O2	time
0.912	0.208	0.216	0.006	0.338	0.559	0.219	0.690	0.863	-0.407	-0.053	-0.646	-0.268	0.220	1.062	0.877	0.572	-0.349	0.701	0.758	0.764	0.828	0.198	-0.299	-1.225	-1.729	-1.467	-1.358	-199.219
0.896	0.335	0.312	0.104	0.386	0.543	0.100	0.420	0.555	-0.542	-0.247	-0.792	-0.305	0.202	1.062	0.809	0.551	-0.145	0.646	0.762	0.721	0.821	0.344	-0.194	-1.125	-1.618	-1.425	-1.354	-195.312
0.865	0.447	0.379	0.185	0.415	0.509	-0.018	0.160	0.256	-0.666	-0.423	-0.923	-0.335	0.190	1.057	0.753	0.553	0.052	0.618	0.778	0.691	0.828	0.486	-0.085	-1.022	-1.503	-1.372	-1.337	-191.406
0.808	0.532	0.398	0.238	0.413	0.450	-0.132	-0.079	-0.019	-0.766	-0.567	-1.022	-0.353	0.187	1.039	0.717	0.586	0.234	0.627	0.807	0.679	0.852	0.613	0.031	-0.911	-1.382	-1.296	-1.297	-187.500
0.721	0.583	0.359	0.256	0.376	0.363	-0.236	-0.286	-0.262	-0.835	-0.668	-1.077	-0.355	0.194	1.001	0.701	0.650	0.394	0.675	0.851	0.686	0.889	0.714	0.152	-0.790	-1.251	-1.193	-1.222	-183.594
0.604	0.597	0.267	0.240	0.308	0.256	-0.326	-0.456	-0.465	-0.869	-0.722	-1.084	-0.340	0.209	0.937	0.700	0.736	0.529	0.749	0.901	0.707	0.930	0.777	0.273	-0.659	-1.108	-1.060	-1.109	-179.688
0.466	0.575	0.139	0.196	0.222	0.141	-0.393	-0.582	-0.620	-0.869	-0.732	-1.039	-0.311	0.229	0.846	0.706	0.826	0.634	0.828	0.945	0.733	0.959	0.792	0.388	-0.519	-0.952	-0.901	-0.957	-175.781
0.320	0.520	-0.003	0.133	0.134	0.036	-0.432	-0.661	-0.724	-0.837	-0.703	-0.947	-0.269	0.245	0.727	0.703	0.898	0.700	0.886	0.968	0.751	0.959	0.757	0.487	-0.375	-0.784	-0.723	-0.771	-171.875
0.181	0.439	-0.134	0.064	0.061	-0.043	-0.437	-0.688	-0.771	-0.777	-0.643	-0.815	-0.221	0.251	0.585	0.678	0.927	0.719	0.897	0.956	0.746	0.918	0.674	0.560	-0.230	-0.604	-0.536	-0.560	-167.969
0.058	0.341	-0.235	-0.001	0.017	-0.082	-0.406	-0.660	-0.758	-0.694	-0.556	-0.650	-0.172	0.240	0.424	0.618	0.892	0.681	0.841	0.897	0.705	0.825	0.551	0.600	-0.089	-0.414	-0.352	-0.333	-164.062
-0.040	0.235	-0.291	-0.052	0.007	-0.073	-0.339	-0.580	-0.684	-0.592	-0.448	-0.465	-0.126	0.205	0.252	0.515	0.784	0.582	0.707	0.787	0.620	0.680	0.403	0.603	0.044	-0.221	-0.183	-0.104	-160.156
-0.112	0.133	-0.297	-0.083	0.032	-0.017	-0.239	-0.450	-0.555	-0.474	-0.321	-0.271	-0.087	0.149	0.075	0.370	0.603	0.423	0.499	0.631	0.493	0.488	0.244	0.570	0.163	-0.029	-0.037	0.112	-156.250
-0.163	0.046	-0.254	-0.088	0.086	0.076	-0.113	-0.281	-0.381	-0.344	-0.179	-0.083	-0.057	0.075	-0.099	0.193	0.362	0.219	0.232	0.444	0.334	0.263	0.090	0.503	0.262	0.149	0.079	0.302	-152.344
-0.199	-0.016	-0.171	-0.069	0.159	0.191	0.030	-0.091	-0.179	-0.208	-0.027	0.086	-0.034	-0.007	-0.264	0.001	0.089	-0.011	-0.064	0.245	0.160	0.027	-0.042	0.413	0.335	0.304	0.162	0.451	-148.438
-0.225	-0.049	-0.063	-0.029	0.239	0.305	0.179	0.102	0.027	-0.072	0.123	0.221	-0.013	-0.086	-0.409	-0.184	-0.183	-0.237	-0.354	0.058	-0.008	-0.196	-0.143	0.310	0.378	0.423	0.211	0.549	-144.531
-0.243	-0.049	0.055	0.025	0.312	0.399	0.320	0.272	0.213	0.052	0.257	0.309	0.007	-0.149	-0.527	-0.337	-0.417	-0.430	-0.601	-0.098	-0.147	-0.384	-0.206	0.207	0.386	0.498	0.229	0.586	-140.625
-0.251	-0.020	0.165	0.085	0.368	0.454	0.441	0.399	0.355	0.153	0.357	0.342	0.032	-0.189	-0.607	-0.440	-0.580	-0.561	-0.772	-0.207	-0.241	-0.514	-0.234	0.114	0.359	0.523	0.217	0.560	-136.719
-0.243	0.031	0.253	0.139	0.399	0.460	0.530	0.464	0.436	0.222	0.408	0.316	0.063	-0.200	-0.640	-0.478	-0.652	-0.611	-0.847	-0.258	-0.279	-0.576	-0.234	0.040	0.299	0.498	0.180	0.475	-132.812
-0.213	0.094	0.308	0.182	0.403	0.414	0.581	0.459	0.450	0.253	0.399	0.233	0.101	-0.183	-0.620	-0.447	-0.627	-0.574	-0.820	-0.253	-0.258	-0.568	-0.217	-0.014	0.211	0.427	0.124	0.342	-128.906
-0.160	0.160	0.323	0.208	0.379	0.325	0.590	0.383	0.402	0.244	0.330	0.106	0.142	-0.145	-0.543	-0.351	-0.511	-0.454	-0.700	-0.196	-0.184	-0.498	-0.197	-0.050	0.103	0.319	0.055	0.175	-125.000
-0.083	0.220	0.296	0.216	0.333	0.206	0.562	0.249	0.306	0.201	0.206	-0.050	0.183	-0.092	-0.414	-0.203	-0.326	-0.269	-0.508	-0.102	-0.071	-0.382	-0.185	-0.073	-0.014	0.186	-0.023	-0.003	-121.094
0.011	0.270	0.234	0.209	0.269	0.075	0.501	0.076	0.182	0.133	0.045	-0.213	0.218	-0.037	-0.241	-0.022	-0.103	-0.047	-0.275	0.015	0.062	-0.244	-0.186	-0.094	-0.129	0.042	-0.103	-0.172	-117.188
0.112	0.304	0.145	0.189	0.196	-0.051	0.418	-0.110	0.051	0.054	-0.133	-0.363	0.241	0.012	-0.042	0.170	0.126	0.185	-0.036	0.134	0.196	-0.107	-0.198	-0.120	-0.234	-0.100	-0.179	-0.312	-113.281
0.207	0.320	0.042	0.164	0.119	-0.157	0.322	-0.284	-0.067	-0.024	-0.303	-0.481	0.246	0.047	0.164	0.349	0.328	0.398	0.178	0.239	0.310	0.009	-0.213	-0.159	-0.319	-0.224	-0.244	-0.410	-109.375
0.285	0.316	-0.061	0.137	0.047	-0.231	0.224	-0.423	-0.160	-0.089	-0.445	-0.551	0.233	0.067	0.349	0.493	0.478	0.574	0.343	0.315	0.390	0.090	-0.223	-0.211	-0.377	-0.319	-0.291	-0.455	-105.469
0.337	0.291	-0.153	0.113	-0.015	-0.269	0.132	-0.511	-0.224	-0.134	-0.542	-0.565	0.201	0.072	0.491	0.587	0.562	0.696	0.445	0.355	0.427	0.133	-0.216	-0.272	-0.404	-0.376	-0.315	-0.448	-101.562
0.355	0.246	-0.226	0.095	-0.060	-0.270	0.054	-0.542	-0.260	-0.154	-0.585	-0.522	0.156	0.066	0.567	0.621	0.576	0.758	0.483	0.355	0.419	0.142	-0.190	-0.335	-0.399	-0.389	-0.312	-0.392	-97.656
0.336	0.182	-0.276	0.081	-0.085	-0.239	-0.007	-0.516	-0.272	-0.150	-0.569	-0.427	0.104	0.055	0.567	0.592	0.527	0.759	0.467	0.317	0.368	0.129	-0.146	-0.388	-0.361	-0.357	-0.281	-0.297	-93.750
0.281	0.100	-0.306	0.071	-0.088	-0.185	-0.049	-0.441	-0.268	-0.123	-0.499	-0.291	0.053	0.043	0.490	0.507	0.430	0.705	0.411	0.246	0.282	0.105	-0.092	-0.423	-0.295	-0.281	-0.224	-0.173	-89.844
0.191	0.004	-0.319	0.058	-0.072	-0.121	-0.073	-0.328	-0.251	-0.079	-0.383	-0.127	0.009	0.034	0.345	0.374	0.301	0.605	0.333	0.149	0.169	0.080	-0.037	-0.430	-0.203	-0.166	-0.142	-0.031	-85.938
0.073	-0.104	-0.321	0.036	-0.043	-0.059	-0.084	-0.193	-0.223	-0.024	-0.233	0.046	-0.022	0.026	0.153	0.205	0.157	0.470	0.247	0.031	0.039	0.061	0.010	-0.407	-0.091	-0.018	-0.041	0.120	-82.031
-0.066	-0.221	-0.317	-0.003	-0.011	-0.012	-0.087	-0.049	-0.185	0.034	-0.065	0.214	-0.039	0.017	-0.061	0.013	0.010	0.315	0.162	-0.104	-0.103	0.047	0.044	-0.355	0.039	0.155	0.075	0.273	-78.125
-0.220	-0.345	-0.309	-0.062	0.013	0.013	-0.089	0.091	-0.131	0.092	0.107	0.366	-0.044	0.003	-0.274	-0.190	-0.133	0.152	0.077	-0.256	-0.249	0.032	0.064	-0.279	0.185	0.348	0.203	0.422	-74.219
-0.380	-0.470	-0.299	-0.144	0.016	0.009	-0.094	0.218	-0.059	0.146	0.270	0.496	-0.041	-0.021	-0.464	-0.395	-0.272	-0.007	-0.010	-0.421	-0.399	0.010	0.070	-0.186	0.346	0.554	0.338	0.563	-70.312
-0.540	-0.593	-0.286	-0.246	-0.010	-0.024	-0.106	0.329	0.033	0.195	0.414	0.602	-0.035	-0.060	-0.617	-0.593	-0.408	-0.150	-0.109	-0.598	-0.549	-0.030	0.067	-0.087	0.516	0.763	0.478	0.694	-66.406
-0.690	-0.705	-0.270	-0.359	-0.069	-0.082	-0.126	0.422	0.145	0.239	0.533	0.688	-0.032	-0.117	-0.727	-0.775	-0.543	-0.265	-0.227	-0.781	-0.696	-0.092	0.058	0.009	0.689	0.965	0.616	0.809	-62.500
-0.822	-0.799	-0.253	-0.471	-0.160	-0.158	-0.152	0.496	0.268	0.280	0.624	0.758	-0.036	-0.188	-0.793	-0.933	-0.676	-0.345	-0.364	-0.961	-0.835	-0.178	0.047	0.091	0.854	1.148	0.746	0.902	-58.594
-0.926	-0.863	-0.234	-0.567	-0.274	-0.243	-0.180	0.550	0.392	0.317	0.684	0.815	-0.047	-0.268	-0.819	-1.055	-0.799	-0.384	-0.512	-1.121	-0.957	-0.283	0.036	0.150	0.994	1.295	0.858	0.966	-54.688
-0.991	-0.887	-0.214	-0.632	-0.399	-0.327	-0.206	0.583	0.500	0.351	0.712	0.859	-0.061	-0.347	-0.811	-1.133	-0.901	-0.386	-0.656	-1.244	-1.051	-0.397	0.023	0.181	1.093	1.390	0.942	0.996	-50.781
-1.008	-0.862	-0.191	-0.653	-0.518	-0.397	-0.226	0.591	0.577	0.381	0.710	0.887	-0.074	-0.412	-0.774	-1.154	-0.967	-0.361	-0.773	-1.310	-1.102	-0.503	0.006	0.182	1.133	1.418	0.988	0.984	-46.875
-0.966	-0.784	-0.163	-0.620	-0.615	-0.445	-0.235	0.571	0.610	0.409	0.679	0.895	-0.079	-0.450	-0.714	-1.114	-0.984	-0.327	-0.843	-1.306	-1.100	-0.589	-0.019	0.153	1.102	1.369	0.989	0.928	-42.969
-0.861	-0.658	-0.129	-0.535	-0.674	-0.463	-0.232	0.522	0.594	0.435	0.625	0.877	-0.070	-0.450	-0.634	-1.011	-0.945	-0.305	-0.851	-1.225	-1.038	-0.642	-0.058	0.099	0.995	1.239	0.944	0.831	-39.062
-0.698	-0.496	-0.086	-0.404	-0.688	-0.450	-0.213	0.448	0.531	0.465	0.555	0.832	-0.043	-0.408	-0.540	-0.854	-0.851	-0.312	-0.793	-1.072	-0.917	-0.658	-0.115	0.030	0.819	1.036	0.858	0.699	-35.156
-0.489	-0.320	-0.038	-0.245	-0.656	-0.409	-0.178	0.354	0.431	0.501	0.481	0.766	0.004	-0.324	-0.437	-0.660	-0.710	-0.356	-0.676	-0.863	-0.748	-0.638	-0.190	-0.046	0.588	0.775	0.745	0.545	-31.250
-0.256	-0.154	0.012	-0.079	-0.584	-0.346	-0.128	0.248	0.311	0.548	0.413	0.687	0.066	-0.207	-0.330	-0.450	-0.541	-0.435	-0.520	-0.625	-0.549	-0.590	-0.281	-0.117	0.326	0.481	0.621	0.386	-27.344
-0.025	-0.023	0.059	0.069	-0.487	-0.275	-0.069	0.139	0.190	0.608	0.359	0.608	0.140	-0.071	-0.224	-0.250	-0.362	-0.537	-0.349	-0.388	-0.344	-0.528	-0.379	-0.176	0.063	0.184	0.506	0.238	-23.438
0.179	0.056	0.100	0.179	-0.380	-0.210	-0.006	0.034	0.082	0.676	0.325	0.542	0.219	0.065	-0.122	-0.081	-0.195	-0.642	-0.191	-0.180	-0.158	-0.466	-0.476	-0.214	-0.175	-0.088	0.416	0.117	-19.531
0.337	0.075	0.132	0.240	-0.281	-0.164	0.052	-0.060	-0.004	0.745	0.307	0.496	0.294	0.187	-0.024	0.042	-0.056	-0.731	-0.068	-0.024	-0.012	-0.417	-0.560	-0.229	-0.362	-0.312	0.366	0.033	-15.625
0.440	0.038	0.155	0.249	-0.204	-0.149	0.096	-0.140	-0.071	0.805	0.297	0.472	0.359	0.281	0.069	0.114	0.046	-0.786	0.008	0.068	0.081	-0.390	-0.622	-0.222	-0.485	-0.473	0.360	-0.011	-11.719
0.488	-0.041	0.170	0.214	-0.157	-0.168	0.118	-0.205	-0.126	0.841	0.282	0.464	0.409	0.341	0.156	0.139	0.111	-0.801	0.034	0.099	0.119	-0.385	-0.655	-0.194	-0.538	-0.564	0.396	-0.019	-7.812
0.493	-0.139	0.180	0.153	-0.144	-0.218	0.113	-0.257	-0.186	0.843	0.245	0.459	0.443	0.367	0.233	0.131	0.143	-0.777	0.020	0.081	0.111	-0.397	-0.654	-0.151	-0.525	-0.584	0.465	-0.003	-3.906
0.471	-0.229	0.186	0.088	-0.160	-0.291	0.080	-0.301	-0.263	0.803	0.176	0.442	0.460	0.369	0.300	0.108	0.153	-0.726	-0.015	0.032	0.070	-0.416	-0.621	-0.097	-0.458	-0.543	0.554	0.026	0.000
0.441	-0.288	0.192	0.042	-0.196	-0.371	0.023	-0.339	-0.369	0.720	0.069	0.400	0.460	0.356	0.352	0.087	0.150	-0.663	-0.054	-0.024	0.018	-0.432	-0.562	-0.040	-0.354	-0.452	0.646	0.053	3.906
0.416	-0.300	0.198	0.032	-0.239	-0.441	-0.053	-0.373	-0.504	0.600	-0.072	0.326	0.448	0.341	0.387	0.083	0.141	-0.607	-0.082	-0.070	-0.028	-0.437	-0.490	0.015	-0.232	-0.328	0.727	0.068	7.812
0.409	-0.257	0.204	0.067	-0.276	-0.486	-0.137	-0.402	-0.659	0.458	-0.234	0.224	0.425	0.335	0.405	0.100	0.129	-0.570	-0.095	-0.097	-0.053	-0.429	-0.420	0.061	-0.110	-0.188	0.785	0.067	11.719
0.425	-0.164	0.212	0.148	-0.298	-0.493	-0.221	-0.424	-0.818	0.309	-0.396	0.105	0.393	0.344	0.405	0.136	0.114	-0.559	-0.094	-0.102	-0.052	-0.412	-0.369	0.093	-0.006	-0.047	0.813	0.048	15.625
0.463	-0.034	0.221	0.263	-0.299	-0.459	-0.296	-0.436	-0.957	0.173	-0.535	-0.013	0.355	0.366	0.386	0.182	0.093	-0.575	-0.090	-0.091	-0.025	-0.395	-0.350	0.106	0.068	0.079	0.809	0.018	19.531
0.522	0.114	0.233	0.395	-0.279	-0.389	-0.357	-0.433	-1.059	0.062	-0.631	-0.109	0.310	0.396	0.350	0.224	0.062	-0.610	-0.092	-0.074	0.019	-0.386	-0.371	0.096	0.105	0.181	0.774	-0.016	23.438
0.594	0.257	0.248	0.524	-0.243	-0.298	-0.403	-0.416	-1.110	-0.014	-0.668	-0.165	0.260	0.427	0.301	0.249	0.019	-0.658	-0.109	-0.064	0.068	-0.394	-0.432	0.064	0.107	0.252	0.718	-0.044	27.344
0.671	0.377	0.266	0.628	-0.199	-0.203	-0.434	-0.386	-1.104	-0.054	-0.644	-0.170	0.206	0.449	0.244	0.245	-0.036	-0.712	-0.144	-0.070	0.109	-0.423	-0.525	0.014	0.083	0.293	0.649	-0.057	31.250
0.745	0.457	0.286	0.692	-0.159	-0.124	-0.453	-0.346	-1.044	-0.065	-0.565	-0.125	0.149	0.453	0.184	0.207	-0.100	-0.767	-0.194	-0.098	0.132	-0.473	-0.640	-0.048	0.048	0.312	0.581	-0.048	35.156
0.803	0.489	0.304	0.706	-0.133	-0.082	-0.463	-0.299	-0.941	-0.054	-0.448	-0.041	0.092	0.437	0.126	0.136	-0.172	-0.819	-0.252	-0.150	0.128	-0.538	-0.763	-0.111	0.023	0.321	0.526	-0.014	39.062
0.837	0.468	0.313	0.667	-0.130	-0.087	-0.469	-0.248	-0.807	-0.035	-0.315	0.063	0.034	0.396	0.074	0.037	-0.246	-0.865	-0.311	-0.221	0.094	-0.613	-0.881	-0.164	0.028	0.340	0.493	0.043	42.969
0.840	0.398	0.305	0.580	-0.156	-0.145	-0.474	-0.192	-0.655	-0.018	-0.189	0.157	-0.026	0.333	0.029	-0.079	-0.320	-0.901	-0.360	-0.305	0.030	-0.688	-0.986	-0.199	0.081	0.390	0.490	0.116	46.875
0.807	0.283	0.274	0.453	-0.215	-0.253	-0.482	-0.128	-0.493	-0.014	-0.089	0.215	-0.094	0.248	-0.010	-0.200	-0.389	-0.923	-0.395	-0.396	-0.062	-0.754	-1.066	-0.208	0.194	0.492	0.519	0.196	50.781
0.738	0.130	0.214	0.295	-0.309	-0.402	-0.499	-0.048	-0.325	-0.028	-0.026	0.212	-0.179	0.137	-0.047	-0.315	-0.453	-0.927	-0.411	-0.488	-0.182	-0.807	-1.115	-0.189	0.374	0.667	0.582	0.276	54.688
0.631	-0.054	0.119	0.115	-0.439	-0.577	-0.529	0.060	-0.144	-0.063	0.002	0.136	-0.295	-0.005	-0.091	-0.423	-0.512	-0.915	-0.413	-0.581	-0.331	-0.840	-1.123	-0.141	0.623	0.932	0.676	0.352	58.594
0.486	-0.266	-0.011	-0.082	-0.607	-0.764	-0.573	0.215	0.064	-0.114	0.010	-0.010	-0.461	-0.188	-0.156	-0.526	-0.574	-0.893	-0.407	-0.685	-0.513	-0.855	-1.086	-0.069	0.937	1.302	0.800	0.428	62.500
0.302	-0.501	-0.175	-0.296	-0.814	-0.950	-0.631	0.436	0.324	-0.172	0.024	-0.209	-0.691	-0.425	-0.258	-0.641	-0.652	-0.874	-0.407	-0.816	-0.738	-0.859	-1.002	0.020	1.315	1.786	0.951	0.517	66.406
0.073	-0.761	-0.371	-0.532	-1.061	-1.125	-0.692	0.748	0.666	-0.221	0.080	-0.426	-0.999	-0.729	-0.418	-0.791	-0.765	-0.875	-0.436	-0.997	-1.020	-0.868	-0.880	0.114	1.751	2.389	1.127	0.639	70.312
-0.209	-1.048	-0.596	-0.798	-1.344	-1.282	-0.742	1.170	1.122	-0.238	0.219	-0.616	-1.385	-1.108	-0.653	-1.005	-0.936	-0.918	-0.518	-1.256	-1.375	-0.903	-0.742	0.203	2.239	3.106	1.327	0.816	74.219
-0.551	-1.365	-0.845	-1.100	-1.660	-1.419	-0.758	1.719	1.722	-0.193	0.479	-0.726	-1.836	-1.562	-0.982	-1.312	-1.189	-1.022	-0.682	-1.615	-1.815	-0.991	-0.617	0.273	2.772	3.923	1.549	1.073	78.125
-0.957	-1.716	-1.115	-1.446	-1.996	-1.537	-0.716	2.397	2.480	-0.057	0.887	-0.709	-2.320	-2.077	-1.409	-1.732	-1.540	-1.203	-0.949	-2.091	-2.343	-1.156	-0.543	0.313	3.335	4.813	1.788	1.427	82.031
-1.427	-2.103	-1.404	-1.835	-2.337	-1.638	-0.589	3.186	3.390	0.197	1.454	-0.527	-2.794	-2.624	-1.930	-2.269	-1.995	-1.466	-1.328	-2.679	-2.949	-1.411	-0.551	0.317	3.907	5.736	2.041	1.884	85.938
-1.949	-2.521	-1.706	-2.256	-2.662	-1.725	-0.360	4.049	4.418	0.583	2.166	-0.166	-3.200	-3.162	-2.520	-2.904	-2.541	-1.807	-1.812	-3.356	-3.602	-1.755	-0.663	0.283	4.461	6.640	2.297	2.433	89.844
-2.499	-2.960	-2.014	-2.689	-2.946	-1.797	-0.024	4.925	5.500	1.096	2.981	0.361	-3.480	-3.637	-3.142	-3.598	-3.148	-2.208	-2.372	-4.074	-4.256	-2.166	-0.883	0.218	4.962	7.467	2.547	3.046	93.750
-3.042	-3.399	-2.313	-3.101	-3.162	-1.854	0.405	5.735	6.543	1.710	3.829	1.005	-3.585	-3.991	-3.745	-4.290	-3.765	-2.638	-2.959	-4.766	-4.845	-2.602	-1.191	0.134	5.370	8.156	2.776	3.675	97.656
-3.535	-3.804	-2.582	-3.455	-3.286	-1.889	0.897	6.390	7.438	2.373	4.623	1.694	-3.480	-4.172	-4.274	-4.904	-4.332	-3.054	-3.507	-5.355	-5.298	-3.010	-1.548	0.050	5.648	8.650	2.969	4.260	101.562
-3.929	-4.137	-2.797	-3.706	-3.299	-1.895	1.405	6.806	8.075	3.017	5.264	2.334	-3.156	-4.138	-4.677	-5.366	-4.778	-3.408	-3.946	-5.761	-5.548	-3.326	-1.901	-0.012	5.763	8.902	3.112	4.733	105.469
-4.182	-4.353	-2.930	-3.816	-3.188	-1.867	1.874	6.915	8.358	3.564	5.661	2.830	-2.630	-3.873	-4.914	-5.610	-5.044	-3.653	-4.208	-5.921	-5.543	-3.495	-2.191	-0.035	5.692	8.882	3.191	5.029	109.375
-4.261	-4.411	-2.958	-3.759	-2.954	-1.799	2.248	6.681	8.225	3.942	5.748	3.103	-1.946	-3.383	-4.959	-5.592	-5.083	-3.749	-4.244	-5.799	-5.261	-3.476	-2.366	-0.005	5.430	8.584	3.198	5.100	113.281
-4.156	-4.284	-2.872	-3.527	-2.613	-1.695	2.478	6.107	7.667	4.097	5.495	3.107	-1.170	-2.710	-4.809	-5.305	-4.879	-3.673	-4.034	-5.395	-4.715	-3.254	-2.392	0.083	4.992	8.029	3.129	4.926	117.188
-3.880	-3.970	-2.673	-3.138	-2.196	-1.565	2.535	5.244	6.728	4.007	4.923	2.839	-0.379	-1.921	-4.485	-4.780	-4.449	-3.428	-3.593	-4.751	-3.959	-2.845	-2.257	0.223	4.416	7.269	2.996	4.524	121.094
-3.472	-3.497	-2.385	-2.637	-1.750	-1.426	2.408	4.186	5.514	3.685	4.104	2.350	0.343	-1.103	-4.028	-4.087	-3.849	-3.044	-2.975	-3.949	-3.083	-2.296	-1.978	0.402	3.764	6.386	2.821	3.948	125.000
-2.994	-2.924	-2.044	-2.091	-1.334	-1.304	2.113	3.060	4.175	3.184	3.153	1.733	0.925	-0.356	-3.504	-3.329	-3.165	-2.576	-2.266	-3.103	-2.202	-1.676	-1.594	0.605	3.116	5.491	2.640	3.292	128.906
-2.525	-2.338	-1.701	-1.583	-1.011	-1.225	1.685	2.008	2.890	2.585	2.220	1.115	1.309	0.222	-2.994	-2.629	-2.506	-2.100	-1.577	-2.340	-1.442	-1.073	-1.163	0.815	2.567	4.710	2.504	2.678	132.812
-2.147	-1.839	-1.414	-1.201	-0.837	-1.213	1.179	1.170	1.842	1.989	1.459	0.634	1.462	0.552	-2.584	-2.108	-1.988	-1.702	-1.020	-1.784	-0.918	-0.574	-0.751	1.018	2.208	4.172	2.466	2.236	136.719
-1.940	-1.524	-1.234	-1.020	-0.858	-1.289	0.656	0.657	1.185	1.497	1.008	0.415	1.379	0.582	-2.358	-1.871	-1.714	-1.459	-0.698	-1.537	-0.720	-0.257	-0.419	1.210	2.120	3.990	2.581	2.082	140.625
-1.961	-1.468	-1.202	-1.092	-1.093	-1.461	0.178	0.542	1.024	1.193	0.962	0.542	1.078	0.297	-2.380	-1.987	-1.757	-1.431	-0.681	-1.660	-0.892	-0.172	-0.216	1.391	2.355	4.242	2.889	2.302	144.531
-2.239	-1.714	-1.337	-1.435	-1.539	-1.724	-0.202	0.842	1.399	1.132	1.361	1.051	0.597	-0.284	-2.684	-2.476	-2.150	-1.645	-0.998	-2.169	-1.434	-0.340	-0.168	1.567	2.930	4.954	3.408	2.928	148.438
-2.768	-2.262	-1.637	-2.033	-2.164	-2.064	-0.452	1.522	2.277	1.328	2.181	1.913	-0.016	-1.108	-3.266	-3.312	-2.878	-2.094	-1.630	-3.027	-2.299	-0.744	-0.275	1.745	3.820	6.100	4.133	3.937	152.344
-3.504	-3.068	-2.076	-2.834	-2.917	-2.456	-0.557	2.504	3.566	1.757	3.339	3.048	-0.715	-2.102	-4.084	-4.420	-3.882	-2.734	-2.519	-4.156	-3.402	-1.338	-0.513	1.930	4.965	7.599	5.025	5.251	156.250
-4.379	-4.057	-2.611	-3.765	-3.733	-2.868	-0.531	3.678	5.128	2.356	4.712	4.338	-1.457	-3.183	-5.064	-5.698	-5.070	-3.496	-3.575	-5.452	-4.639	-2.054	-0.842	2.121	6.277	9.331	6.026	6.753	160.156
-5.311	-5.131	-3.188	-4.738	-4.548	-3.271	-0.402	4.926	6.803	3.043	6.157	5.648	-2.216	-4.273	-6.113	-7.027	-6.333	-4.300	-4.695	-6.799	-5.904	-2.814	-1.211	2.313	7.655	11.155	7.061	8.306	164.062
-6.214	-6.187	-3.751	-5.669	-5.301	-3.636	-0.216	6.134	8.435	3.725	7.535	6.849	-2.975	-5.305	-7.138	-8.294	-7.561	-5.062	-5.776	-8.087	-7.096	-3.541	-1.568	2.496	9.001	12.934	8.054	9.777	167.969
-7.017	-7.137	-4.251	-6.487	-5.947	-3.943	-0.019	7.207	9.891	4.320	8.730	7.842	-3.726	-6.231	-8.058	-9.405	-8.657	-5.716	-6.731	-9.226	-8.140	-4.173	-1.872	2.660	10.230	14.552	8.938	11.060	171.875
-7.670	-7.916	-4.655	-7.143	-6.459	-4.179	0.145	8.081	11.079	4.766	9.667	8.568	-4.464	-7.022	-8.813	-10.298	-9.552	-6.217	-7.499	-10.157	-8.985	-4.666	-2.091	2.798	11.282	15.928	9.669	12.086	175.781
-8.151	-8.494	-4.945	-7.616	-6.829	-4.340	0.249	8.721	11.948	5.036	10.314	9.015	-5.177	-7.664	-9.377	-10.946	-10.210	-6.548	-8.046	-10.851	-9.612	-5.000	-2.213	2.907	12.122	17.019	10.227	12.829	179.688
-8.465	-8.871	-5.122	-7.911	-7.063	-4.430	0.285	9.122	12.493	5.135	10.682	9.211	-5.846	-8.153	-9.751	-11.356	-10.628	-6.718	-8.371	-11.312	-10.022	-5.175	-2.243	2.995	12.741	17.823	10.618	13.305	183.594
-8.640	-9.077	-5.204	-8.053	-7.181	-4.458	0.264	9.307	12.745	5.104	10.820	9.218	-6.436	-8.493	-9.965	-11.566	-10.837	-6.760	-8.499	-11.571	-10.241	-5.214	-2.197	3.073	13.153	18.365	10.874	13.563	187.500
-8.723	-9.159	-5.218	-8.088	-7.206	-4.438	0.221	9.314	12.764	5.007	10.797	9.116	-6.897	-8.684	-10.067	-11.635	-10.889	-6.719	-8.475	-11.676	-10.302	-5.149	-2.105	3.163	13.385	18.691	11.043	13.669	191.406
-8.766	-9.175	-5.202	-8.063	-7.164	-4.386	0.199	9.192	12.622	4.920	10.688	8.985	-7.176	-8.728	-10.114	-11.627	-10.845	-6.650	-8.354	-11.685	-10.247	-5.016	-1.998	3.284	13.471	18.850	11.176	13.694	195.312
-8.820	-9.180	-5.194	-8.029	-7.074	-4.314	0.248	8.995	12.395	4.916	10.566	8.893	-7.217	-8.620	-10.162	-11.608	-10.770	-6.603	-8.192	-11.654	-10.115	-4.850	-1.906	3.458	13.450	18.891	11.322	13.696	199.219
-8.926	-9.218	-5.228	-8.026	-6.952	-4.236	0.411	8.773	12.149	5.051	10.482	8.888	-6.978	-8.358	-10.258	-11.628	-10.716	-6.615	-8.036	-11.631	-9.937	-4.679	-1.852	3.695	13.353	18.849	11.515	13.718	203.125
-9.107	-9.322	-5.327	-8.079	-6.807	-4.159	0.715	8.569	11.937	5.352	10.467	8.984	-6.438	-7.944	-10.427	-11.718	-10.717	-6.709	-7.921	-11.649	-9.736	-4.520	-1.848	3.998	13.209	18.748	11.768	13.774	207.031
-9.364	-9.502	-5.502	-8.199	-6.640	-4.087	1.166	8.415	11.790	5.816	10.523	9.168	-5.605	-7.384	-10.672	-11.890	-10.788	-6.885	-7.866	-11.722	-9.523	-4.379	-1.895	4.357	13.035	18.598	12.072	13.855	210.938
-9.682	-9.757	-5.749	-8.377	-6.453	-4.017	1.751	8.330	11.719	6.406	10.630	9.400	-4.523	-6.697	-10.977	-12.135	-10.925	-7.127	-7.872	-11.846	-9.303	-4.255	-1.983	4.749	12.844	18.399	12.397	13.930	214.844
-10.029	-10.067	-6.048	-8.592	-6.241	-3.943	2.430	8.322	11.717	7.060	10.751	9.624	-3.267	-5.913	-11.307	-12.429	-11.109	-7.400	-7.927	-12.006	-9.073	-4.140	-2.092	5.147	12.643	18.149	12.699	13.958	218.750
-10.365	-10.402	-6.370	-8.814	-6.005	-3.854	3.154	8.387	11.765	7.704	10.842	9.780	-1.933	-5.072	-11.621	-12.741	-11.312	-7.664	-8.011	-12.173	-8.828	-4.022	-2.198	5.516	12.437	17.844	12.928	13.899	222.656
-10.651	-10.727	-6.678	-9.010	-5.748	-3.740	3.863	8.511	11.835	8.263	10.862	9.812	-0.634	-4.221	-11.880	-13.034	-11.504	-7.879	-8.096	-12.319	-8.564	-3.888	-2.273	5.828	12.230	17.488	13.038	13.719	226.562
-10.855	-11.009	-6.939	-9.152	-5.475	-3.597	4.498	8.673	11.901	8.671	10.782	9.686	0.522	-3.409	-12.053	-13.279	-11.659	-8.014	-8.153	-12.416	-8.278	-3.725	-2.289	6.059	12.027	17.091	12.999	13.402	230.469
-10.960	-11.218	-7.127	-9.220	-5.197	-3.421	5.012	8.850	11.938	8.886	10.587	9.389	1.446	-2.683	-12.122	-13.449	-11.752	-8.048	-8.156	-12.443	-7.974	-3.524	-2.224	6.199	11.838	16.672	12.798	12.953	234.375
-10.965	-11.340	-7.229	-9.211	-4.927	-3.220	5.371	9.015	11.930	8.890	10.277	8.932	2.076	-2.076	-12.083	-13.529	-11.767	-7.976	-8.084	-12.390	-7.654	-3.279	-2.062	6.250	11.670	16.252	12.441	12.395	238.281
-10.886	-11.371	-7.248	-9.130	-4.680	-3.007	5.563	9.143	11.867	8.694	9.872	8.352	2.389	-1.610	-11.942	-13.512	-11.694	-7.804	-7.926	-12.255	-7.325	-2.987	-1.796	6.224	11.530	15.850	11.959	11.767	242.188
-10.748	-11.324	-7.198	-8.997	-4.469	-2.798	5.595	9.213	11.748	8.332	9.401	7.700	2.404	-1.285	-11.716	-13.404	-11.532	-7.547	-7.681	-12.046	-6.993	-2.655	-1.436	6.142	11.421	15.484	11.394	11.115	246.094
-10.582	-11.220	-7.103	-8.835	-4.302	-2.613	5.494	9.210	11.578	7.859	8.905	7.035	2.174	-1.085	-11.427	-13.217	-11.290	-7.223	-7.361	-11.775	-6.660	-2.296	-1.003	6.026	11.340	15.160	10.799	10.485	250.000
-10.419	-11.086	-6.990	-8.667	-4.184	-2.468	5.298	9.128	11.365	7.342	8.424	6.419	1.781	-0.977	-11.100	-12.970	-10.984	-6.854	-6.989	-11.462	-6.327	-1.928	-0.534	5.901	11.275	14.878	10.224	9.915	253.906
-10.281	-10.947	-6.885	-8.513	-4.112	-2.378	5.054	8.966	11.122	6.846	7.998	5.903	1.323	-0.921	-10.761	-12.685	-10.637	-6.467	-6.594	-11.123	-5.989	-1.572	-0.073	5.785	11.211	14.627	9.716	9.435	257.812
-10.180	-10.819	-6.807	-8.382	-4.074	-2.348	4.807	8.732	10.858	6.429	7.657	5.522	0.898	-0.870	-10.433	-12.385	-10.274	-6.085	-6.203	-10.771	-5.639	-1.246	0.335	5.691	11.123	14.386	9.304	9.055	261.719
-10.112	-10.707	-6.763	-8.272	-4.053	-2.374	4.596	8.437	10.585	6.134	7.416	5.290	0.590	-0.782	-10.135	-12.086	-9.915	-5.737	-5.840	-10.415	-5.266	-0.963	0.651	5.622	10.986	14.133	9.003	8.773	265.625
-10.065	-10.606	-6.753	-8.175	-4.029	-2.444	4.447	8.096	10.309	5.980	7.277	5.203	0.461	-0.625	-9.882	-11.799	-9.577	-5.446	-5.517	-10.056	-4.861	-0.728	0.851	5.578	10.778	13.843	8.808	8.571	269.531
-10.021	-10.504	-6.766	-8.074	-3.979	-2.540	4.376	7.724	10.033	5.969	7.227	5.238	0.544	-0.378	-9.684	-11.530	-9.269	-5.231	-5.238	-9.693	-4.413	-0.537	0.926	5.552	10.483	13.501	8.703	8.425	273.438
-9.963	-10.386	-6.790	-7.953	-3.885	-2.638	4.383	7.337	9.762	6.080	7.242	5.362	0.838	-0.036	-9.546	-11.275	-8.995	-5.105	-4.998	-9.319	-3.921	-0.383	0.884	5.535	10.097	13.100	8.662	8.307	277.344
-9.882	-10.241	-6.810	-7.796	-3.733	-2.714	4.462	6.949	9.497	6.280	7.296	5.536	1.317	0.390	-9.468	-11.029	-8.753	-5.071	-4.787	-8.932	-3.388	-0.253	0.748	5.522	9.633	12.650	8.655	8.198	281.250
-9.778	-10.062	-6.819	-7.597	-3.521	-2.749	4.597	6.578	9.242	6.529	7.362	5.725	1.929	0.881	-9.446	-10.784	-8.542	-5.128	-4.594	-8.530	-2.826	-0.136	0.548	5.509	9.116	12.174	8.657	8.083	285.156
-9.662	-9.853	-6.810	-7.355	-3.253	-2.730	4.766	6.237	9.002	6.783	7.417	5.898	2.611	1.406	-9.467	-10.536	-8.357	-5.266	-4.410	-8.118	-2.255	-0.025	0.315	5.496	8.583	11.703	8.649	7.959	289.062
-9.552	-9.622	-6.786	-7.077	-2.944	-2.654	4.950	5.941	8.781	7.005	7.446	6.032	3.296	1.930	-9.518	-10.283	-8.199	-5.467	-4.232	-7.706	-1.697	0.083	0.080	5.488	8.079	11.277	8.621	7.831	292.969
-9.470	-9.386	-6.753	-6.778	-2.614	-2.528	5.127	5.702	8.588	7.168	7.442	6.110	3.921	2.422	-9.582	-10.030	-8.068	-5.714	-4.061	-7.309	-1.176	0.190	-0.135	5.488	7.647	10.931	8.570	7.710	296.875
-9.436	-9.165	-6.722	-6.478	-2.285	-2.364	5.284	5.531	8.431	7.254	7.402	6.127	4.435	2.855	-9.650	-9.787	-7.967	-5.985	-3.902	-6.943	-0.711	0.294	-0.313	5.504	7.323	10.694	8.502	7.609	300.781
-9.466	-8.980	-6.706	-6.194	-1.977	-2.182	5.412	5.435	8.316	7.259	7.329	6.083	4.810	3.215	-9.716	-9.568	-7.900	-6.262	-3.764	-6.626	-0.315	0.396	-0.445	5.542	7.134	10.582	8.429	7.537	304.688
-9.566	-8.849	-6.715	-5.946	-1.705	-1.999	5.505	5.416	8.247	7.191	7.229	5.984	5.036	3.496	-9.783	-9.389	-7.871	-6.529	-3.654	-6.370	0.007	0.497	-0.525	5.607	7.089	10.597	8.362	7.500	308.594
-9.733	-8.780	-6.754	-5.742	-1.475	-1.828	5.569	5.469	8.225	7.064	7.110	5.839	5.123	3.701	-9.863	-9.264	-7.880	-6.773	-3.579	-6.185	0.255	0.599	-0.548	5.702	7.181	10.722	8.311	7.494	312.500
-9.953	-8.775	-6.823	-5.585	-1.286	-1.676	5.611	5.587	8.246	6.902	6.979	5.662	5.096	3.842	-9.968	-9.198	-7.927	-6.986	-3.540	-6.074	0.437	0.706	-0.515	5.825	7.388	10.930	8.282	7.513	316.406
-10.206	-8.821	-6.915	-5.470	-1.132	-1.540	5.642	5.755	8.303	6.729	6.846	5.464	4.990	3.933	-10.109	-9.193	-8.006	-7.161	-3.533	-6.030	0.562	0.819	-0.427	5.969	7.673	11.181	8.277	7.541	320.312
-10.468	-8.898	-7.014	-5.384	-1.002	-1.415	5.673	5.958	8.384	6.570	6.722	5.260	4.841	3.987	-10.292	-9.237	-8.108	-7.295	-3.550	-6.043	0.642	0.940	-0.292	6.124	7.991	11.430	8.287	7.565	324.219
-10.714	-8.980	-7.103	-5.314	-0.883	-1.290	5.715	6.179	8.478	6.446	6.618	5.064	4.684	4.016	-10.515	-9.317	-8.221	-7.386	-3.578	-6.097	0.687	1.065	-0.119	6.275	8.294	11.631	8.304	7.568	328.125
-10.923	-9.040	-7.162	-5.245	-0.766	-1.154	5.773	6.402	8.572	6.373	6.545	4.891	4.545	4.027	-10.763	-9.413	-8.330	-7.433	-3.602	-6.174	0.703	1.192	0.074	6.407	8.536	11.744	8.314	7.540	332.031
-11.079	-9.058	-7.177	-5.167	-0.646	-1.001	5.852	6.613	8.657	6.360	6.515	4.759	4.442	4.024	-11.018	-9.506	-8.423	-7.439	-3.609	-6.258	0.694	1.311	0.267	6.504	8.682	11.742	8.305	7.478	335.938
-11.175	-9.020	-7.141	-5.073	-0.521	-0.826	5.948	6.798	8.726	6.409	6.538	4.687	4.385	4.007	-11.256	-9.583	-8.485	-7.408	-3.593	-6.335	0.658	1.412	0.440	6.554	8.709	11.613	8.269	7.387	339.844
-11.209	-8.926	-7.052	-4.964	-0.393	-0.632	6.055	6.950	8.773	6.516	6.618	4.690	4.376	3.973	-11.456	-9.633	-8.511	-7.345	-3.553	-6.400	0.591	1.484	0.578	6.550	8.612	11.362	8.202	7.278	343.750
-11.187	-8.783	-6.919	-4.845	-0.267	-0.425	6.168	7.060	8.798	6.670	6.755	4.779	4.412	3.921	-11.603	-9.653	-8.498	-7.256	-3.495	-6.454	0.489	1.517	0.668	6.492	8.403	11.012	8.109	7.167	347.656
-11.120	-8.608	-6.754	-4.722	-0.149	-0.218	6.277	7.129	8.801	6.856	6.938	4.954	4.483	3.851	-11.691	-9.646	-8.449	-7.147	-3.432	-6.500	0.349	1.501	0.709	6.387	8.110	10.599	7.996	7.070	351.562
-11.022	-8.418	-6.569	-4.603	-0.042	-0.019	6.377	7.158	8.785	7.055	7.147	5.194	4.580	3.765	-11.721	-9.616	-8.374	-7.022	-3.380	-6.544	0.174	1.433	0.705	6.247	7.770	10.165	7.874	6.994	355.469
-10.906	-8.234	-6.376	-4.492	0.055	0.162	6.464	7.159	8.755	7.245	7.353	5.463	4.689	3.672	-11.697	-9.570	-8.282	-6.883	-3.352	-6.593	-0.028	1.316	0.662	6.084	7.426	9.750	7.747	6.936	359.375
-10.781	-8.069	-6.182	-4.392	0.144	0.319	6.537	7.148	8.719	7.402	7.515	5.705	4.794	3.580	-11.627	-9.510	-8.184	-6.729	-3.357	-6.648	-0.241	1.156	0.592	5.913	7.117	9.386	7.618	6.878	363.281
-10.654	-7.930	-5.987	-4.300	0.233	0.454	6.598	7.145	8.686	7.505	7.594	5.855	4.880	3.498	-11.514	-9.440	-8.085	-6.559	-3.394	-6.706	-0.447	0.968	0.506	5.742	6.876	9.095	7.480	6.790	367.188
-10.530	-7.816	-5.791	-4.211	0.330	0.574	6.648	7.172	8.666	7.533	7.553	5.852	4.928	3.430	-11.363	-9.356	-7.989	-6.373	-3.456	-6.759	-0.626	0.769	0.414	5.576	6.720	8.883	7.319	6.641	371.094
-10.409	-7.720	-5.589	-4.118	0.441	0.688	6.688	7.246	8.666	7.474	7.372	5.655	4.926	3.377	-11.177	-9.257	-7.893	-6.172	-3.525	-6.802	-0.765	0.577	0.326	5.414	6.655	8.743	7.122	6.403	375.000
-10.291	-7.630	-5.382	-4.018	0.565	0.805	6.719	7.381	8.694	7.328	7.053	5.257	4.860	3.329	-10.961	-9.143	-7.795	-5.963	-3.588	-6.828	-0.860	0.406	0.250	5.249	6.671	8.660	6.878	6.068	378.906
-10.177	-7.537	-5.173	-3.911	0.697	0.928	6.741	7.578	8.752	7.107	6.626	4.694	4.725	3.276	-10.725	-9.020	-7.696	-5.758	-3.635	-6.839	-0.918	0.263	0.189	5.076	6.751	8.617	6.586	5.650	382.812
-10.069	-7.436	-4.969	-3.802	0.823	1.056	6.749	7.827	8.840	6.837	6.147	4.044	4.520	3.199	-10.485	-8.898	-7.601	-5.568	-3.665	-6.841	-0.957	0.147	0.146	4.887	6.868	8.595	6.256	5.193	386.719
-9.970	-7.330	-4.781	-3.702	0.927	1.179	6.740	8.109	8.952	6.550	5.685	3.411	4.251	3.082	-10.262	-8.794	-7.519	-5.406	-3.686	-6.848	-1.001	0.050	0.121	4.679	7.000	8.583	5.908	4.757	390.625
-9.879	-7.227	-4.619	-3.623	0.990	1.286	6.706	8.395	9.074	6.281	5.310	2.901	3.928	2.914	-10.072	-8.724	-7.462	-5.277	-3.710	-6.875	-1.074	-0.037	0.114	4.454	7.122	8.572	5.569	4.406	394.531
-9.794	-7.135	-4.491	-3.575	1.001	1.365	6.640	8.652	9.186	6.054	5.070	2.599	3.564	2.691	-9.923	-8.699	-7.436	-5.177	-3.748	-6.931	-1.191	-0.119	0.129	4.216	7.218	8.558	5.264	4.191	398.438
-9.704	-7.060	-4.396	-3.561	0.957	1.413	6.533	8.846	9.262	5.878	4.983	2.540	3.172	2.418	-9.814	-8.719	-7.442	-5.093	-3.799	-7.017	-1.353	-0.195	0.169	3.973	7.277	8.533	5.008	4.134	402.344
-9.594	-7.004	-4.326	-3.577	0.865	1.430	6.376	8.951	9.274	5.742	5.028	2.703	2.767	2.111	-9.725	-8.772	-7.466	-5.000	-3.858	-7.122	-1.546	-0.259	0.242	3.735	7.291	8.489	4.802	4.217	406.250
-9.445	-6.960	-4.264	-3.608	0.745	1.427	6.164	8.951	9.196	5.618	5.147	3.010	2.359	1.794	-9.629	-8.834	-7.490	-4.872	-3.905	-7.224	-1.745	-0.298	0.353	3.507	7.258	8.412	4.631	4.389	410.156
-9.236	-6.916	-4.186	-3.635	0.623	1.419	5.899	8.843	9.011	5.466	5.260	3.349	1.959	1.491	-9.492	-8.875	-7.488	-4.683	-3.919	-7.296	-1.915	-0.297	0.506	3.291	7.177	8.285	4.467	4.572	414.062
-8.952	-6.857	-4.066	-3.634	0.524	1.424	5.585	8.635	8.713	5.247	5.287	3.599	1.577	1.227	-9.282	-8.865	-7.433	-4.411	-3.878	-7.312	-2.023	-0.246	0.702	3.083	7.047	8.092	4.274	4.681	417.969
-8.582	-6.766	-3.880	-3.588	0.470	1.455	5.232	8.345	8.308	4.930	5.159	3.658	1.215	1.016	-8.973	-8.781	-7.303	-4.047	-3.765	-7.251	-2.049	-0.138	0.938	2.873	6.868	7.817	4.018	4.645	421.875
-8.126	-6.629	-3.615	-3.480	0.474	1.523	4.849	7.997	7.813	4.498	4.840	3.468	0.874	0.863	-8.555	-8.609	-7.088	-3.595	-3.575	-7.106	-1.985	0.023	1.207	2.648	6.641	7.453	3.671	4.421	425.781
-7.594	-6.437	-3.266	-3.308	0.537	1.631	4.449	7.613	7.252	3.955	4.330	3.024	0.549	0.757	-8.030	-8.351	-6.786	-3.070	-3.314	-6.883	-1.845	0.223	1.495	2.396	6.371	7.001	3.223	4.001	429.688
-7.004	-6.184	-2.844	-3.073	0.651	1.776	4.042	7.215	6.657	3.327	3.669	2.370	0.232	0.682	-7.417	-8.022	-6.412	-2.500	-3.003	-6.600	-1.653	0.441	1.788	2.106	6.063	6.471	2.678	3.415	433.594
-6.384	-5.874	-2.367	-2.788	0.799	1.947	3.641	6.824	6.060	2.653	2.922	1.591	-0.085	0.615	-6.745	-7.643	-5.988	-1.915	-2.670	-6.283	-1.443	0.651	2.067	1.775	5.725	5.886	2.061	2.720	437.500
-5.763	-5.517	-1.867	-2.471	0.964	2.133	3.258	6.455	5.491	1.986	2.169	0.785	-0.404	0.535	-6.054	-7.246	-5.544	-1.351	-2.348	-5.958	-1.248	0.827	2.314	1.408	5.367	5.272	1.409	1.989	441.406
-5.175	-5.133	-1.375	-2.143	1.127	2.320	2.905	6.121	4.979	1.378	1.490	0.049	-0.724	0.430	-5.388	-6.858	-5.113	-0.842	-2.067	-5.653	-1.092	0.949	2.513	1.021	5.002	4.664	0.770	1.296	445.312
-4.654	-4.750	-0.926	-1.825	1.276	2.498	2.598	5.834	4.543	0.878	0.950	-0.540	-1.032	0.300	-4.790	-6.508	-4.725	-0.417	-1.850	-5.386	-0.987	1.006	2.648	0.639	4.644	4.099	0.195	0.704	449.219
-4.227	-4.398	-0.551	-1.539	1.404	2.657	2.353	5.600	4.201	0.523	0.591	-0.935	-1.308	0.155	-4.300	-6.216	-4.404	-0.102	-1.708	-5.168	-0.931	0.999	2.713	0.295	4.308	3.609	-0.270	0.262	453.125
-3.918	-4.108	-0.273	-1.298	1.512	2.793	2.185	5.426	3.961	0.335	0.427	-1.119	-1.523	0.015	-3.947	-5.998	-4.168	0.083	-1.641	-5.006	-0.910	0.938	2.704	0.023	4.007	3.223	-0.584	-0.006	457.031
-3.742	-3.904	-0.106	-1.115	1.602	2.901	2.108	5.312	3.824	0.321	0.450	-1.099	-1.648	-0.096	-3.749	-5.862	-4.027	0.127	-1.641	-4.899	-0.909	0.842	2.624	-0.146	3.754	2.959	-0.723	-0.094	460.938
-3.703	-3.801	-0.053	-0.995	1.679	2.979	2.128	5.255	3.788	0.473	0.631	-0.905	-1.659	-0.156	-3.710	-5.809	-3.984	0.028	-1.696	-4.846	-0.912	0.733	2.481	-0.192	3.555	2.824	-0.676	-0.016	464.844
-3.791	-3.803	-0.108	-0.939	1.747	3.026	2.246	5.249	3.840	0.764	0.927	-0.575	-1.541	-0.152	-3.819	-5.837	-4.034	-0.203	-1.789	-4.843	-0.910	0.631	2.289	-0.109	3.415	2.809	-0.456	0.201	468.750
-3.984	-3.901	-0.252	-0.942	1.808	3.043	2.448	5.282	3.962	1.159	1.292	-0.157	-1.297	-0.082	-4.046	-5.934	-4.163	-0.541	-1.906	-4.885	-0.900	0.551	2.069	0.094	3.332	2.897	-0.092	0.518	472.656
-4.249	-4.073	-0.462	-0.998	1.862	3.034	2.711	5.340	4.131	1.610	1.676	0.300	-0.949	0.042	-4.349	-6.083	-4.352	-0.950	-2.033	-4.966	-0.888	0.503	1.847	0.386	3.303	3.058	0.366	0.891	476.562
-4.542	-4.294	-0.707	-1.096	1.903	3.004	3.000	5.408	4.320	2.062	2.034	0.745	-0.541	0.196	-4.678	-6.264	-4.573	-1.380	-2.158	-5.077	-0.882	0.488	1.649	0.727	3.317	3.256	0.856	1.271	480.469
-4.818	-4.533	-0.957	-1.223	1.928	2.960	3.271	5.474	4.503	2.458	2.330	1.134	-0.131	0.348	-4.975	-6.451	-4.796	-1.778	-2.270	-5.209	-0.893	0.502	1.504	1.067	3.366	3.460	1.307	1.613	484.375
-5.036	-4.762	-1.183	-1.368	1.928	2.910	3.478	5.526	4.654	2.748	2.536	1.428	0.215	0.464	-5.187	-6.622	-4.989	-2.088	-2.360	-5.347	-0.928	0.538	1.433	1.355	3.441	3.640	1.657	1.880	488.281
-5.163	-4.959	-1.362	-1.519	1.895	2.857	3.580	5.556	4.752	2.891	2.642	1.600	0.435	0.511	-5.275	-6.757	-5.127	-2.265	-2.422	-5.480	-0.994	0.583	1.449	1.551	3.536	3.782	1.857	2.047	492.188
-5.180	-5.108	-1.481	-1.668	1.823	2.804	3.546	5.556	4.783	2.866	2.646	1.639	0.481	0.468	-5.214	-6.841	-5.193	-2.279	-2.453	-5.598	-1.092	0.625	1.551	1.627	3.646	3.882	1.880	2.108	496.094
-5.084	-5.201	-1.531	-1.807	1.709	2.748	3.365	5.522	4.739	2.669	2.562	1.552	0.327	0.325	-5.001	-6.869	-5.178	-2.123	-2.453	-5.692	-1.219	0.652	1.727	1.576	3.768	3.944	1.728	2.070	500.000
-4.885	-5.237	-1.513	-1.929	1.552	2.684	3.043	5.451	4.621	2.323	2.412	1.363	-0.020	0.088	-4.653	-6.840	-5.087	-1.815	-2.428	-5.756	-1.368	0.657	1.953	1.410	3.897	3.981	1.428	1.956	503.906
-4.606	-5.219	-1.434	-2.031	1.360	2.607	2.608	5.338	4.437	1.869	2.223	1.109	-0.526	-0.222	-4.206	-6.761	-4.932	-1.391	-2.384	-5.789	-1.528	0.635	2.198	1.157	4.027	4.003	1.031	1.799	507.812
-4.280	-5.155	-1.305	-2.107	1.141	2.512	2.102	5.183	4.202	1.360	2.026	0.840	-1.134	-0.573	-3.706	-6.643	-4.733	-0.909	-2.330	-5.791	-1.688	0.585	2.430	0.856	4.147	4.020	0.598	1.634	511.719
-3.943	-5.054	-1.141	-2.155	0.911	2.396	1.574	4.984	3.932	0.859	1.848	0.604	-1.772	-0.930	-3.203	-6.496	-4.511	-0.428	-2.271	-5.762	-1.833	0.512	2.621	0.550	4.245	4.033	0.193	1.494	515.625
-3.629	-4.923	-0.957	-2.173	0.685	2.259	1.077	4.743	3.648	0.419	1.708	0.440	-2.365	-1.255	-2.740	-6.333	-4.287	-0.006	-2.216	-5.707	-1.952	0.426	2.752	0.280	4.312	4.040	-0.128	1.405	519.531
-3.368	-4.771	-0.773	-2.162	0.479	2.104	0.651	4.466	3.366	0.082	1.616	0.375	-2.851	-1.517	-2.352	-6.166	-4.077	0.313	-2.167	-5.627	-2.036	0.337	2.818	0.075	4.339	4.035	-0.329	1.379	523.438
-3.178	-4.606	-0.605	-2.127	0.306	1.938	0.326	4.161	3.096	-0.129	1.570	0.412	-3.186	-1.694	-2.057	-6.003	-3.893	0.506	-2.124	-5.525	-2.077	0.258	2.825	-0.048	4.326	4.010	-0.395	1.413	527.344
-3.063	-4.436	-0.467	-2.073	0.172	1.769	0.114	3.843	2.847	-0.215	1.556	0.534	-3.349	-1.777	-1.860	-5.848	-3.741	0.573	-2.087	-5.404	-2.073	0.200	2.786	-0.086	4.274	3.960	-0.336	1.491	531.250
-3.015	-4.267	-0.369	-2.010	0.079	1.609	0.009	3.530	2.622	-0.198	1.557	0.710	-3.350	-1.771	-1.751	-5.705	-3.620	0.535	-2.050	-5.266	-2.026	0.172	2.721	-0.052	4.193	3.885	-0.183	1.588	535.156
-3.012	-4.107	-0.316	-1.947	0.024	1.464	-0.007	3.240	2.423	-0.112	1.553	0.896	-3.216	-1.692	-1.711	-5.573	-3.524	0.424	-2.009	-5.114	-1.941	0.176	2.648	0.033	4.093	3.787	0.021	1.677	539.062
-3.030	-3.965	-0.308	-1.895	-0.005	1.339	0.037	2.995	2.250	0.004	1.530	1.050	-2.994	-1.564	-1.713	-5.448	-3.447	0.281	-1.958	-4.950	-1.831	0.212	2.583	0.143	3.988	3.673	0.230	1.732	542.969
-3.042	-3.848	-0.340	-1.863	-0.021	1.235	0.114	2.809	2.105	0.112	1.480	1.138	-2.736	-1.418	-1.733	-5.328	-3.379	0.143	-1.893	-4.780	-1.709	0.274	2.536	0.254	3.887	3.554	0.405	1.739	546.875
-3.030	-3.763	-0.401	-1.857	-0.038	1.149	0.196	2.692	1.992	0.187	1.407	1.145	-2.489	-1.282	-1.749	-5.209	-3.311	0.035	-1.814	-4.609	-1.590	0.352	2.511	0.350	3.801	3.441	0.521	1.696	550.781
-2.985	-3.714	-0.482	-1.880	-0.068	1.077	0.266	2.646	1.913	0.217	1.324	1.071	-2.292	-1.177	-1.750	-5.091	-3.239	-0.028	-1.724	-4.444	-1.489	0.434	2.505	0.422	3.734	3.345	0.573	1.615	554.688
-2.910	-3.702	-0.572	-1.933	-0.119	1.015	0.316	2.665	1.872	0.207	1.250	0.940	-2.165	-1.115	-1.737	-4.975	-3.163	-0.048	-1.630	-4.293	-1.416	0.507	2.513	0.471	3.689	3.275	0.573	1.517	558.594
-2.817	-3.725	-0.666	-2.011	-0.193	0.960	0.346	2.734	1.867	0.172	1.206	0.785	-2.109	-1.099	-1.718	-4.865	-3.087	-0.036	-1.540	-4.163	-1.376	0.561	2.524	0.507	3.665	3.236	0.545	1.430	562.500
-2.724	-3.776	-0.758	-2.104	-0.284	0.909	0.364	2.832	1.893	0.136	1.207	0.645	-2.113	-1.118	-1.707	-4.768	-3.018	-0.010	-1.464	-4.057	-1.365	0.591	2.532	0.542	3.660	3.228	0.521	1.377	566.406
-2.650	-3.843	-0.849	-2.201	-0.383	0.863	0.377	2.938	1.941	0.119	1.260	0.553	-2.151	-1.154	-1.716	-4.686	-2.963	0.012	-1.410	-3.979	-1.375	0.597	2.532	0.588	3.668	3.247	0.527	1.374	570.312
-2.607	-3.911	-0.936	-2.288	-0.475	0.820	0.388	3.025	1.995	0.132	1.359	0.532	-2.197	-1.188	-1.750	-4.622	-2.928	0.017	-1.383	-3.925	-1.393	0.584	2.525	0.653	3.687	3.281	0.581	1.423	574.219
-2.596	-3.964	-1.016	-2.350	-0.548	0.783	0.397	3.071	2.036	0.174	1.481	0.582	-2.227	-1.201	-1.805	-4.572	-2.916	0.001	-1.385	-3.889	-1.404	0.560	2.513	0.739	3.711	3.316	0.685	1.510	578.125
-2.610	-3.983	-1.079	-2.373	-0.588	0.754	0.395	3.058	2.042	0.233	1.597	0.686	-2.229	-1.179	-1.870	-4.527	-2.921	-0.031	-1.410	-3.861	-1.393	0.537	2.505	0.842	3.737	3.335	0.824	1.612	582.031
-2.629	-3.951	-1.114	-2.343	-0.588	0.737	0.371	2.974	1.995	0.283	1.669	0.809	-2.200	-1.117	-1.929	-4.474	-2.931	-0.066	-1.446	-3.828	-1.349	0.527	2.511	0.950	3.756	3.321	0.974	1.697	585.938
-2.631	-3.854	-1.106	-2.253	-0.543	0.741	0.311	2.816	1.879	0.297	1.663	0.911	-2.149	-1.016	-1.970	-4.395	-2.928	-0.092	-1.474	-3.773	-1.267	0.543	2.537	1.050	3.762	3.260	1.103	1.733	589.844
-2.595	-3.684	-1.044	-2.097	-0.455	0.769	0.210	2.590	1.687	0.249	1.555	0.950	-2.089	-0.886	-1.981	-4.275	-2.892	-0.096	-1.474	-3.684	-1.143	0.593	2.591	1.129	3.742	3.142	1.179	1.694	593.750
-2.504	-3.442	-0.918	-1.880	-0.330	0.828	0.065	2.309	1.423	0.124	1.335	0.897	-2.037	-0.735	-1.958	-4.102	-2.807	-0.072	-1.425	-3.547	-0.979	0.683	2.674	1.175	3.687	2.963	1.180	1.567	597.656
-2.353	-3.137	-0.732	-1.610	-0.178	0.918	-0.116	1.996	1.101	-0.078	1.016	0.742	-2.004	-0.577	-1.899	-3.874	-2.663	-0.022	-1.314	-3.361	-0.784	0.812	2.781	1.183	3.587	2.727	1.093	1.355	601.562
-2.148	-2.788	-0.496	-1.307	-0.015	1.035	-0.318	1.676	0.744	-0.341	0.627	0.492	-1.992	-0.422	-1.809	-3.599	-2.461	0.048	-1.140	-3.129	-0.566	0.972	2.905	1.151	3.437	2.444	0.923	1.072	605.469
-1.904	-2.421	-0.231	-0.993	0.146	1.172	-0.522	1.377	0.385	-0.638	0.213	0.178	-1.998	-0.280	-1.695	-3.294	-2.211	0.129	-0.913	-2.865	-0.341	1.145	3.031	1.079	3.238	2.130	0.683	0.745	609.375
-1.644	-2.064	0.037	-0.692	0.288	1.319	-0.709	1.125	0.058	-0.929	-0.176	-0.159	-2.009	-0.158	-1.567	-2.985	-1.936	0.212	-0.655	-2.590	-0.125	1.310	3.142	0.973	3.000	1.805	0.400	0.409	613.281
-1.396	-1.745	0.279	-0.431	0.399	1.461	-0.860	0.938	-0.203	-1.177	-0.493	-0.471	-2.011	-0.060	-1.438	-2.702	-1.663	0.290	-0.398	-2.327	0.066	1.443	3.215	0.841	2.736	1.493	0.103	0.099	617.188
-1.183	-1.486	0.473	-0.227	0.472	1.587	-0.962	0.829	-0.374	-1.352	-0.701	-0.717	-1.991	0.009	-1.322	-2.470	-1.419	0.357	-0.175	-2.101	0.217	1.522	3.235	0.689	2.467	1.215	-0.176	-0.156	621.094
-1.022	-1.302	0.602	-0.094	0.502	1.686	-1.010	0.802	-0.440	-1.432	-0.782	-0.868	-1.942	0.047	-1.234	-2.311	-1.231	0.409	-0.017	-1.934	0.317	1.531	3.188	0.527	2.217	0.991	-0.412	-0.333	625.000
-0.921	-1.196	0.662	-0.038	0.490	1.751	-1.008	0.852	-0.405	-1.416	-0.740	-0.910	-1.864	0.055	-1.184	-2.236	-1.117	0.443	0.056	-1.837	0.359	1.464	3.073	0.367	2.005	0.835	-0.584	-0.424	628.906
-0.878	-1.167	0.656	-0.056	0.439	1.777	-0.965	0.967	-0.284	-1.314	-0.594	-0.848	-1.764	0.034	-1.177	-2.245	-1.084	0.452	0.034	-1.817	0.342	1.328	2.901	0.221	1.850	0.756	-0.679	-0.429	632.812
-0.884	-1.201	0.597	-0.136	0.354	1.765	-0.898	1.125	-0.105	-1.151	-0.377	-0.702	-1.653	-0.011	-1.210	-2.324	-1.130	0.431	-0.076	-1.866	0.270	1.143	2.695	0.103	1.765	0.757	-0.692	-0.358	636.719
-0.921	-1.283	0.500	-0.265	0.242	1.718	-0.824	1.301	0.093	-0.956	-0.127	-0.500	-1.546	-0.072	-1.272	-2.453	-1.243	0.372	-0.252	-1.970	0.156	0.937	2.483	0.028	1.752	0.833	-0.624	-0.231	640.625
-0.969	-1.392	0.382	-0.419	0.113	1.640	-0.763	1.467	0.272	-0.765	0.115	-0.278	-1.454	-0.137	-1.348	-2.602	-1.403	0.270	-0.463	-2.105	0.018	0.739	2.296	0.008	1.810	0.974	-0.486	-0.069	644.531
-1.006	-1.506	0.262	-0.577	-0.026	1.539	-0.730	1.595	0.392	-0.607	0.317	-0.072	-1.384	-0.193	-1.419	-2.739	-1.583	0.128	-0.675	-2.241	-0.119	0.579	2.161	0.050	1.925	1.162	-0.292	0.103	648.438
-1.014	-1.606	0.156	-0.714	-0.162	1.421	-0.738	1.659	0.425	-0.506	0.453	0.089	-1.342	-0.229	-1.464	-2.832	-1.755	-0.043	-0.855	-2.348	-0.230	0.475	2.091	0.152	2.082	1.372	-0.066	0.258	652.344
-0.975	-1.674	0.080	-0.811	-0.285	1.296	-0.793	1.644	0.354	-0.479	0.506	0.179	-1.326	-0.235	-1.468	-2.856	-1.893	-0.224	-0.976	-2.400	-0.294	0.437	2.090	0.304	2.258	1.577	0.161	0.371	656.250
-0.882	-1.697	0.049	-0.851	-0.384	1.175	-0.895	1.545	0.176	-0.532	0.469	0.183	-1.337	-0.209	-1.415	-2.798	-1.973	-0.388	-1.026	-2.377	-0.293	0.460	2.147	0.484	2.431	1.747	0.357	0.419	660.156
-0.730	-1.666	0.075	-0.826	-0.450	1.071	-1.035	1.370	-0.093	-0.659	0.345	0.097	-1.372	-0.154	-1.299	-2.653	-1.981	-0.506	-1.002	-2.271	-0.226	0.530	2.245	0.662	2.579	1.852	0.486	0.387	664.062
-0.525	-1.577	0.168	-0.734	-0.477	0.995	-1.201	1.137	-0.429	-0.848	0.144	-0.074	-1.430	-0.081	-1.117	-2.430	-1.909	-0.557	-0.913	-2.088	-0.099	0.628	2.362	0.805	2.686	1.869	0.519	0.264	667.969
-0.275	-1.431	0.327	-0.584	-0.464	0.957	-1.379	0.874	-0.795	-1.081	-0.119	-0.318	-1.511	-0.004	-0.873	-2.149	-1.763	-0.527	-0.772	-1.843	0.069	0.734	2.478	0.885	2.735	1.784	0.433	0.051	671.875
0.008	-1.236	0.547	-0.390	-0.414	0.964	-1.552	0.611	-1.154	-1.335	-0.423	-0.616	-1.616	0.060	-0.578	-1.833	-1.551	-0.417	-0.597	-1.562	0.256	0.833	2.579	0.877	2.719	1.596	0.219	-0.243	675.781
0.314	-1.002	0.814	-0.171	-0.336	1.014	-1.705	0.375	-1.472	-1.589	-0.746	-0.945	-1.744	0.097	-0.249	-1.507	-1.292	-0.239	-0.404	-1.271	0.435	0.912	2.656	0.772	2.635	1.311	-0.117	-0.600	679.688
0.632	-0.746	1.106	0.050	-0.243	1.101	-1.832	0.187	-1.730	-1.825	-1.066	-1.286	-1.893	0.098	0.099	-1.193	-1.006	-0.010	-0.207	-0.997	0.587	0.970	2.710	0.572	2.488	0.952	-0.554	-0.995	683.594
0.955	-0.481	1.398	0.256	-0.150	1.212	-1.932	0.053	-1.920	-2.032	-1.370	-1.620	-2.061	0.056	0.451	-0.908	-0.710	0.249	-0.016	-0.759	0.696	1.007	2.745	0.296	2.290	0.546	-1.056	-1.399	687.500
1.273	-0.224	1.664	0.429	-0.071	1.330	-2.010	-0.032	-2.051	-2.207	-1.645	-1.931	-2.240	-0.026	0.793	-0.655	-0.419	0.519	0.165	-0.566	0.760	1.029	2.766	-0.031	2.060	0.127	-1.580	-1.785	691.406
1.580	0.015	1.881	0.560	-0.019	1.433	-2.079	-0.084	-2.142	-2.350	-1.888	-2.208	-2.420	-0.139	1.117	-0.436	-0.145	0.783	0.333	-0.417	0.782	1.043	2.780	-0.373	1.818	-0.271	-2.078	-2.127	695.312
1.865	0.228	2.035	0.648	-0.001	1.503	-2.151	-0.125	-2.219	-2.465	-2.097	-2.441	-2.591	-0.270	1.415	-0.244	0.107	1.024	0.487	-0.302	0.771	1.054	2.789	-0.695	1.590	-0.616	-2.505	-2.402	699.219
2.118	0.409	2.120	0.694	-0.020	1.527	-2.235	-0.173	-2.301	-2.558	-2.272	-2.624	-2.737	-0.403	1.679	-0.073	0.331	1.229	0.625	-0.212	0.741	1.066	2.794	-0.967	1.394	-0.885	-2.826	-2.598	703.125
2.325	0.555	2.138	0.704	-0.075	1.497	-2.336	-0.240	-2.399	-2.628	-2.411	-2.753	-2.843	-0.520	1.900	0.080	0.522	1.385	0.743	-0.134	0.705	1.080	2.792	-1.164	1.248	-1.063	-3.018	-2.709	707.031
2.477	0.662	2.097	0.687	-0.158	1.419	-2.449	-0.330	-2.514	-2.677	-2.510	-2.825	-2.898	-0.604	2.069	0.215	0.674	1.484	0.836	-0.064	0.671	1.095	2.781	-1.274	1.157	-1.150	-3.075	-2.737	710.938
2.565	0.729	2.009	0.648	-0.261	1.302	-2.565	-0.433	-2.635	-2.700	-2.566	-2.841	-2.894	-0.646	2.180	0.326	0.783	1.519	0.900	-0.002	0.647	1.110	2.758	-1.297	1.121	-1.153	-3.009	-2.693	714.844
2.589	0.755	1.888	0.595	-0.374	1.162	-2.670	-0.535	-2.746	-2.694	-2.577	-2.805	-2.829	-0.638	2.230	0.408	0.847	1.495	0.934	0.049	0.635	1.123	2.725	-1.242	1.131	-1.089	-2.843	-2.591	718.750
2.551	0.743	1.743	0.532	-0.488	1.016	-2.750	-0.619	-2.827	-2.660	-2.544	-2.725	-2.708	-0.582	2.223	0.458	0.871	1.423	0.941	0.086	0.638	1.135	2.684	-1.126	1.170	-0.982	-2.614	-2.452	722.656
2.467	0.701	1.588	0.464	-0.597	0.879	-2.794	-0.671	-2.867	-2.599	-2.477	-2.615	-2.543	-0.484	2.165	0.477	0.864	1.319	0.929	0.107	0.655	1.149	2.640	-0.973	1.220	-0.858	-2.361	-2.301	726.562
2.357	0.639	1.434	0.400	-0.692	0.761	-2.796	-0.683	-2.862	-2.521	-2.388	-2.493	-2.351	-0.355	2.072	0.473	0.841	1.207	0.911	0.117	0.689	1.168	2.599	-0.806	1.262	-0.743	-2.123	-2.161	730.469
2.247	0.572	1.293	0.347	-0.769	0.674	-2.758	-0.657	-2.817	-2.435	-2.295	-2.381	-2.153	-0.211	1.961	0.460	0.817	1.109	0.900	0.124	0.740	1.197	2.566	-0.648	1.277	-0.661	-1.937	-2.057	734.375
2.164	0.517	1.178	0.317	-0.819	0.622	-2.685	-0.601	-2.747	-2.355	-2.217	-2.300	-1.967	-0.066	1.852	0.455	0.807	1.043	0.911	0.139	0.810	1.240	2.544	-0.519	1.254	-0.632	-1.828	-2.009	738.281
2.132	0.491	1.096	0.321	-0.836	0.611	-2.585	-0.530	-2.672	-2.293	-2.171	-2.270	-1.811	0.070	1.764	0.474	0.822	1.017	0.951	0.176	0.902	1.299	2.530	-0.431	1.185	-0.670	-1.809	-2.033	742.188
2.165	0.506	1.053	0.369	-0.813	0.643	-2.470	-0.463	-2.613	-2.257	-2.167	-2.303	-1.696	0.188	1.714	0.531	0.866	1.029	1.023	0.244	1.016	1.374	2.524	-0.389	1.070	-0.779	-1.882	-2.134	746.094
2.264	0.565	1.047	0.462	-0.747	0.715	-2.347	-0.416	-2.585	-2.249	-2.208	-2.401	-1.625	0.286	1.712	0.628	0.935	1.067	1.124	0.345	1.152	1.462	2.521	-0.392	0.914	-0.956	-2.034	-2.307	750.000
2.418	0.665	1.069	0.598	-0.639	0.820	-2.224	-0.400	-2.596	-2.265	-2.290	-2.555	-1.595	0.368	1.758	0.762	1.021	1.111	1.242	0.478	1.307	1.558	2.515	-0.433	0.730	-1.183	-2.243	-2.535	753.906
2.604	0.794	1.107	0.762	-0.499	0.947	-2.105	-0.420	-2.644	-2.294	-2.398	-2.744	-1.595	0.439	1.841	0.918	1.111	1.140	1.361	0.632	1.477	1.653	2.505	-0.499	0.535	-1.439	-2.476	-2.792	757.812
2.793	0.932	1.142	0.936	-0.339	1.075	-1.992	-0.474	-2.717	-2.323	-2.517	-2.941	-1.609	0.509	1.945	1.078	1.192	1.140	1.466	0.793	1.655	1.737	2.488	-0.574	0.346	-1.695	-2.700	-3.046	761.719
2.958	1.058	1.157	1.095	-0.179	1.185	-1.886	-0.556	-2.800	-2.335	-2.627	-3.115	-1.619	0.584	2.048	1.219	1.254	1.106	1.545	0.945	1.831	1.806	2.466	-0.644	0.180	-1.923	-2.884	-3.264	765.625
3.077	1.152	1.138	1.213	-0.041	1.254	-1.786	-0.657	-2.875	-2.317	-2.711	-3.240	-1.611	0.670	2.132	1.325	1.290	1.046	1.592	1.075	1.999	1.857	2.441	-0.694	0.050	-2.103	-3.003	-3.422	769.531
3.138	1.199	1.074	1.269	0.057	1.262	-1.693	-0.765	-2.924	-2.259	-2.756	-3.294	-1.569	0.769	2.185	1.382	1.300	0.976	1.609	1.171	2.150	1.894	2.417	-0.714	-0.041	-2.224	-3.041	-3.501	773.438
3.141	1.190	0.959	1.248	0.100	1.192	-1.606	-0.869	-2.936	-2.155	-2.757	-3.267	-1.487	0.880	2.204	1.384	1.286	0.922	1.604	1.229	2.282	1.928	2.403	-0.697	-0.095	-2.287	-2.996	-3.497	777.344
3.089	1.123	0.794	1.142	0.081	1.035	-1.525	-0.963	-2.904	-2.005	-2.711	-3.159	-1.362	1.002	2.197	1.332	1.254	0.904	1.592	1.248	2.392	1.971	2.404	-0.643	-0.119	-2.303	-2.873	-3.415	781.250
2.996	1.003	0.585	0.956	0.002	0.793	-1.446	-1.041	-2.827	-1.814	-2.625	-2.981	-1.196	1.133	2.174	1.235	1.211	0.937	1.587	1.233	2.485	2.037	2.426	-0.554	-0.126	-2.288	-2.687	-3.269	785.156
2.876	0.843	0.341	0.702	-0.128	0.475	-1.370	-1.103	-2.710	-1.590	-2.507	-2.749	-0.998	1.268	2.147	1.103	1.164	1.026	1.598	1.193	2.566	2.134	2.472	-0.437	-0.127	-2.259	-2.457	-3.080	789.062
2.743	0.657	0.075	0.402	-0.292	0.104	-1.293	-1.152	-2.565	-1.344	-2.371	-2.486	-0.777	1.407	2.125	0.950	1.117	1.162	1.630	1.138	2.640	2.259	2.538	-0.302	-0.131	-2.231	-2.202	-2.868	792.969
2.609	0.460	-0.199	0.081	-0.472	-0.294	-1.214	-1.193	-2.407	-1.089	-2.228	-2.212	-0.546	1.547	2.109	0.790	1.073	1.328	1.677	1.080	2.714	2.403	2.615	-0.160	-0.141	-2.211	-1.943	-2.652	796.875
