FP1	F3	F7	FC3	C3	C5	P3	P7	PO7	PO3	O1	Oz	Pz	CPz	FP2	Fz	F4	F8	FC4	FCz	Cz	C4	C6	P4	P8	PO8	PO4	O2	time
0.010	-0.161	0.471	-0.169	-0.153	-0.003	-0.398	0.019	0.364	-0.431	0.503	0.173	-0.495	0.232	0.115	-0.574	-0.602	0.216	-0.566	-0.266	0.108	-0.203	0.004	-0.242	0.347	-0.447	-0.896	-0.462	-199.219
0.250	-0.030	0.416	-0.062	-0.149	-0.011	-0.434	-0.137	0.042	-0.556	0.226	0.001	-0.456	0.179	0.541	-0.198	-0.234	0.290	-0.260	0.019	0.205	-0.024	0.148	-0.287	0.078	-0.582	-0.871	-0.559	-195.312
0.461	0.091	0.362	0.029	-0.151	-0.024	-0.477	-0.276	-0.257	-0.682	-0.032	-0.159	-0.426	0.123	0.938	0.148	0.108	0.376	0.020	0.277	0.285	0.131	0.273	-0.329	-0.154	-0.697	-0.845	-0.649	-191.406
0.618	0.192	0.310	0.093	-0.165	-0.049	-0.532	-0.388	-0.514	-0.806	-0.255	-0.297	-0.414	0.064	1.278	0.437	0.399	0.477	0.254	0.486	0.340	0.247	0.367	-0.367	-0.319	-0.773	-0.819	-0.724	-187.500
0.709	0.263	0.258	0.122	-0.193	-0.089	-0.598	-0.467	-0.716	-0.926	-0.432	-0.407	-0.421	0.005	1.534	0.651	0.624	0.598	0.430	0.630	0.365	0.317	0.423	-0.396	-0.397	-0.794	-0.791	-0.776	-183.594
0.729	0.298	0.205	0.113	-0.233	-0.143	-0.674	-0.515	-0.859	-1.037	-0.556	-0.488	-0.444	-0.050	1.690	0.780	0.775	0.734	0.547	0.704	0.364	0.341	0.442	-0.415	-0.383	-0.757	-0.757	-0.800	-179.688
0.685	0.298	0.150	0.071	-0.281	-0.209	-0.754	-0.538	-0.945	-1.132	-0.631	-0.541	-0.477	-0.092	1.741	0.824	0.855	0.879	0.610	0.710	0.345	0.332	0.435	-0.419	-0.287	-0.666	-0.716	-0.795	-175.781
0.594	0.266	0.095	0.006	-0.329	-0.283	-0.830	-0.548	-0.985	-1.208	-0.666	-0.574	-0.514	-0.116	1.691	0.798	0.877	1.023	0.637	0.664	0.324	0.309	0.413	-0.409	-0.135	-0.535	-0.671	-0.764	-171.875
0.480	0.215	0.044	-0.066	-0.369	-0.358	-0.895	-0.559	-0.995	-1.260	-0.675	-0.596	-0.545	-0.117	1.561	0.722	0.859	1.155	0.647	0.587	0.314	0.291	0.392	-0.385	0.043	-0.384	-0.624	-0.718	-167.969
0.365	0.161	0.001	-0.124	-0.390	-0.426	-0.943	-0.583	-0.988	-1.284	-0.672	-0.618	-0.568	-0.093	1.375	0.625	0.824	1.264	0.660	0.508	0.328	0.296	0.383	-0.351	0.210	-0.238	-0.581	-0.666	-164.062
0.270	0.119	-0.026	-0.152	-0.385	-0.477	-0.968	-0.626	-0.976	-1.281	-0.671	-0.646	-0.577	-0.046	1.164	0.535	0.788	1.338	0.688	0.450	0.375	0.332	0.393	-0.313	0.336	-0.120	-0.549	-0.620	-160.156
0.208	0.101	-0.034	-0.137	-0.347	-0.503	-0.964	-0.687	-0.963	-1.248	-0.678	-0.683	-0.571	0.020	0.959	0.473	0.763	1.369	0.734	0.431	0.456	0.397	0.419	-0.279	0.396	-0.049	-0.535	-0.588	-156.250
0.185	0.116	-0.022	-0.076	-0.277	-0.496	-0.929	-0.755	-0.947	-1.186	-0.691	-0.727	-0.549	0.097	0.782	0.453	0.751	1.349	0.792	0.456	0.565	0.482	0.453	-0.256	0.380	-0.037	-0.542	-0.576	-152.344
0.197	0.160	0.008	0.026	-0.178	-0.453	-0.860	-0.812	-0.918	-1.094	-0.704	-0.771	-0.510	0.178	0.651	0.476	0.747	1.277	0.845	0.521	0.689	0.568	0.479	-0.248	0.287	-0.085	-0.570	-0.584	-148.438
0.233	0.227	0.051	0.155	-0.061	-0.373	-0.758	-0.837	-0.864	-0.973	-0.706	-0.804	-0.457	0.253	0.573	0.532	0.737	1.157	0.877	0.610	0.811	0.635	0.485	-0.258	0.127	-0.189	-0.618	-0.606	-144.531
0.278	0.301	0.099	0.288	0.063	-0.262	-0.625	-0.811	-0.772	-0.826	-0.685	-0.815	-0.391	0.314	0.541	0.601	0.709	0.997	0.871	0.699	0.909	0.665	0.458	-0.284	-0.077	-0.333	-0.676	-0.634	-140.625
0.316	0.363	0.145	0.403	0.177	-0.130	-0.467	-0.717	-0.632	-0.654	-0.632	-0.794	-0.318	0.354	0.541	0.659	0.648	0.809	0.814	0.765	0.967	0.649	0.395	-0.320	-0.299	-0.495	-0.733	-0.655	-136.719
0.331	0.395	0.179	0.482	0.270	0.009	-0.291	-0.549	-0.440	-0.461	-0.541	-0.733	-0.242	0.369	0.548	0.679	0.547	0.604	0.704	0.784	0.972	0.582	0.297	-0.360	-0.506	-0.651	-0.775	-0.655	-132.812
0.311	0.385	0.196	0.510	0.330	0.144	-0.105	-0.312	-0.199	-0.251	-0.411	-0.629	-0.168	0.357	0.535	0.644	0.401	0.394	0.545	0.744	0.919	0.472	0.174	-0.393	-0.668	-0.773	-0.787	-0.623	-128.906
0.248	0.326	0.191	0.485	0.355	0.261	0.081	-0.021	0.080	-0.032	-0.247	-0.481	-0.098	0.323	0.476	0.542	0.213	0.184	0.349	0.641	0.815	0.327	0.038	-0.411	-0.763	-0.840	-0.755	-0.546	-125.000
0.140	0.222	0.166	0.412	0.346	0.353	0.256	0.297	0.378	0.190	-0.057	-0.296	-0.033	0.274	0.351	0.375	-0.008	-0.019	0.130	0.481	0.671	0.164	-0.096	-0.408	-0.775	-0.836	-0.670	-0.418	-121.094
-0.009	0.086	0.122	0.304	0.310	0.416	0.411	0.608	0.670	0.402	0.143	-0.082	0.027	0.220	0.153	0.156	-0.249	-0.213	-0.094	0.280	0.506	-0.003	-0.216	-0.379	-0.703	-0.752	-0.531	-0.240	-117.188
-0.188	-0.062	0.066	0.180	0.257	0.450	0.533	0.876	0.926	0.592	0.336	0.148	0.081	0.168	-0.112	-0.093	-0.491	-0.394	-0.305	0.062	0.339	-0.160	-0.315	-0.325	-0.554	-0.591	-0.341	-0.018	-113.281
-0.380	-0.202	0.007	0.058	0.197	0.456	0.612	1.067	1.116	0.744	0.503	0.372	0.130	0.126	-0.419	-0.343	-0.712	-0.557	-0.487	-0.150	0.188	-0.296	-0.387	-0.247	-0.348	-0.364	-0.113	0.233	-109.375
-0.564	-0.313	-0.045	-0.044	0.139	0.440	0.638	1.156	1.218	0.843	0.622	0.570	0.171	0.096	-0.734	-0.564	-0.892	-0.693	-0.627	-0.331	0.064	-0.401	-0.433	-0.152	-0.107	-0.091	0.135	0.489	-105.469
-0.717	-0.380	-0.081	-0.114	0.090	0.407	0.608	1.127	1.214	0.876	0.676	0.718	0.199	0.077	-1.015	-0.728	-1.010	-0.792	-0.715	-0.461	-0.026	-0.470	-0.453	-0.046	0.139	0.202	0.381	0.723	-101.562
-0.818	-0.396	-0.093	-0.145	0.052	0.360	0.521	0.985	1.105	0.836	0.655	0.796	0.210	0.063	-1.220	-0.815	-1.054	-0.845	-0.745	-0.528	-0.080	-0.502	-0.451	0.064	0.365	0.487	0.601	0.908	-97.656
-0.856	-0.362	-0.082	-0.137	0.024	0.304	0.386	0.746	0.902	0.724	0.558	0.794	0.202	0.050	-1.320	-0.816	-1.016	-0.844	-0.718	-0.529	-0.103	-0.495	-0.428	0.169	0.548	0.735	0.775	1.020	-93.750
-0.824	-0.290	-0.053	-0.097	0.005	0.244	0.217	0.444	0.634	0.553	0.395	0.711	0.176	0.034	-1.304	-0.733	-0.900	-0.788	-0.639	-0.469	-0.101	-0.454	-0.389	0.264	0.674	0.924	0.888	1.047	-89.844
-0.730	-0.194	-0.016	-0.034	-0.010	0.183	0.035	0.117	0.337	0.343	0.190	0.563	0.138	0.014	-1.182	-0.582	-0.718	-0.684	-0.518	-0.363	-0.083	-0.383	-0.333	0.341	0.733	1.039	0.933	0.989	-85.938
-0.590	-0.094	0.013	0.038	-0.022	0.124	-0.136	-0.193	0.052	0.123	-0.026	0.374	0.095	-0.007	-0.984	-0.384	-0.490	-0.547	-0.367	-0.228	-0.057	-0.288	-0.264	0.398	0.728	1.074	0.913	0.858	-82.031
-0.425	-0.006	0.022	0.106	-0.035	0.067	-0.273	-0.448	-0.184	-0.076	-0.220	0.176	0.058	-0.027	-0.750	-0.170	-0.243	-0.396	-0.201	-0.088	-0.032	-0.178	-0.183	0.433	0.666	1.031	0.837	0.679	-78.125
-0.259	0.061	0.003	0.160	-0.049	0.012	-0.357	-0.624	-0.347	-0.229	-0.362	0.003	0.036	-0.042	-0.523	0.034	-0.004	-0.252	-0.038	0.038	-0.016	-0.062	-0.094	0.444	0.559	0.921	0.721	0.480	-74.219
-0.111	0.102	-0.045	0.193	-0.062	-0.038	-0.380	-0.709	-0.422	-0.315	-0.432	-0.120	0.035	-0.051	-0.339	0.203	0.203	-0.134	0.107	0.134	-0.015	0.046	-0.003	0.434	0.424	0.764	0.584	0.291	-70.312
0.006	0.122	-0.114	0.203	-0.071	-0.085	-0.340	-0.710	-0.415	-0.325	-0.425	-0.176	0.056	-0.058	-0.219	0.319	0.357	-0.057	0.216	0.189	-0.033	0.136	0.081	0.407	0.281	0.581	0.445	0.137	-66.406
0.088	0.128	-0.189	0.194	-0.074	-0.124	-0.245	-0.640	-0.340	-0.260	-0.347	-0.162	0.097	-0.063	-0.173	0.376	0.445	-0.030	0.280	0.199	-0.072	0.195	0.147	0.368	0.147	0.396	0.323	0.035	-62.500
0.134	0.131	-0.252	0.170	-0.065	-0.153	-0.107	-0.522	-0.221	-0.132	-0.215	-0.085	0.153	-0.071	-0.195	0.372	0.462	-0.055	0.290	0.167	-0.132	0.214	0.186	0.323	0.034	0.229	0.231	-0.010	-58.594
0.150	0.137	-0.291	0.137	-0.041	-0.166	0.057	-0.381	-0.082	0.044	-0.053	0.034	0.219	-0.085	-0.271	0.313	0.412	-0.128	0.247	0.098	-0.211	0.189	0.192	0.281	-0.049	0.098	0.180	-0.001	-54.688
0.142	0.149	-0.296	0.100	-0.002	-0.159	0.233	-0.235	0.053	0.248	0.113	0.175	0.292	-0.103	-0.380	0.209	0.305	-0.237	0.157	-0.001	-0.306	0.124	0.165	0.249	-0.100	0.012	0.174	0.049	-50.781
0.113	0.162	-0.269	0.060	0.052	-0.130	0.407	-0.097	0.167	0.461	0.264	0.312	0.368	-0.123	-0.499	0.073	0.158	-0.367	0.032	-0.120	-0.413	0.025	0.109	0.233	-0.122	-0.026	0.213	0.127	-46.875
0.066	0.168	-0.219	0.017	0.114	-0.081	0.571	0.029	0.252	0.667	0.385	0.427	0.444	-0.141	-0.606	-0.085	-0.010	-0.501	-0.114	-0.253	-0.527	-0.093	0.033	0.238	-0.122	-0.019	0.291	0.214	-42.969
0.006	0.154	-0.161	-0.033	0.176	-0.018	0.714	0.143	0.308	0.851	0.470	0.507	0.517	-0.155	-0.688	-0.250	-0.181	-0.623	-0.265	-0.392	-0.643	-0.214	-0.055	0.266	-0.108	0.024	0.398	0.298	-39.062
-0.063	0.111	-0.109	-0.092	0.230	0.050	0.831	0.253	0.341	1.002	0.523	0.547	0.582	-0.163	-0.735	-0.413	-0.337	-0.721	-0.403	-0.530	-0.755	-0.324	-0.146	0.311	-0.089	0.091	0.518	0.369	-35.156
-0.133	0.032	-0.075	-0.162	0.266	0.112	0.916	0.368	0.365	1.113	0.551	0.552	0.631	-0.170	-0.749	-0.561	-0.463	-0.788	-0.519	-0.660	-0.860	-0.413	-0.233	0.364	-0.070	0.171	0.634	0.422	-31.250
-0.193	-0.079	-0.059	-0.242	0.275	0.160	0.965	0.495	0.394	1.180	0.567	0.533	0.652	-0.184	-0.739	-0.685	-0.554	-0.823	-0.606	-0.776	-0.955	-0.477	-0.316	0.410	-0.054	0.256	0.730	0.458	-27.344
-0.233	-0.213	-0.056	-0.326	0.256	0.190	0.974	0.638	0.441	1.204	0.582	0.503	0.638	-0.217	-0.717	-0.779	-0.607	-0.828	-0.668	-0.873	-1.043	-0.522	-0.396	0.434	-0.044	0.337	0.790	0.481	-23.438
-0.247	-0.353	-0.054	-0.409	0.207	0.200	0.942	0.795	0.519	1.188	0.606	0.478	0.579	-0.279	-0.692	-0.838	-0.629	-0.808	-0.711	-0.949	-1.125	-0.561	-0.477	0.418	-0.037	0.413	0.805	0.497	-19.531
-0.232	-0.479	-0.037	-0.482	0.131	0.193	0.871	0.961	0.630	1.139	0.646	0.469	0.474	-0.378	-0.669	-0.864	-0.628	-0.768	-0.747	-1.003	-1.209	-0.608	-0.565	0.353	-0.031	0.481	0.774	0.514	-15.625
-0.190	-0.574	0.007	-0.540	0.034	0.174	0.767	1.125	0.772	1.067	0.704	0.483	0.325	-0.519	-0.649	-0.859	-0.614	-0.716	-0.787	-1.040	-1.298	-0.676	-0.659	0.237	-0.025	0.544	0.702	0.534	-11.719
-0.132	-0.625	0.083	-0.580	-0.077	0.148	0.638	1.276	0.934	0.982	0.779	0.520	0.144	-0.693	-0.629	-0.831	-0.598	-0.658	-0.836	-1.063	-1.397	-0.771	-0.759	0.078	-0.016	0.600	0.600	0.561	-7.812
-0.067	-0.627	0.189	-0.600	-0.193	0.120	0.498	1.399	1.101	0.893	0.864	0.574	-0.053	-0.888	-0.603	-0.787	-0.585	-0.599	-0.897	-1.079	-1.504	-0.891	-0.856	-0.110	-0.002	0.649	0.484	0.592	-3.906
-0.007	-0.579	0.316	-0.602	-0.306	0.094	0.358	1.481	1.255	0.809	0.950	0.633	-0.246	-1.083	-0.571	-0.738	-0.581	-0.543	-0.962	-1.090	-1.615	-1.025	-0.943	-0.304	0.017	0.690	0.371	0.624	0.000
0.041	-0.490	0.449	-0.589	-0.406	0.072	0.232	1.514	1.377	0.734	1.025	0.684	-0.414	-1.258	-0.532	-0.688	-0.586	-0.494	-1.025	-1.100	-1.722	-1.159	-1.011	-0.482	0.041	0.718	0.275	0.651	3.906
0.076	-0.370	0.571	-0.564	-0.486	0.055	0.131	1.493	1.454	0.670	1.078	0.716	-0.541	-1.394	-0.486	-0.642	-0.599	-0.453	-1.077	-1.109	-1.818	-1.277	-1.054	-0.626	0.067	0.730	0.205	0.667	7.812
0.100	-0.233	0.670	-0.529	-0.537	0.044	0.060	1.421	1.477	0.616	1.099	0.720	-0.617	-1.481	-0.439	-0.604	-0.617	-0.419	-1.110	-1.114	-1.894	-1.367	-1.071	-0.724	0.090	0.724	0.165	0.667	11.719
0.120	-0.093	0.738	-0.488	-0.557	0.037	0.024	1.306	1.448	0.575	1.086	0.699	-0.635	-1.514	-0.395	-0.574	-0.638	-0.394	-1.124	-1.115	-1.947	-1.423	-1.066	-0.772	0.106	0.697	0.154	0.650	15.625
0.145	0.034	0.770	-0.443	-0.546	0.032	0.025	1.163	1.376	0.549	1.041	0.660	-0.598	-1.496	-0.362	-0.554	-0.661	-0.379	-1.120	-1.109	-1.975	-1.445	-1.044	-0.773	0.112	0.651	0.171	0.623	19.531
0.176	0.135	0.765	-0.399	-0.507	0.022	0.063	1.008	1.277	0.546	0.979	0.619	-0.509	-1.435	-0.351	-0.547	-0.686	-0.378	-1.105	-1.098	-1.981	-1.437	-1.014	-0.731	0.106	0.591	0.212	0.593	23.438
0.212	0.198	0.722	-0.363	-0.449	0.000	0.137	0.860	1.171	0.574	0.915	0.595	-0.375	-1.341	-0.371	-0.555	-0.715	-0.394	-1.086	-1.085	-1.967	-1.408	-0.984	-0.653	0.094	0.527	0.276	0.576	27.344
0.243	0.213	0.640	-0.340	-0.381	-0.040	0.246	0.735	1.077	0.642	0.869	0.606	-0.203	-1.222	-0.429	-0.582	-0.752	-0.432	-1.072	-1.072	-1.938	-1.366	-0.960	-0.546	0.081	0.469	0.364	0.582	31.250
0.255	0.175	0.518	-0.338	-0.314	-0.102	0.385	0.644	1.011	0.753	0.855	0.660	-0.000	-1.087	-0.529	-0.629	-0.801	-0.493	-1.066	-1.064	-1.898	-1.314	-0.946	-0.411	0.077	0.432	0.476	0.623	35.156
0.233	0.082	0.356	-0.359	-0.259	-0.187	0.546	0.591	0.980	0.905	0.880	0.755	0.221	-0.942	-0.666	-0.696	-0.860	-0.573	-1.068	-1.063	-1.849	-1.256	-0.940	-0.252	0.094	0.432	0.613	0.699	39.062
0.166	-0.060	0.159	-0.404	-0.225	-0.291	0.713	0.578	0.987	1.080	0.937	0.871	0.445	-0.797	-0.829	-0.777	-0.925	-0.663	-1.073	-1.067	-1.794	-1.189	-0.936	-0.069	0.143	0.482	0.772	0.805	42.969
0.050	-0.239	-0.062	-0.472	-0.218	-0.405	0.870	0.597	1.026	1.256	1.008	0.979	0.649	-0.664	-1.002	-0.864	-0.988	-0.751	-1.072	-1.075	-1.735	-1.109	-0.926	0.134	0.230	0.592	0.944	0.925	46.875
-0.109	-0.438	-0.289	-0.556	-0.241	-0.520	0.992	0.642	1.088	1.401	1.069	1.044	0.804	-0.557	-1.168	-0.947	-1.040	-0.819	-1.055	-1.082	-1.679	-1.014	-0.899	0.347	0.362	0.769	1.119	1.041	50.781
-0.299	-0.638	-0.502	-0.649	-0.295	-0.624	1.060	0.709	1.167	1.485	1.097	1.030	0.878	-0.496	-1.309	-1.017	-1.071	-0.856	-1.015	-1.088	-1.634	-0.906	-0.848	0.558	0.540	1.015	1.282	1.133	54.688
-0.501	-0.819	-0.677	-0.744	-0.376	-0.707	1.059	0.800	1.266	1.484	1.077	0.915	0.839	-0.503	-1.414	-1.069	-1.080	-0.852	-0.957	-1.094	-1.615	-0.797	-0.773	0.748	0.762	1.326	1.417	1.187	58.594
-0.699	-0.968	-0.794	-0.835	-0.481	-0.761	0.985	0.926	1.396	1.388	1.010	0.695	0.661	-0.600	-1.482	-1.110	-1.070	-0.811	-0.892	-1.112	-1.641	-0.707	-0.682	0.896	1.026	1.698	1.512	1.200	62.500
-0.883	-1.079	-0.842	-0.922	-0.604	-0.780	0.846	1.107	1.581	1.204	0.916	0.389	0.330	-0.801	-1.523	-1.154	-1.057	-0.744	-0.844	-1.160	-1.736	-0.661	-0.592	0.984	1.328	2.124	1.560	1.181	66.406
-1.052	-1.158	-0.820	-1.008	-0.741	-0.764	0.662	1.370	1.854	0.957	0.832	0.034	-0.153	-1.118	-1.560	-1.224	-1.065	-0.675	-0.844	-1.263	-1.920	-0.688	-0.524	0.996	1.667	2.600	1.560	1.152	70.312
-1.215	-1.219	-0.736	-1.100	-0.889	-0.716	0.464	1.741	2.251	0.689	0.805	-0.314	-0.768	-1.547	-1.624	-1.348	-1.121	-0.635	-0.921	-1.448	-2.210	-0.813	-0.501	0.925	2.038	3.120	1.520	1.143	74.219
-1.387	-1.282	-0.612	-1.206	-1.044	-0.641	0.289	2.241	2.800	0.452	0.884	-0.594	-1.474	-2.074	-1.751	-1.551	-1.254	-0.655	-1.105	-1.735	-2.614	-1.050	-0.544	0.771	2.436	3.678	1.453	1.188	78.125
-1.586	-1.368	-0.473	-1.335	-1.206	-0.549	0.172	2.874	3.516	0.301	1.107	-0.750	-2.215	-2.667	-1.968	-1.851	-1.487	-0.763	-1.411	-2.134	-3.122	-1.400	-0.666	0.547	2.850	4.263	1.377	1.314	82.031
-1.824	-1.495	-0.348	-1.493	-1.371	-0.453	0.145	3.625	4.387	0.283	1.495	-0.740	-2.922	-3.284	-2.290	-2.252	-1.832	-0.977	-1.839	-2.641	-3.710	-1.848	-0.871	0.275	3.264	4.859	1.312	1.540	85.938
-2.108	-1.672	-0.264	-1.680	-1.533	-0.365	0.229	4.454	5.374	0.432	2.041	-0.546	-3.522	-3.869	-2.716	-2.741	-2.285	-1.299	-2.372	-3.231	-4.336	-2.362	-1.151	-0.015	3.657	5.444	1.275	1.868	89.844
-2.432	-1.901	-0.239	-1.891	-1.683	-0.297	0.431	5.298	6.405	0.760	2.713	-0.181	-3.946	-4.362	-3.221	-3.288	-2.823	-1.714	-2.973	-3.861	-4.946	-2.893	-1.486	-0.285	4.004	5.987	1.281	2.279	93.750
-2.778	-2.170	-0.282	-2.114	-1.807	-0.256	0.744	6.075	7.387	1.251	3.448	0.315	-4.138	-4.704	-3.767	-3.847	-3.406	-2.187	-3.587	-4.474	-5.475	-3.385	-1.845	-0.499	4.278	6.457	1.341	2.738	97.656
-3.117	-2.457	-0.391	-2.329	-1.889	-0.249	1.143	6.699	8.213	1.866	4.167	0.878	-4.062	-4.847	-4.302	-4.358	-3.977	-2.674	-4.149	-5.003	-5.859	-3.781	-2.189	-0.622	4.454	6.816	1.452	3.192	101.562
-3.416	-2.728	-0.550	-2.511	-1.910	-0.272	1.593	7.087	8.779	2.540	4.779	1.426	-3.710	-4.758	-4.770	-4.763	-4.472	-3.121	-4.593	-5.383	-6.043	-4.027	-2.478	-0.633	4.511	7.029	1.607	3.582	105.469
-3.636	-2.944	-0.736	-2.631	-1.853	-0.318	2.051	7.179	9.001	3.200	5.199	1.876	-3.103	-4.427	-5.118	-5.004	-4.828	-3.474	-4.859	-5.556	-5.988	-4.086	-2.675	-0.521	4.432	7.063	1.784	3.847	109.375
-3.745	-3.062	-0.916	-2.660	-1.705	-0.373	2.471	6.942	8.828	3.765	5.361	2.156	-2.289	-3.871	-5.301	-5.041	-4.991	-3.690	-4.902	-5.486	-5.679	-3.938	-2.753	-0.295	4.210	6.892	1.956	3.933	113.281
-3.718	-3.046	-1.060	-2.577	-1.464	-0.423	2.811	6.384	8.256	4.166	5.226	2.216	-1.338	-3.132	-5.294	-4.853	-4.930	-3.737	-4.706	-5.164	-5.131	-3.589	-2.699	0.020	3.846	6.506	2.091	3.808	117.188
-3.549	-2.875	-1.143	-2.370	-1.139	-0.455	3.036	5.551	7.326	4.356	4.798	2.039	-0.338	-2.274	-5.091	-4.451	-4.641	-3.606	-4.282	-4.611	-4.389	-3.070	-2.517	0.387	3.359	5.915	2.163	3.466	121.094
-3.246	-2.549	-1.150	-2.050	-0.756	-0.463	3.123	4.525	6.130	4.314	4.119	1.647	0.619	-1.379	-4.714	-3.873	-4.152	-3.311	-3.676	-3.883	-3.524	-2.434	-2.226	0.762	2.784	5.158	2.155	2.938	125.000
-2.840	-2.095	-1.083	-1.646	-0.356	-0.450	3.065	3.413	4.793	4.053	3.273	1.099	1.442	-0.540	-4.211	-3.188	-3.523	-2.889	-2.956	-3.062	-2.626	-1.752	-1.860	1.101	2.170	4.305	2.070	2.286	128.906
-2.381	-1.567	-0.957	-1.210	0.007	-0.427	2.864	2.336	3.467	3.614	2.373	0.484	2.053	0.154	-3.649	-2.486	-2.835	-2.395	-2.211	-2.251	-1.799	-1.100	-1.463	1.369	1.586	3.455	1.928	1.604	132.812
-1.931	-1.045	-0.804	-0.809	0.277	-0.415	2.541	1.413	2.304	3.065	1.545	-0.088	2.396	0.624	-3.110	-1.865	-2.183	-1.896	-1.534	-1.558	-1.142	-0.552	-1.084	1.547	1.106	2.724	1.771	1.004	136.719
-1.561	-0.618	-0.665	-0.516	0.398	-0.441	2.123	0.745	1.444	2.487	0.914	-0.506	2.440	0.814	-2.676	-1.421	-1.663	-1.457	-1.013	-1.082	-0.738	-0.168	-0.766	1.633	0.806	2.235	1.651	0.596	140.625
-1.339	-0.373	-0.585	-0.401	0.328	-0.529	1.646	0.405	0.994	1.963	0.582	-0.676	2.182	0.696	-2.420	-1.234	-1.357	-1.132	-0.716	-0.900	-0.646	0.012	-0.542	1.640	0.751	2.091	1.625	0.478	144.531
-1.317	-0.382	-0.603	-0.516	0.047	-0.702	1.152	0.430	1.015	1.564	0.616	-0.531	1.647	0.272	-2.390	-1.352	-1.324	-0.960	-0.685	-1.059	-0.890	-0.027	-0.432	1.596	0.987	2.367	1.745	0.714	148.438
-1.528	-0.686	-0.746	-0.887	-0.442	-0.970	0.678	0.818	1.518	1.343	1.038	-0.047	0.882	-0.422	-2.609	-1.793	-1.592	-0.958	-0.933	-1.564	-1.461	-0.275	-0.436	1.537	1.530	3.090	2.046	1.327	152.344
-1.976	-1.289	-1.024	-1.511	-1.112	-1.329	0.261	1.531	2.465	1.323	1.827	0.761	-0.053	-1.332	-3.071	-2.537	-2.156	-1.122	-1.446	-2.389	-2.317	-0.704	-0.542	1.494	2.364	4.239	2.540	2.296	156.250
-2.637	-2.157	-1.426	-2.352	-1.914	-1.762	-0.073	2.500	3.776	1.501	2.918	1.837	-1.091	-2.385	-3.744	-3.535	-2.981	-1.431	-2.181	-3.473	-3.394	-1.270	-0.726	1.495	3.446	5.746	3.218	3.562	160.156
-3.468	-3.223	-1.927	-3.348	-2.789	-2.241	-0.307	3.639	5.336	1.848	4.220	3.099	-2.167	-3.507	-4.578	-4.716	-4.007	-1.851	-3.081	-4.733	-4.612	-1.922	-0.961	1.554	4.707	7.510	4.043	5.036	164.062
-4.409	-4.393	-2.487	-4.423	-3.675	-2.732	-0.437	4.849	7.019	2.314	5.624	4.446	-3.224	-4.625	-5.510	-5.994	-5.153	-2.340	-4.075	-6.079	-5.885	-2.610	-1.217	1.673	6.067	9.409	4.966	6.616	167.969
-5.393	-5.570	-3.067	-5.493	-4.517	-3.202	-0.470	6.035	8.691	2.840	7.020	5.775	-4.217	-5.678	-6.474	-7.280	-6.332	-2.858	-5.087	-7.415	-7.129	-3.281	-1.467	1.846	7.443	11.321	5.929	8.195	171.875
-6.355	-6.662	-3.629	-6.483	-5.269	-3.623	-0.423	7.111	10.234	3.368	8.311	6.996	-5.112	-6.620	-7.409	-8.494	-7.459	-3.370	-6.044	-8.657	-8.272	-3.892	-1.687	2.057	8.756	13.137	6.875	9.682	175.781
-7.237	-7.600	-4.144	-7.334	-5.904	-3.978	-0.316	8.010	11.554	3.850	9.423	8.038	-5.885	-7.417	-8.263	-9.567	-8.462	-3.855	-6.884	-9.740	-9.254	-4.407	-1.862	2.293	9.944	14.773	7.757	11.004	179.688
-7.998	-8.344	-4.597	-8.010	-6.409	-4.260	-0.169	8.692	12.591	4.257	10.313	8.861	-6.517	-8.050	-9.002	-10.454	-9.287	-4.299	-7.559	-10.619	-10.039	-4.800	-1.981	2.540	10.960	16.170	8.543	12.118	183.594
-8.616	-8.889	-4.983	-8.503	-6.784	-4.471	0.005	9.142	13.322	4.582	10.968	9.455	-6.988	-8.506	-9.610	-11.135	-9.908	-4.701	-8.045	-11.276	-10.605	-5.056	-2.046	2.789	11.776	17.302	9.219	13.002	187.500
-9.086	-9.255	-5.310	-8.823	-7.038	-4.621	0.199	9.372	13.758	4.839	11.404	9.834	-7.281	-8.781	-10.087	-11.610	-10.323	-5.065	-8.340	-11.717	-10.952	-5.177	-2.063	3.037	12.381	18.160	9.783	13.660	191.406
-9.420	-9.485	-5.590	-9.003	-7.184	-4.720	0.416	9.416	13.937	5.059	11.656	10.034	-7.376	-8.875	-10.445	-11.900	-10.553	-5.398	-8.462	-11.965	-11.097	-5.173	-2.046	3.284	12.777	18.750	10.245	14.108	195.312
-9.641	-9.626	-5.835	-9.080	-7.236	-4.779	0.664	9.321	13.917	5.278	11.771	10.098	-7.254	-8.791	-10.702	-12.038	-10.632	-5.704	-8.444	-12.060	-11.064	-5.065	-2.012	3.532	12.977	19.087	10.619	14.369	199.219
-9.777	-9.725	-6.059	-9.095	-7.208	-4.806	0.952	9.137	13.758	5.530	11.793	10.070	-6.904	-8.537	-10.877	-12.064	-10.606	-5.983	-8.329	-12.042	-10.887	-4.881	-1.979	3.781	13.000	19.189	10.916	14.466	203.125
-9.852	-9.814	-6.268	-9.081	-7.113	-4.804	1.285	8.914	13.519	5.839	11.758	9.983	-6.327	-8.123	-10.985	-12.014	-10.515	-6.231	-8.158	-11.952	-10.597	-4.645	-1.958	4.029	12.869	19.073	11.141	14.420	207.031
-9.883	-9.911	-6.462	-9.059	-6.959	-4.771	1.660	8.690	13.246	6.208	11.685	9.858	-5.539	-7.568	-11.034	-11.916	-10.393	-6.441	-7.965	-11.819	-10.223	-4.383	-1.960	4.269	12.608	18.757	11.291	14.244	210.938
-9.875	-10.015	-6.636	-9.038	-6.755	-4.704	2.066	8.490	12.968	6.621	11.581	9.701	-4.578	-6.897	-11.025	-11.790	-10.264	-6.602	-7.776	-11.663	-9.787	-4.113	-1.982	4.488	12.240	18.265	11.356	13.947	214.844
-9.827	-10.114	-6.783	-9.012	-6.508	-4.600	2.485	8.327	12.703	7.043	11.434	9.505	-3.499	-6.139	-10.955	-11.644	-10.135	-6.706	-7.601	-11.489	-9.304	-3.847	-2.019	4.670	11.788	17.623	11.321	13.536	218.750
-9.732	-10.186	-6.892	-8.970	-6.224	-4.458	2.891	8.201	12.451	7.430	11.228	9.254	-2.372	-5.328	-10.821	-11.477	-10.005	-6.747	-7.440	-11.292	-8.782	-3.591	-2.056	4.802	11.277	16.864	11.170	13.017	222.656
-9.586	-10.210	-6.954	-8.894	-5.910	-4.278	3.260	8.106	12.205	7.731	10.946	8.934	-1.274	-4.498	-10.625	-11.285	-9.864	-6.721	-7.284	-11.061	-8.227	-3.342	-2.077	4.871	10.731	16.028	10.891	12.400	226.562
-9.392	-10.171	-6.967	-8.773	-5.575	-4.069	3.570	8.032	11.955	7.904	10.577	8.534	-0.279	-3.682	-10.372	-11.062	-9.698	-6.633	-7.120	-10.786	-7.642	-3.096	-2.062	4.874	10.181	15.158	10.486	11.703	230.469
-9.161	-10.065	-6.931	-8.599	-5.229	-3.842	3.808	7.970	11.691	7.922	10.121	8.053	0.551	-2.909	-10.079	-10.804	-9.501	-6.489	-6.935	-10.460	-7.033	-2.846	-1.998	4.816	9.657	14.302	9.967	10.950	234.375
-8.913	-9.899	-6.855	-8.377	-4.884	-3.613	3.969	7.913	11.412	7.779	9.593	7.505	1.174	-2.199	-9.768	-10.518	-9.270	-6.302	-6.720	-10.083	-6.409	-2.589	-1.876	4.711	9.191	13.506	9.361	10.174	238.281
-8.674	-9.694	-6.754	-8.122	-4.550	-3.398	4.059	7.857	11.121	7.489	9.020	6.915	1.572	-1.569	-9.466	-10.213	-9.015	-6.085	-6.476	-9.669	-5.784	-2.322	-1.697	4.579	8.812	12.812	8.708	9.415	242.188
-8.473	-9.475	-6.646	-7.856	-4.238	-3.212	4.091	7.808	10.833	7.090	8.439	6.321	1.750	-1.027	-9.202	-9.909	-8.752	-5.856	-6.211	-9.238	-5.178	-2.050	-1.471	4.446	8.542	12.256	8.054	8.715	246.094
-8.335	-9.272	-6.551	-7.603	-3.956	-3.065	4.083	7.770	10.565	6.633	7.892	5.762	1.736	-0.576	-9.006	-9.627	-8.505	-5.635	-5.941	-8.817	-4.609	-1.780	-1.217	4.334	8.391	11.861	7.448	8.116	250.000
-8.276	-9.110	-6.485	-7.385	-3.711	-2.959	4.059	7.752	10.339	6.174	7.417	5.280	1.575	-0.211	-8.898	-9.390	-8.298	-5.440	-5.687	-8.436	-4.097	-1.521	-0.961	4.263	8.359	11.636	6.933	7.649	253.906
-8.305	-9.008	-6.460	-7.219	-3.504	-2.891	4.042	7.760	10.174	5.769	7.046	4.905	1.324	0.078	-8.893	-9.214	-8.153	-5.287	-5.469	-8.119	-3.654	-1.286	-0.729	4.246	8.430	11.574	6.542	7.333	257.812
-8.419	-8.978	-6.484	-7.115	-3.334	-2.851	4.051	7.796	10.081	5.464	6.799	4.662	1.046	0.308	-8.994	-9.114	-8.084	-5.190	-5.305	-7.883	-3.288	-1.081	-0.546	4.292	8.578	11.652	6.295	7.171	261.719
-8.609	-9.023	-6.561	-7.074	-3.197	-2.827	4.105	7.859	10.069	5.295	6.684	4.559	0.805	0.500	-9.191	-9.095	-8.097	-5.156	-5.204	-7.734	-2.996	-0.912	-0.427	4.399	8.770	11.833	6.195	7.152	265.625
-8.864	-9.138	-6.691	-7.090	-3.086	-2.809	4.217	7.944	10.137	5.278	6.700	4.597	0.657	0.682	-9.469	-9.154	-8.189	-5.189	-5.166	-7.670	-2.768	-0.774	-0.376	4.564	8.970	12.072	6.234	7.251	269.531
-9.171	-9.317	-6.874	-7.154	-2.995	-2.789	4.395	8.042	10.277	5.419	6.834	4.765	0.650	0.880	-9.804	-9.285	-8.350	-5.290	-5.181	-7.677	-2.587	-0.663	-0.386	4.779	9.142	12.324	6.396	7.440	273.438
-9.521	-9.549	-7.110	-7.253	-2.915	-2.768	4.644	8.143	10.480	5.708	7.072	5.048	0.819	1.120	-10.172	-9.474	-8.565	-5.456	-5.237	-7.737	-2.433	-0.566	-0.442	5.034	9.259	12.548	6.659	7.689	277.344
-9.905	-9.820	-7.399	-7.373	-2.840	-2.747	4.961	8.240	10.730	6.128	7.397	5.427	1.177	1.421	-10.554	-9.707	-8.819	-5.682	-5.317	-7.826	-2.286	-0.474	-0.526	5.319	9.304	12.715	6.999	7.974	281.250
-10.316	-10.114	-7.740	-7.501	-2.763	-2.735	5.339	8.323	11.009	6.652	7.791	5.882	1.724	1.795	-10.937	-9.967	-9.093	-5.960	-5.405	-7.923	-2.127	-0.377	-0.620	5.624	9.272	12.811	7.397	8.280	285.156
-10.748	-10.414	-8.128	-7.624	-2.678	-2.738	5.761	8.383	11.299	7.249	8.235	6.390	2.438	2.241	-11.318	-10.237	-9.374	-6.283	-5.490	-8.007	-1.945	-0.269	-0.712	5.943	9.170	12.839	7.834	8.599	289.062
-11.194	-10.705	-8.557	-7.736	-2.582	-2.764	6.209	8.414	11.580	7.883	8.709	6.929	3.285	2.751	-11.700	-10.503	-9.650	-6.637	-5.561	-8.066	-1.731	-0.147	-0.792	6.271	9.020	12.817	8.297	8.930	292.969
-11.646	-10.976	-9.018	-7.830	-2.473	-2.817	6.658	8.413	11.833	8.515	9.189	7.476	4.218	3.305	-12.095	-10.756	-9.913	-7.012	-5.616	-8.094	-1.488	-0.010	-0.858	6.604	8.853	12.773	8.775	9.277	296.875
-12.096	-11.218	-9.496	-7.908	-2.354	-2.893	7.084	8.378	12.043	9.109	9.650	8.007	5.186	3.882	-12.516	-10.989	-10.159	-7.391	-5.654	-8.094	-1.222	0.141	-0.908	6.943	8.705	12.742	9.260	9.642	300.781
-12.536	-11.433	-9.979	-7.971	-2.227	-2.990	7.464	8.313	12.197	9.631	10.066	8.497	6.134	4.453	-12.970	-11.203	-10.387	-7.758	-5.676	-8.073	-0.945	0.304	-0.943	7.286	8.614	12.756	9.742	10.022	304.688
-12.958	-11.620	-10.451	-8.024	-2.097	-3.098	7.780	8.224	12.289	10.056	10.410	8.924	7.013	4.996	-13.454	-11.399	-10.598	-8.093	-5.685	-8.044	-0.669	0.480	-0.958	7.632	8.606	12.839	10.208	10.406	308.594
-13.355	-11.784	-10.895	-8.069	-1.970	-3.207	8.021	8.117	12.316	10.365	10.660	9.265	7.782	5.489	-13.955	-11.579	-10.791	-8.380	-5.680	-8.018	-0.405	0.668	-0.945	7.977	8.700	13.000	10.645	10.775	312.500
-13.721	-11.922	-11.296	-8.108	-1.847	-3.309	8.180	7.999	12.280	10.551	10.802	9.500	8.409	5.917	-14.447	-11.742	-10.962	-8.599	-5.663	-8.001	-0.164	0.871	-0.894	8.313	8.892	13.232	11.035	11.106	316.406
-14.048	-12.032	-11.637	-8.137	-1.729	-3.396	8.261	7.875	12.186	10.616	10.829	9.618	8.873	6.270	-14.900	-11.883	-11.105	-8.741	-5.629	-7.994	0.052	1.087	-0.794	8.629	9.167	13.509	11.359	11.368	320.312
-14.330	-12.106	-11.903	-8.151	-1.617	-3.461	8.273	7.749	12.045	10.574	10.747	9.616	9.169	6.545	-15.281	-11.996	-11.209	-8.801	-5.575	-7.994	0.242	1.316	-0.639	8.912	9.491	13.797	11.601	11.537	324.219
-14.559	-12.134	-12.080	-8.141	-1.506	-3.498	8.229	7.624	11.869	10.448	10.576	9.504	9.302	6.743	-15.565	-12.071	-11.265	-8.786	-5.498	-7.990	0.408	1.553	-0.433	9.147	9.823	14.054	11.748	11.596	328.125
-14.731	-12.110	-12.162	-8.102	-1.394	-3.503	8.146	7.506	11.674	10.266	10.345	9.305	9.288	6.867	-15.736	-12.103	-11.269	-8.714	-5.396	-7.973	0.553	1.789	-0.188	9.325	10.121	14.244	11.798	11.542	332.031
-14.843	-12.034	-12.149	-8.030	-1.278	-3.471	8.043	7.401	11.478	10.063	10.094	9.054	9.152	6.926	-15.794	-12.090	-11.219	-8.606	-5.270	-7.934	0.677	2.012	0.076	9.436	10.349	14.336	11.754	11.387	335.938
-14.896	-11.910	-12.051	-7.925	-1.160	-3.402	7.935	7.318	11.298	9.866	9.864	8.793	8.924	6.925	-15.749	-12.033	-11.121	-8.488	-5.126	-7.867	0.781	2.209	0.332	9.476	10.483	14.315	11.632	11.157	339.844
-14.894	-11.749	-11.885	-7.792	-1.042	-3.296	7.835	7.263	11.149	9.702	9.691	8.567	8.635	6.872	-15.627	-11.939	-10.984	-8.379	-4.970	-7.772	0.861	2.367	0.554	9.448	10.511	14.184	11.450	10.888	343.750
-14.842	-11.567	-11.675	-7.640	-0.930	-3.159	7.750	7.242	11.040	9.583	9.601	8.408	8.313	6.773	-15.456	-11.814	-10.820	-8.289	-4.808	-7.651	0.916	2.477	0.720	9.358	10.438	13.954	11.231	10.617	347.656
-14.750	-11.377	-11.446	-7.476	-0.827	-2.996	7.682	7.254	10.974	9.512	9.601	8.337	7.982	6.634	-15.268	-11.663	-10.637	-8.216	-4.646	-7.506	0.945	2.534	0.820	9.215	10.278	13.651	10.994	10.376	351.562
-14.624	-11.190	-11.219	-7.304	-0.733	-2.815	7.626	7.296	10.947	9.479	9.675	8.349	7.658	6.465	-15.088	-11.488	-10.439	-8.147	-4.487	-7.338	0.951	2.540	0.854	9.031	10.057	13.303	10.754	10.179	355.469
-14.473	-11.007	-11.009	-7.125	-0.646	-2.621	7.578	7.358	10.947	9.463	9.789	8.415	7.353	6.273	-14.932	-11.286	-10.225	-8.066	-4.332	-7.146	0.944	2.504	0.836	8.817	9.803	12.934	10.515	10.025	359.375
-14.300	-10.821	-10.820	-6.930	-0.557	-2.421	7.528	7.426	10.958	9.436	9.891	8.482	7.070	6.071	-14.803	-11.048	-9.990	-7.956	-4.174	-6.927	0.935	2.440	0.784	8.586	9.543	12.568	10.274	9.891	363.281
-14.110	-10.616	-10.648	-6.709	-0.455	-2.215	7.472	7.490	10.963	9.370	9.925	8.490	6.811	5.869	-14.693	-10.768	-9.730	-7.807	-4.011	-6.676	0.938	2.361	0.721	8.345	9.301	12.219	10.021	9.745	367.188
-13.904	-10.373	-10.482	-6.448	-0.326	-2.003	7.406	7.538	10.945	9.245	9.840	8.377	6.574	5.679	-14.586	-10.439	-9.441	-7.617	-3.837	-6.391	0.965	2.280	0.662	8.101	9.088	11.896	9.745	9.551	371.094
-13.685	-10.077	-10.309	-6.141	-0.162	-1.785	7.331	7.567	10.895	9.049	9.605	8.104	6.358	5.511	-14.465	-10.064	-9.128	-7.395	-3.653	-6.073	1.024	2.205	0.617	7.857	8.908	11.600	9.436	9.280	375.000
-13.456	-9.722	-10.123	-5.789	0.038	-1.563	7.252	7.575	10.809	8.789	9.217	7.667	6.166	5.372	-14.313	-9.652	-8.800	-7.156	-3.464	-5.729	1.115	2.141	0.584	7.616	8.754	11.330	9.095	8.922	378.906
-13.224	-9.319	-9.925	-5.406	0.267	-1.343	7.178	7.564	10.690	8.485	8.704	7.099	6.003	5.268	-14.124	-9.220	-8.475	-6.922	-3.281	-5.375	1.232	2.087	0.559	7.381	8.614	11.085	8.731	8.490	382.812
-13.000	-8.893	-9.725	-5.019	0.507	-1.135	7.115	7.540	10.548	8.172	8.125	6.473	5.875	5.197	-13.897	-8.796	-8.173	-6.712	-3.115	-5.029	1.360	2.038	0.531	7.156	8.474	10.861	8.364	8.021	386.719
-12.793	-8.485	-9.540	-4.665	0.732	-0.956	7.069	7.506	10.391	7.885	7.550	5.883	5.790	5.156	-13.643	-8.406	-7.913	-6.541	-2.982	-4.715	1.483	1.992	0.492	6.947	8.324	10.661	8.023	7.569	390.625
-12.612	-8.138	-9.391	-4.385	0.915	-0.820	7.041	7.461	10.230	7.655	7.053	5.420	5.749	5.135	-13.374	-8.078	-7.710	-6.414	-2.891	-4.455	1.582	1.945	0.441	6.763	8.161	10.487	7.735	7.189	394.531
-12.457	-7.893	-9.289	-4.209	1.034	-0.741	7.025	7.405	10.067	7.498	6.686	5.153	5.745	5.122	-13.103	-7.831	-7.568	-6.325	-2.843	-4.266	1.642	1.898	0.383	6.608	7.992	10.343	7.520	6.925	398.438
-12.321	-7.774	-9.239	-4.157	1.075	-0.721	7.009	7.331	9.897	7.407	6.471	5.103	5.760	5.102	-12.838	-7.672	-7.479	-6.254	-2.833	-4.155	1.654	1.856	0.334	6.484	7.830	10.231	7.381	6.793	402.344
-12.189	-7.782	-9.229	-4.225	1.042	-0.753	6.974	7.236	9.712	7.357	6.392	5.239	5.769	5.060	-12.574	-7.592	-7.424	-6.172	-2.846	-4.119	1.614	1.826	0.315	6.388	7.690	10.144	7.302	6.778	406.250
-12.039	-7.890	-9.235	-4.384	0.950	-0.816	6.901	7.117	9.499	7.300	6.397	5.482	5.738	4.982	-12.299	-7.571	-7.375	-6.044	-2.860	-4.142	1.528	1.816	0.346	6.307	7.582	10.068	7.247	6.829	410.156
-11.843	-8.050	-9.221	-4.589	0.828	-0.880	6.770	6.975	9.246	7.186	6.413	5.720	5.630	4.857	-11.989	-7.575	-7.300	-5.837	-2.856	-4.201	1.407	1.833	0.446	6.221	7.507	9.980	7.167	6.876	414.062
-11.577	-8.202	-9.150	-4.782	0.709	-0.913	6.567	6.817	8.943	6.965	6.365	5.838	5.413	4.676	-11.620	-7.568	-7.171	-5.524	-2.815	-4.268	1.267	1.878	0.621	6.105	7.458	9.851	7.009	6.843	417.969
-11.222	-8.282	-8.987	-4.907	0.621	-0.886	6.282	6.653	8.590	6.603	6.188	5.746	5.067	4.434	-11.169	-7.517	-6.972	-5.094	-2.730	-4.316	1.121	1.948	0.866	5.932	7.414	9.652	6.725	6.667	421.875
-10.769	-8.238	-8.708	-4.922	0.588	-0.780	5.915	6.492	8.192	6.090	5.847	5.397	4.584	4.133	-10.623	-7.396	-6.697	-4.554	-2.600	-4.322	0.983	2.032	1.163	5.680	7.353	9.361	6.289	6.317	425.781
-10.225	-8.041	-8.309	-4.802	0.616	-0.593	5.474	6.343	7.760	5.439	5.341	4.799	3.977	3.778	-9.982	-7.193	-6.355	-3.930	-2.432	-4.275	0.860	2.116	1.487	5.337	7.251	8.968	5.697	5.795	429.688
-9.606	-7.686	-7.801	-4.550	0.701	-0.336	4.978	6.206	7.312	4.688	4.702	4.009	3.277	3.382	-9.264	-6.912	-5.965	-3.261	-2.242	-4.170	0.758	2.187	1.808	4.905	7.087	8.477	4.973	5.137	433.594
-8.942	-7.198	-7.216	-4.189	0.829	-0.033	4.453	6.080	6.867	3.891	3.990	3.123	2.529	2.964	-8.498	-6.567	-5.552	-2.596	-2.045	-4.011	0.676	2.231	2.097	4.399	6.854	7.910	4.165	4.408	437.500
-8.270	-6.625	-6.596	-3.760	0.980	0.283	3.933	5.958	6.442	3.113	3.277	2.249	1.788	2.549	-7.724	-6.184	-5.145	-1.986	-1.858	-3.810	0.614	2.241	2.331	3.849	6.551	7.300	3.336	3.681	441.406
-7.626	-6.026	-5.992	-3.311	1.136	0.580	3.456	5.831	6.056	2.420	2.637	1.492	1.114	2.163	-6.985	-5.793	-4.771	-1.474	-1.697	-3.585	0.571	2.214	2.494	3.296	6.191	6.688	2.556	3.027	445.312
-7.049	-5.466	-5.451	-2.890	1.281	0.828	3.060	5.695	5.721	1.868	2.134	0.930	0.560	1.834	-6.324	-5.425	-4.453	-1.099	-1.571	-3.355	0.544	2.154	2.576	2.784	5.796	6.117	1.894	2.504	449.219
-6.570	-5.003	-5.010	-2.539	1.405	1.007	2.776	5.546	5.446	1.501	1.808	0.609	0.173	1.587	-5.781	-5.108	-4.210	-0.884	-1.489	-3.141	0.534	2.066	2.576	2.357	5.394	5.627	1.407	2.151	453.125
-6.213	-4.684	-4.696	-2.283	1.507	1.108	2.627	5.384	5.236	1.343	1.680	0.539	-0.016	1.437	-5.386	-4.866	-4.053	-0.837	-1.453	-2.964	0.537	1.965	2.499	2.055	5.017	5.250	1.137	1.981	457.031
-5.993	-4.532	-4.521	-2.136	1.587	1.133	2.622	5.215	5.091	1.398	1.745	0.699	0.009	1.392	-5.157	-4.714	-3.988	-0.951	-1.459	-2.840	0.550	1.862	2.358	1.905	4.691	5.002	1.103	1.990	460.938
-5.912	-4.552	-4.481	-2.095	1.647	1.094	2.758	5.043	5.006	1.649	1.977	1.044	0.245	1.450	-5.097	-4.660	-4.013	-1.200	-1.502	-2.780	0.571	1.769	2.171	1.917	4.437	4.886	1.301	2.157	464.844
-5.961	-4.727	-4.561	-2.147	1.694	1.008	3.018	4.877	4.976	2.064	2.336	1.520	0.669	1.595	-5.196	-4.703	-4.117	-1.547	-1.575	-2.791	0.592	1.696	1.960	2.082	4.266	4.886	1.700	2.448	468.750
-6.118	-5.021	-4.733	-2.272	1.729	0.895	3.372	4.725	4.993	2.593	2.772	2.063	1.240	1.802	-5.425	-4.832	-4.283	-1.945	-1.670	-2.871	0.605	1.646	1.749	2.372	4.176	4.975	2.247	2.823	472.656
-6.348	-5.386	-4.964	-2.444	1.756	0.775	3.782	4.598	5.048	3.179	3.233	2.615	1.897	2.038	-5.741	-5.032	-4.491	-2.344	-1.780	-3.012	0.602	1.617	1.560	2.740	4.154	5.114	2.868	3.236	476.562
-6.611	-5.771	-5.215	-2.638	1.774	0.665	4.204	4.508	5.134	3.759	3.671	3.120	2.567	2.264	-6.091	-5.277	-4.714	-2.698	-1.898	-3.199	0.575	1.603	1.411	3.128	4.182	5.262	3.477	3.638	480.469
-6.861	-6.123	-5.445	-2.830	1.782	0.578	4.592	4.464	5.242	4.270	4.042	3.535	3.172	2.442	-6.418	-5.540	-4.927	-2.970	-2.016	-3.416	0.517	1.595	1.314	3.474	4.237	5.383	3.990	3.986	484.375
-7.055	-6.399	-5.619	-3.001	1.775	0.522	4.901	4.473	5.362	4.655	4.315	3.826	3.632	2.535	-6.664	-5.790	-5.107	-3.137	-2.126	-3.642	0.424	1.583	1.275	3.723	4.299	5.450	4.333	4.241	488.281
-7.160	-6.568	-5.709	-3.140	1.750	0.500	5.091	4.536	5.484	4.869	4.469	3.971	3.880	2.514	-6.787	-6.001	-5.234	-3.184	-2.222	-3.861	0.291	1.560	1.294	3.834	4.354	5.451	4.458	4.381	492.188
-7.155	-6.616	-5.700	-3.239	1.701	0.509	5.132	4.646	5.596	4.883	4.499	3.963	3.872	2.363	-6.759	-6.150	-5.295	-3.112	-2.295	-4.056	0.119	1.519	1.366	3.789	4.395	5.392	4.345	4.395	496.094
-7.037	-6.545	-5.586	-3.297	1.622	0.542	5.008	4.788	5.686	4.691	4.410	3.815	3.590	2.080	-6.575	-6.226	-5.284	-2.929	-2.340	-4.216	-0.088	1.461	1.482	3.592	4.420	5.289	4.011	4.294	500.000
-6.818	-6.374	-5.378	-3.319	1.510	0.589	4.719	4.938	5.740	4.309	4.223	3.551	3.050	1.680	-6.254	-6.225	-5.206	-2.654	-2.354	-4.333	-0.322	1.389	1.633	3.270	4.436	5.168	3.504	4.102	503.906
-6.526	-6.130	-5.097	-3.309	1.364	0.636	4.285	5.071	5.749	3.776	3.966	3.212	2.301	1.194	-5.834	-6.157	-5.070	-2.315	-2.334	-4.407	-0.573	1.314	1.813	2.867	4.448	5.058	2.895	3.859	507.812
-6.197	-5.850	-4.770	-3.277	1.185	0.672	3.738	5.161	5.703	3.148	3.672	2.849	1.419	0.664	-5.367	-6.040	-4.898	-1.942	-2.286	-4.440	-0.826	1.244	2.015	2.438	4.463	4.981	2.269	3.608	511.719
-5.866	-5.570	-4.428	-3.229	0.980	0.688	3.128	5.188	5.598	2.492	3.377	2.517	0.497	0.141	-4.909	-5.897	-4.712	-1.569	-2.219	-4.438	-1.066	1.189	2.230	2.036	4.486	4.951	1.711	3.392	515.625
-5.567	-5.322	-4.100	-3.174	0.759	0.680	2.511	5.140	5.437	1.875	3.113	2.261	-0.369	-0.326	-4.514	-5.755	-4.537	-1.228	-2.143	-4.411	-1.278	1.153	2.448	1.708	4.519	4.970	1.289	3.245	519.531
-5.324	-5.130	-3.807	-3.118	0.536	0.648	1.940	5.019	5.226	1.355	2.901	2.118	-1.095	-0.697	-4.221	-5.638	-4.397	-0.945	-2.076	-4.373	-1.452	1.137	2.655	1.484	4.560	5.029	1.048	3.187	523.438
-5.148	-5.006	-3.562	-3.067	0.325	0.598	1.462	4.837	4.979	0.971	2.755	2.100	-1.619	-0.949	-4.048	-5.564	-4.309	-0.735	-2.030	-4.339	-1.583	1.131	2.833	1.377	4.604	5.111	1.002	3.221	527.344
-5.040	-4.950	-3.367	-3.025	0.138	0.539	1.107	4.615	4.714	0.738	2.672	2.201	-1.915	-1.074	-3.989	-5.543	-4.280	-0.603	-2.016	-4.321	-1.675	1.126	2.967	1.379	4.646	5.196	1.135	3.334	531.250
-4.991	-4.954	-3.217	-2.998	-0.015	0.481	0.884	4.378	4.449	0.648	2.641	2.392	-1.991	-1.086	-4.018	-5.578	-4.305	-0.546	-2.039	-4.333	-1.735	1.111	3.044	1.470	4.685	5.267	1.404	3.500	535.156
-4.986	-5.003	-3.100	-2.990	-0.132	0.428	0.786	4.150	4.204	0.670	2.643	2.631	-1.885	-1.014	-4.093	-5.659	-4.373	-0.548	-2.095	-4.380	-1.775	1.077	3.059	1.617	4.718	5.314	1.750	3.688	539.062
-5.005	-5.078	-3.003	-3.004	-0.215	0.385	0.785	3.954	3.998	0.761	2.653	2.872	-1.659	-0.895	-4.169	-5.774	-4.462	-0.592	-2.176	-4.463	-1.810	1.021	3.017	1.784	4.750	5.333	2.109	3.861	542.969
-5.030	-5.162	-2.915	-3.041	-0.271	0.349	0.846	3.800	3.844	0.874	2.654	3.072	-1.383	-0.769	-4.210	-5.903	-4.549	-0.656	-2.267	-4.573	-1.850	0.947	2.934	1.938	4.784	5.328	2.421	3.993	546.875
-5.046	-5.238	-2.829	-3.101	-0.313	0.313	0.931	3.695	3.747	0.968	2.630	3.196	-1.123	-0.669	-4.192	-6.027	-4.614	-0.722	-2.351	-4.698	-1.902	0.860	2.831	2.053	4.824	5.307	2.644	4.062	550.781
-5.045	-5.299	-2.746	-3.180	-0.351	0.268	1.009	3.633	3.709	1.015	2.578	3.232	-0.931	-0.617	-4.112	-6.129	-4.642	-0.771	-2.414	-4.821	-1.968	0.770	2.733	2.117	4.873	5.283	2.757	4.063	554.688
-5.024	-5.341	-2.672	-3.273	-0.399	0.204	1.055	3.602	3.724	1.009	2.505	3.181	-0.831	-0.623	-3.986	-6.196	-4.627	-0.795	-2.448	-4.926	-2.042	0.689	2.662	2.130	4.934	5.270	2.767	4.005	558.594
-4.990	-5.366	-2.619	-3.375	-0.463	0.109	1.061	3.586	3.779	0.957	2.427	3.066	-0.825	-0.683	-3.846	-6.226	-4.574	-0.788	-2.450	-5.001	-2.120	0.623	2.633	2.104	5.008	5.280	2.699	3.908	562.500
-4.953	-5.378	-2.600	-3.483	-0.552	-0.025	1.030	3.569	3.860	0.883	2.364	2.920	-0.893	-0.783	-3.727	-6.222	-4.497	-0.755	-2.424	-5.041	-2.193	0.576	2.652	2.061	5.099	5.324	2.597	3.803	566.406
-4.928	-5.384	-2.629	-3.593	-0.667	-0.203	0.971	3.533	3.952	0.820	2.338	2.785	-0.999	-0.904	-3.665	-6.192	-4.412	-0.703	-2.382	-5.050	-2.259	0.550	2.715	2.030	5.211	5.408	2.508	3.721	570.312
-4.925	-5.389	-2.713	-3.703	-0.810	-0.424	0.900	3.468	4.040	0.795	2.368	2.696	-1.102	-1.025	-3.678	-6.151	-4.339	-0.643	-2.338	-5.039	-2.316	0.538	2.808	2.033	5.343	5.532	2.475	3.691	574.219
-4.948	-5.393	-2.855	-3.811	-0.976	-0.681	0.833	3.368	4.111	0.833	2.460	2.679	-1.167	-1.130	-3.769	-6.111	-4.293	-0.586	-2.307	-5.023	-2.367	0.533	2.909	2.085	5.496	5.690	2.524	3.730	578.125
-4.993	-5.394	-3.045	-3.914	-1.159	-0.964	0.781	3.232	4.153	0.940	2.613	2.746	-1.170	-1.207	-3.917	-6.080	-4.283	-0.540	-2.303	-5.015	-2.415	0.525	2.996	2.187	5.658	5.866	2.661	3.839	582.031
-5.042	-5.388	-3.266	-4.008	-1.349	-1.254	0.749	3.066	4.158	1.107	2.810	2.887	-1.103	-1.247	-4.084	-6.060	-4.308	-0.509	-2.334	-5.023	-2.460	0.506	3.045	2.328	5.817	6.041	2.871	4.006	585.938
-5.074	-5.366	-3.489	-4.088	-1.531	-1.532	0.736	2.876	4.121	1.312	3.021	3.076	-0.971	-1.250	-4.224	-6.044	-4.363	-0.493	-2.399	-5.046	-2.501	0.468	3.042	2.483	5.950	6.190	3.121	4.202	589.844
-5.063	-5.322	-3.682	-4.143	-1.692	-1.778	0.735	2.673	4.037	1.519	3.211	3.276	-0.796	-1.217	-4.290	-6.022	-4.430	-0.489	-2.492	-5.075	-2.530	0.410	2.979	2.623	6.031	6.286	3.366	4.392	593.750
-4.986	-5.245	-3.809	-4.165	-1.818	-1.971	0.733	2.466	3.906	1.687	3.343	3.442	-0.605	-1.151	-4.249	-5.976	-4.493	-0.490	-2.599	-5.093	-2.535	0.334	2.861	2.718	6.034	6.306	3.560	4.538	597.656
-4.828	-5.131	-3.843	-4.144	-1.897	-2.097	0.718	2.264	3.731	1.780	3.387	3.538	-0.428	-1.061	-4.083	-5.892	-4.529	-0.489	-2.703	-5.079	-2.506	0.248	2.699	2.742	5.939	6.235	3.666	4.611	601.562
-4.585	-4.975	-3.765	-4.071	-1.920	-2.147	0.678	2.072	3.518	1.773	3.324	3.534	-0.292	-0.955	-3.797	-5.755	-4.522	-0.482	-2.784	-5.016	-2.434	0.161	2.512	2.683	5.731	6.064	3.659	4.588	605.469
-4.260	-4.775	-3.570	-3.946	-1.889	-2.119	0.603	1.897	3.278	1.656	3.152	3.420	-0.217	-0.844	-3.413	-5.559	-4.458	-0.466	-2.825	-4.889	-2.316	0.085	2.320	2.537	5.410	5.798	3.534	4.465	609.375
-3.869	-4.535	-3.269	-3.769	-1.809	-2.018	0.487	1.742	3.026	1.435	2.886	3.206	-0.213	-0.740	-2.967	-5.307	-4.332	-0.441	-2.814	-4.697	-2.156	0.027	2.141	2.313	4.984	5.447	3.300	4.250	613.281
-3.432	-4.261	-2.884	-3.551	-1.691	-1.857	0.332	1.610	2.778	1.136	2.554	2.915	-0.284	-0.655	-2.500	-5.008	-4.146	-0.409	-2.746	-4.447	-1.967	-0.008	1.985	2.026	4.476	5.030	2.980	3.962	617.188
-2.970	-3.964	-2.447	-3.305	-1.552	-1.653	0.141	1.506	2.552	0.790	2.193	2.585	-0.421	-0.597	-2.055	-4.678	-3.912	-0.373	-2.629	-4.156	-1.766	-0.024	1.858	1.697	3.917	4.574	2.601	3.628	621.094
-2.508	-3.653	-1.991	-3.046	-1.409	-1.425	-0.075	1.431	2.362	0.437	1.841	2.254	-0.612	-0.574	-1.664	-4.335	-3.646	-0.332	-2.476	-3.846	-1.572	-0.029	1.756	1.347	3.342	4.103	2.193	3.277	625.000
-2.065	-3.344	-1.549	-2.792	-1.278	-1.196	-0.304	1.388	2.220	0.110	1.531	1.956	-0.840	-0.586	-1.347	-3.998	-3.367	-0.286	-2.303	-3.538	-1.399	-0.034	1.671	0.995	2.788	3.641	1.782	2.931	628.906
-1.658	-3.048	-1.145	-2.558	-1.173	-0.987	-0.531	1.374	2.131	-0.165	1.284	1.714	-1.087	-0.630	-1.109	-3.683	-3.094	-0.234	-2.129	-3.250	-1.259	-0.050	1.592	0.657	2.287	3.212	1.387	2.608	632.812
-1.299	-2.781	-0.798	-2.358	-1.104	-0.817	-0.744	1.386	2.094	-0.373	1.109	1.536	-1.332	-0.695	-0.943	-3.402	-2.843	-0.176	-1.970	-2.992	-1.152	-0.084	1.511	0.347	1.866	2.831	1.023	2.319	636.719
-0.997	-2.555	-0.518	-2.199	-1.075	-0.700	-0.930	1.413	2.101	-0.510	1.000	1.418	-1.558	-0.770	-0.831	-3.161	-2.623	-0.111	-1.832	-2.767	-1.075	-0.134	1.425	0.075	1.541	2.511	0.700	2.069	640.625
-0.758	-2.382	-0.311	-2.089	-1.089	-0.646	-1.084	1.442	2.136	-0.583	0.943	1.347	-1.747	-0.840	-0.753	-2.964	-2.439	-0.043	-1.717	-2.575	-1.017	-0.194	1.335	-0.144	1.321	2.263	0.430	1.860	644.531
-0.587	-2.271	-0.182	-2.030	-1.146	-0.662	-1.201	1.456	2.183	-0.602	0.918	1.307	-1.884	-0.889	-0.694	-2.809	-2.289	0.025	-1.619	-2.410	-0.968	-0.248	1.252	-0.299	1.211	2.093	0.225	1.695	648.438
-0.486	-2.231	-0.129	-2.024	-1.240	-0.745	-1.285	1.438	2.222	-0.582	0.903	1.283	-1.956	-0.906	-0.645	-2.698	-2.170	0.090	-1.529	-2.270	-0.918	-0.280	1.190	-0.375	1.208	2.009	0.097	1.578	652.344
-0.457	-2.263	-0.150	-2.070	-1.366	-0.890	-1.343	1.373	2.235	-0.538	0.882	1.265	-1.954	-0.882	-0.608	-2.629	-2.079	0.146	-1.440	-2.154	-0.864	-0.273	1.165	-0.360	1.307	2.014	0.058	1.514	656.250
-0.496	-2.366	-0.239	-2.165	-1.516	-1.082	-1.384	1.254	2.208	-0.481	0.843	1.251	-1.876	-0.815	-0.592	-2.603	-2.015	0.193	-1.348	-2.066	-0.805	-0.217	1.191	-0.246	1.496	2.109	0.118	1.509	660.156
-0.595	-2.529	-0.380	-2.303	-1.677	-1.304	-1.418	1.080	2.136	-0.423	0.782	1.244	-1.727	-0.709	-0.611	-2.619	-1.979	0.225	-1.256	-2.012	-0.748	-0.112	1.278	-0.035	1.762	2.289	0.279	1.563	664.062
-0.739	-2.735	-0.556	-2.472	-1.838	-1.532	-1.452	0.861	2.017	-0.370	0.702	1.248	-1.520	-0.576	-0.676	-2.677	-1.974	0.241	-1.172	-1.997	-0.701	0.035	1.424	0.260	2.082	2.543	0.528	1.675	667.969
-0.909	-2.957	-0.738	-2.654	-1.983	-1.741	-1.488	0.615	1.860	-0.329	0.609	1.264	-1.277	-0.431	-0.790	-2.770	-2.003	0.238	-1.105	-2.024	-0.673	0.203	1.619	0.614	2.432	2.846	0.845	1.831	671.875
-1.081	-3.164	-0.898	-2.826	-2.097	-1.905	-1.525	0.367	1.677	-0.303	0.512	1.291	-1.023	-0.292	-0.949	-2.887	-2.066	0.210	-1.068	-2.089	-0.670	0.368	1.840	0.988	2.778	3.167	1.193	2.012	675.781
-1.227	-3.323	-1.005	-2.964	-2.164	-2.001	-1.555	0.144	1.486	-0.294	0.419	1.321	-0.787	-0.175	-1.134	-3.011	-2.159	0.154	-1.069	-2.182	-0.690	0.504	2.057	1.342	3.085	3.466	1.530	2.189	679.688
-1.322	-3.402	-1.035	-3.041	-2.170	-2.013	-1.568	-0.030	1.305	-0.303	0.336	1.341	-0.593	-0.089	-1.323	-3.119	-2.274	0.070	-1.110	-2.284	-0.724	0.589	2.238	1.631	3.319	3.699	1.810	2.331	683.594
-1.345	-3.381	-0.970	-3.037	-2.104	-1.931	-1.555	-0.138	1.148	-0.328	0.265	1.333	-0.460	-0.038	-1.488	-3.189	-2.394	-0.042	-1.187	-2.372	-0.759	0.609	2.353	1.820	3.448	3.824	1.992	2.406	687.500
-1.282	-3.248	-0.804	-2.939	-1.963	-1.755	-1.507	-0.173	1.026	-0.367	0.201	1.283	-0.399	-0.015	-1.604	-3.195	-2.504	-0.175	-1.287	-2.419	-0.775	0.565	2.384	1.886	3.449	3.809	2.043	2.389	691.406
-1.127	-3.007	-0.544	-2.744	-1.749	-1.495	-1.423	-0.139	0.939	-0.417	0.139	1.178	-0.409	-0.010	-1.653	-3.120	-2.580	-0.320	-1.391	-2.402	-0.754	0.469	2.326	1.823	3.310	3.633	1.946	2.263	695.312
-0.885	-2.675	-0.212	-2.463	-1.475	-1.172	-1.307	-0.053	0.881	-0.475	0.069	1.015	-0.480	-0.007	-1.625	-2.952	-2.603	-0.463	-1.476	-2.304	-0.679	0.343	2.191	1.641	3.036	3.297	1.704	2.028	699.219
-0.571	-2.277	0.162	-2.117	-1.163	-0.814	-1.169	0.061	0.839	-0.539	-0.018	0.795	-0.594	0.010	-1.521	-2.692	-2.555	-0.587	-1.515	-2.117	-0.542	0.218	2.006	1.365	2.644	2.821	1.336	1.694	703.125
-0.207	-1.845	0.538	-1.735	-0.839	-0.456	-1.025	0.174	0.797	-0.608	-0.128	0.531	-0.728	0.054	-1.350	-2.349	-2.426	-0.678	-1.489	-1.844	-0.343	0.124	1.805	1.031	2.167	2.241	0.876	1.286	707.031
0.175	-1.413	0.878	-1.348	-0.531	-0.130	-0.889	0.260	0.737	-0.680	-0.264	0.240	-0.858	0.132	-1.134	-1.944	-2.213	-0.725	-1.385	-1.499	-0.088	0.086	1.622	0.680	1.646	1.609	0.370	0.836	710.938
0.542	-1.008	1.150	-0.985	-0.265	0.134	-0.778	0.296	0.648	-0.755	-0.423	-0.058	-0.961	0.246	-0.897	-1.503	-1.927	-0.722	-1.202	-1.104	0.207	0.118	1.483	0.351	1.127	0.979	-0.136	0.382	714.844
0.863	-0.652	1.331	-0.669	-0.059	0.317	-0.701	0.275	0.526	-0.831	-0.599	-0.342	-1.021	0.391	-0.669	-1.057	-1.588	-0.674	-0.950	-0.687	0.523	0.222	1.405	0.075	0.652	0.404	-0.597	-0.045	718.750
1.111	-0.358	1.414	-0.414	0.077	0.412	-0.664	0.197	0.374	-0.904	-0.781	-0.596	-1.030	0.561	-0.475	-0.637	-1.223	-0.592	-0.652	-0.277	0.839	0.391	1.390	-0.126	0.256	-0.074	-0.978	-0.417	722.656
1.271	-0.130	1.407	-0.222	0.145	0.425	-0.665	0.075	0.201	-0.971	-0.958	-0.807	-0.986	0.745	-0.335	-0.270	-0.867	-0.495	-0.338	0.098	1.134	0.601	1.425	-0.243	-0.037	-0.428	-1.257	-0.715	726.562
1.336	0.033	1.327	-0.093	0.155	0.370	-0.697	-0.068	0.022	-1.026	-1.118	-0.966	-0.896	0.930	-0.256	0.023	-0.554	-0.401	-0.041	0.413	1.391	0.828	1.490	-0.279	-0.217	-0.648	-1.428	-0.929	730.469
1.312	0.136	1.200	-0.018	0.121	0.270	-0.748	-0.211	-0.145	-1.065	-1.251	-1.067	-0.769	1.105	-0.238	0.227	-0.311	-0.329	0.208	0.651	1.594	1.044	1.562	-0.245	-0.288	-0.738	-1.495	-1.058	734.375
1.215	0.185	1.052	0.012	0.064	0.150	-0.804	-0.329	-0.285	-1.081	-1.349	-1.111	-0.619	1.261	-0.268	0.337	-0.155	-0.292	0.387	0.803	1.736	1.226	1.617	-0.159	-0.269	-0.717	-1.477	-1.108	738.281
1.068	0.188	0.906	0.011	0.001	0.033	-0.849	-0.407	-0.388	-1.073	-1.407	-1.100	-0.459	1.391	-0.327	0.360	-0.092	-0.296	0.488	0.868	1.813	1.361	1.644	-0.042	-0.185	-0.616	-1.396	-1.091	742.188
0.899	0.153	0.778	-0.012	-0.053	-0.064	-0.872	-0.437	-0.447	-1.038	-1.427	-1.040	-0.302	1.492	-0.395	0.308	-0.113	-0.340	0.514	0.856	1.830	1.444	1.639	0.089	-0.070	-0.469	-1.281	-1.025	746.094
0.733	0.090	0.674	-0.045	-0.089	-0.129	-0.863	-0.420	-0.465	-0.977	-1.411	-0.941	-0.155	1.565	-0.456	0.204	-0.199	-0.415	0.479	0.785	1.798	1.481	1.609	0.215	0.043	-0.310	-1.156	-0.931	750.000
0.591	0.009	0.593	-0.078	-0.103	-0.160	-0.817	-0.365	-0.450	-0.895	-1.367	-0.813	-0.024	1.618	-0.497	0.070	-0.326	-0.510	0.406	0.678	1.735	1.483	1.566	0.327	0.125	-0.172	-1.041	-0.829	753.906
0.482	-0.078	0.527	-0.104	-0.094	-0.162	-0.736	-0.288	-0.413	-0.796	-1.302	-0.671	0.091	1.661	-0.517	-0.069	-0.467	-0.610	0.318	0.560	1.660	1.467	1.524	0.418	0.157	-0.077	-0.946	-0.739	757.812
0.410	-0.164	0.466	-0.119	-0.068	-0.143	-0.624	-0.204	-0.367	-0.685	-1.226	-0.525	0.194	1.705	-0.521	-0.192	-0.600	-0.707	0.236	0.452	1.592	1.445	1.495	0.488	0.132	-0.038	-0.876	-0.671	761.719
0.369	-0.239	0.400	-0.121	-0.033	-0.115	-0.492	-0.130	-0.325	-0.568	-1.146	-0.389	0.292	1.761	-0.517	-0.287	-0.706	-0.795	0.175	0.370	1.548	1.429	1.482	0.540	0.058	-0.053	-0.824	-0.631	765.625
0.347	-0.299	0.322	-0.116	0.005	-0.089	-0.351	-0.080	-0.297	-0.451	-1.071	-0.271	0.393	1.837	-0.518	-0.346	-0.776	-0.875	0.140	0.320	1.538	1.425	1.482	0.582	-0.046	-0.111	-0.778	-0.614	769.531
0.333	-0.344	0.227	-0.110	0.035	-0.074	-0.212	-0.062	-0.290	-0.335	-1.006	-0.177	0.503	1.933	-0.536	-0.370	-0.807	-0.951	0.131	0.302	1.564	1.431	1.484	0.621	-0.155	-0.193	-0.723	-0.607	773.438
0.316	-0.375	0.116	-0.116	0.049	-0.075	-0.086	-0.081	-0.309	-0.222	-0.955	-0.108	0.627	2.046	-0.579	-0.366	-0.802	-1.035	0.138	0.306	1.618	1.443	1.471	0.664	-0.238	-0.275	-0.645	-0.593	777.344
0.293	-0.398	-0.008	-0.141	0.041	-0.094	0.021	-0.136	-0.355	-0.110	-0.919	-0.061	0.769	2.169	-0.649	-0.346	-0.768	-1.133	0.151	0.320	1.690	1.452	1.429	0.716	-0.271	-0.334	-0.531	-0.556	781.250
0.261	-0.417	-0.141	-0.195	0.009	-0.129	0.108	-0.222	-0.423	0.004	-0.897	-0.030	0.927	2.291	-0.747	-0.319	-0.713	-1.254	0.159	0.332	1.766	1.450	1.345	0.780	-0.240	-0.357	-0.375	-0.483	785.156
0.221	-0.437	-0.280	-0.277	-0.048	-0.175	0.177	-0.330	-0.510	0.122	-0.886	-0.010	1.098	2.408	-0.867	-0.295	-0.647	-1.399	0.156	0.332	1.836	1.431	1.217	0.854	-0.144	-0.338	-0.181	-0.371	789.062
0.178	-0.461	-0.421	-0.384	-0.122	-0.228	0.233	-0.452	-0.609	0.245	-0.880	0.006	1.280	2.514	-1.001	-0.278	-0.579	-1.565	0.139	0.318	1.893	1.394	1.051	0.938	0.006	-0.283	0.045	-0.224	792.969
0.130	-0.489	-0.562	-0.505	-0.207	-0.283	0.284	-0.578	-0.711	0.373	-0.876	0.024	1.467	2.614	-1.142	-0.271	-0.514	-1.745	0.109	0.290	1.939	1.346	0.862	1.027	0.187	-0.204	0.290	-0.055	796.875
