FP1	F3	F7	FC3	C3	C5	P3	P7	PO7	PO3	O1	Oz	Pz	CPz	FP2	Fz	F4	F8	FC4	FCz	Cz	C4	C6	P4	P8	PO8	PO4	O2	time
-2.970	-1.781	-1.712	-1.152	-0.489	0.172	1.244	0.991	1.039	1.211	0.830	1.053	0.613	-1.175	-2.347	-2.221	-2.031	0.341	-1.861	-2.281	-2.186	0.116	1.043	1.697	3.685	3.207	1.976	2.335	-199.219
-2.761	-1.818	-1.398	-1.242	-0.568	0.133	0.962	1.068	1.189	1.054	0.949	1.037	0.339	-1.254	-2.441	-2.183	-2.079	0.378	-1.940	-2.218	-2.133	-0.107	0.951	1.502	3.669	3.195	1.858	2.244	-195.312
-2.544	-1.834	-1.111	-1.316	-0.641	0.093	0.678	1.123	1.301	0.883	1.033	1.005	0.076	-1.310	-2.507	-2.121	-2.093	0.403	-1.986	-2.136	-2.065	-0.300	0.869	1.307	3.635	3.164	1.728	2.134	-191.406
-2.311	-1.814	-0.869	-1.354	-0.699	0.050	0.390	1.137	1.343	0.685	1.054	0.944	-0.170	-1.329	-2.520	-2.016	-2.045	0.417	-1.973	-2.020	-1.968	-0.445	0.795	1.108	3.565	3.092	1.571	1.991	-187.500
-2.056	-1.743	-0.676	-1.343	-0.735	0.005	0.095	1.094	1.292	0.451	0.989	0.840	-0.394	-1.301	-2.457	-1.853	-1.916	0.426	-1.880	-1.860	-1.834	-0.529	0.728	0.899	3.438	2.959	1.379	1.802	-183.594
-1.773	-1.614	-0.527	-1.277	-0.745	-0.042	-0.205	0.987	1.138	0.177	0.831	0.689	-0.596	-1.221	-2.306	-1.623	-1.695	0.439	-1.699	-1.648	-1.658	-0.551	0.661	0.677	3.240	2.756	1.146	1.567	-179.688
-1.462	-1.426	-0.402	-1.151	-0.726	-0.085	-0.508	0.817	0.887	-0.131	0.586	0.490	-0.774	-1.096	-2.064	-1.330	-1.386	0.465	-1.429	-1.386	-1.437	-0.519	0.584	0.437	2.960	2.478	0.873	1.287	-175.781
-1.124	-1.182	-0.277	-0.968	-0.675	-0.119	-0.803	0.596	0.560	-0.463	0.275	0.250	-0.935	-0.938	-1.735	-0.981	-1.005	0.515	-1.086	-1.079	-1.178	-0.450	0.484	0.174	2.590	2.123	0.562	0.971	-171.875
-0.766	-0.890	-0.125	-0.733	-0.589	-0.136	-1.079	0.347	0.192	-0.798	-0.072	-0.018	-1.082	-0.768	-1.336	-0.594	-0.579	0.599	-0.698	-0.739	-0.889	-0.370	0.348	-0.117	2.126	1.696	0.215	0.630	-167.969
-0.395	-0.560	0.073	-0.457	-0.466	-0.127	-1.318	0.098	-0.170	-1.112	-0.417	-0.297	-1.224	-0.608	-0.889	-0.191	-0.141	0.721	-0.299	-0.380	-0.583	-0.302	0.163	-0.442	1.569	1.204	-0.164	0.275	-164.062
-0.021	-0.203	0.331	-0.149	-0.306	-0.084	-1.502	-0.119	-0.484	-1.380	-0.722	-0.570	-1.366	-0.477	-0.418	0.206	0.274	0.882	0.074	-0.018	-0.274	-0.269	-0.079	-0.804	0.924	0.657	-0.576	-0.086	-160.156
0.345	0.166	0.647	0.177	-0.110	-0.002	-1.614	-0.277	-0.712	-1.581	-0.956	-0.819	-1.511	-0.390	0.053	0.577	0.637	1.075	0.388	0.332	0.026	-0.285	-0.374	-1.202	0.204	0.065	-1.017	-0.446	-156.250
0.692	0.537	1.008	0.507	0.117	0.119	-1.644	-0.360	-0.832	-1.701	-1.102	-1.030	-1.656	-0.348	0.505	0.909	0.925	1.287	0.624	0.659	0.310	-0.350	-0.712	-1.626	-0.570	-0.556	-1.481	-0.804	-152.344
1.011	0.898	1.388	0.828	0.367	0.277	-1.589	-0.364	-0.845	-1.735	-1.155	-1.195	-1.792	-0.342	0.923	1.194	1.130	1.494	0.778	0.955	0.576	-0.450	-1.067	-2.057	-1.370	-1.190	-1.955	-1.156	-148.438
1.298	1.238	1.754	1.125	0.624	0.459	-1.456	-0.303	-0.768	-1.691	-1.126	-1.310	-1.908	-0.352	1.296	1.433	1.256	1.670	0.858	1.219	0.825	-0.562	-1.407	-2.466	-2.159	-1.816	-2.418	-1.501	-144.531
1.548	1.546	2.069	1.382	0.873	0.651	-1.264	-0.202	-0.637	-1.586	-1.038	-1.374	-1.985	-0.356	1.616	1.630	1.315	1.791	0.889	1.450	1.059	-0.651	-1.691	-2.816	-2.895	-2.408	-2.842	-1.829	-140.625
1.759	1.808	2.296	1.587	1.097	0.833	-1.036	-0.093	-0.495	-1.442	-0.922	-1.394	-2.010	-0.331	1.876	1.790	1.327	1.839	0.895	1.646	1.282	-0.686	-1.882	-3.067	-3.530	-2.936	-3.194	-2.129	-136.719
1.927	2.010	2.406	1.725	1.277	0.987	-0.798	-0.011	-0.387	-1.284	-0.809	-1.374	-1.969	-0.263	2.065	1.914	1.311	1.806	0.903	1.806	1.488	-0.641	-1.946	-3.185	-4.018	-3.366	-3.435	-2.379	-132.812
2.045	2.133	2.377	1.789	1.403	1.097	-0.572	0.017	-0.342	-1.130	-0.724	-1.321	-1.856	-0.149	2.172	2.000	1.283	1.693	0.928	1.920	1.668	-0.503	-1.861	-3.141	-4.317	-3.662	-3.532	-2.556	-128.906
2.099	2.161	2.200	1.771	1.465	1.151	-0.375	-0.021	-0.373	-0.993	-0.679	-1.237	-1.671	0.000	2.185	2.036	1.248	1.509	0.975	1.977	1.806	-0.275	-1.623	-2.924	-4.393	-3.791	-3.458	-2.630	-125.000
2.073	2.077	1.880	1.670	1.459	1.146	-0.211	-0.123	-0.472	-0.873	-0.671	-1.120	-1.421	0.166	2.091	2.007	1.202	1.268	1.033	1.961	1.880	0.025	-1.242	-2.538	-4.226	-3.726	-3.195	-2.577	-121.094
1.948	1.876	1.436	1.488	1.388	1.083	-0.077	-0.270	-0.607	-0.760	-0.684	-0.964	-1.118	0.325	1.884	1.891	1.129	0.982	1.082	1.855	1.869	0.366	-0.749	-2.002	-3.814	-3.451	-2.746	-2.377	-117.188
1.712	1.557	0.897	1.232	1.257	0.969	0.041	-0.430	-0.738	-0.638	-0.690	-0.763	-0.778	0.455	1.565	1.672	1.010	0.662	1.093	1.645	1.758	0.707	-0.187	-1.350	-3.175	-2.970	-2.125	-2.027	-113.281
1.360	1.135	0.303	0.915	1.075	0.814	0.161	-0.566	-0.816	-0.487	-0.657	-0.514	-0.414	0.541	1.147	1.337	0.821	0.316	1.040	1.327	1.541	1.005	0.391	-0.624	-2.346	-2.302	-1.369	-1.536	-109.375
0.901	0.634	-0.305	0.552	0.857	0.631	0.302	-0.644	-0.804	-0.292	-0.557	-0.219	-0.040	0.579	0.652	0.888	0.547	-0.048	0.900	0.907	1.223	1.223	0.929	0.129	-1.386	-1.490	-0.526	-0.933	-105.469
0.358	0.089	-0.884	0.164	0.618	0.433	0.479	-0.634	-0.675	-0.039	-0.372	0.114	0.335	0.573	0.109	0.341	0.182	-0.422	0.663	0.404	0.824	1.334	1.379	0.863	-0.365	-0.592	0.347	-0.258	-101.562
-0.236	-0.461	-1.397	-0.230	0.373	0.231	0.696	-0.525	-0.424	0.273	-0.096	0.467	0.701	0.535	-0.443	-0.274	-0.265	-0.795	0.333	-0.149	0.377	1.326	1.702	1.537	0.639	0.326	1.191	0.439	-97.656
-0.835	-0.975	-1.814	-0.608	0.137	0.029	0.949	-0.320	-0.067	0.636	0.259	0.821	1.053	0.483	-0.967	-0.910	-0.768	-1.151	-0.068	-0.708	-0.078	1.203	1.876	2.116	1.552	1.194	1.950	1.108	-93.750
-1.393	-1.417	-2.114	-0.949	-0.078	-0.169	1.222	-0.042	0.362	1.030	0.671	1.153	1.381	0.435	-1.428	-1.516	-1.289	-1.472	-0.506	-1.226	-0.497	0.984	1.896	2.575	2.308	1.947	2.579	1.700	-89.844
-1.863	-1.759	-2.292	-1.235	-0.265	-0.363	1.487	0.274	0.815	1.429	1.103	1.443	1.679	0.404	-1.798	-2.038	-1.775	-1.738	-0.938	-1.655	-0.839	0.699	1.774	2.896	2.859	2.535	3.048	2.178	-85.938
-2.207	-1.982	-2.353	-1.454	-0.419	-0.550	1.714	0.587	1.240	1.799	1.515	1.675	1.933	0.402	-2.057	-2.425	-2.174	-1.931	-1.312	-1.955	-1.074	0.386	1.536	3.074	3.179	2.925	3.340	2.518	-82.031
-2.400	-2.080	-2.314	-1.595	-0.539	-0.730	1.873	0.851	1.588	2.104	1.864	1.837	2.135	0.429	-2.198	-2.641	-2.436	-2.040	-1.584	-2.101	-1.184	0.081	1.216	3.110	3.264	3.104	3.455	2.709	-78.125
-2.433	-2.057	-2.200	-1.654	-0.627	-0.896	1.939	1.030	1.816	2.313	2.111	1.924	2.273	0.484	-2.220	-2.668	-2.522	-2.060	-1.716	-2.084	-1.167	-0.182	0.853	3.016	3.132	3.079	3.405	2.751	-74.219
-2.313	-1.922	-2.035	-1.629	-0.686	-1.039	1.898	1.097	1.900	2.400	2.225	1.934	2.342	0.559	-2.130	-2.508	-2.414	-1.999	-1.689	-1.914	-1.040	-0.379	0.486	2.808	2.818	2.874	3.214	2.657	-70.312
-2.059	-1.694	-1.841	-1.526	-0.720	-1.149	1.750	1.041	1.831	2.353	2.189	1.868	2.339	0.644	-1.938	-2.184	-2.120	-1.870	-1.506	-1.617	-0.828	-0.496	0.148	2.512	2.371	2.526	2.910	2.446	-66.406
-1.702	-1.395	-1.628	-1.352	-0.733	-1.216	1.506	0.870	1.619	2.172	1.999	1.730	2.268	0.728	-1.656	-1.734	-1.668	-1.692	-1.188	-1.232	-0.568	-0.533	-0.138	2.154	1.841	2.078	2.525	2.141	-62.500
-1.275	-1.046	-1.402	-1.121	-0.726	-1.231	1.188	0.604	1.289	1.873	1.669	1.524	2.138	0.799	-1.297	-1.207	-1.107	-1.484	-0.777	-0.801	-0.294	-0.500	-0.357	1.761	1.278	1.571	2.091	1.767	-58.594
-0.810	-0.673	-1.157	-0.847	-0.703	-1.192	0.828	0.276	0.878	1.483	1.227	1.259	1.960	0.848	-0.874	-0.655	-0.497	-1.263	-0.321	-0.368	-0.040	-0.417	-0.507	1.358	0.723	1.045	1.634	1.348	-54.688
-0.337	-0.297	-0.888	-0.550	-0.665	-1.103	0.458	-0.076	0.426	1.041	0.715	0.944	1.744	0.865	-0.405	-0.126	0.104	-1.042	0.126	0.031	0.171	-0.306	-0.594	0.963	0.206	0.529	1.174	0.903	-50.781
0.121	0.060	-0.590	-0.248	-0.614	-0.970	0.109	-0.413	-0.022	0.588	0.186	0.598	1.501	0.846	0.090	0.344	0.642	-0.830	0.522	0.372	0.324	-0.189	-0.630	0.588	-0.257	0.045	0.727	0.453	-46.875
0.545	0.384	-0.265	0.044	-0.552	-0.807	-0.191	-0.700	-0.427	0.167	-0.310	0.239	1.240	0.787	0.585	0.729	1.083	-0.634	0.835	0.640	0.416	-0.086	-0.631	0.240	-0.662	-0.395	0.300	0.013	-42.969
0.920	0.665	0.079	0.311	-0.481	-0.625	-0.426	-0.913	-0.759	-0.191	-0.723	-0.109	0.968	0.693	1.053	1.020	1.408	-0.458	1.052	0.836	0.454	-0.006	-0.610	-0.080	-1.013	-0.788	-0.098	-0.403	-39.062
1.235	0.897	0.423	0.545	-0.400	-0.439	-0.588	-1.039	-1.000	-0.461	-1.022	-0.426	0.692	0.572	1.468	1.220	1.619	-0.306	1.177	0.966	0.453	0.050	-0.578	-0.370	-1.317	-1.135	-0.465	-0.785	-35.156
1.482	1.083	0.748	0.741	-0.310	-0.258	-0.676	-1.080	-1.150	-0.637	-1.193	-0.699	0.417	0.438	1.806	1.341	1.734	-0.182	1.226	1.046	0.433	0.090	-0.536	-0.630	-1.582	-1.439	-0.793	-1.125	-31.250
1.664	1.225	1.032	0.898	-0.210	-0.091	-0.703	-1.048	-1.221	-0.727	-1.246	-0.922	0.150	0.309	2.055	1.402	1.777	-0.083	1.225	1.094	0.413	0.126	-0.481	-0.856	-1.810	-1.706	-1.078	-1.419	-27.344
1.787	1.330	1.260	1.016	-0.099	0.057	-0.685	-0.966	-1.239	-0.751	-1.216	-1.101	-0.103	0.199	2.213	1.426	1.779	-0.004	1.202	1.124	0.409	0.172	-0.405	-1.042	-2.001	-1.936	-1.312	-1.667	-23.438
1.866	1.404	1.425	1.101	0.023	0.186	-0.645	-0.861	-1.238	-0.740	-1.149	-1.250	-0.338	0.116	2.292	1.426	1.762	0.066	1.178	1.147	0.428	0.235	-0.300	-1.182	-2.146	-2.127	-1.488	-1.869	-19.531
1.920	1.452	1.532	1.155	0.153	0.298	-0.603	-0.759	-1.254	-0.724	-1.098	-1.387	-0.552	0.060	2.314	1.413	1.743	0.140	1.164	1.163	0.463	0.314	-0.162	-1.270	-2.233	-2.267	-1.599	-2.028	-15.625
1.966	1.477	1.589	1.183	0.286	0.397	-0.576	-0.679	-1.313	-0.732	-1.108	-1.526	-0.746	0.020	2.303	1.385	1.722	0.227	1.158	1.166	0.500	0.397	0.008	-1.301	-2.246	-2.343	-1.640	-2.142	-11.719
2.018	1.481	1.608	1.188	0.411	0.487	-0.574	-0.632	-1.428	-0.778	-1.207	-1.673	-0.919	-0.019	2.281	1.335	1.693	0.328	1.148	1.139	0.515	0.466	0.196	-1.276	-2.168	-2.332	-1.604	-2.205	-7.812
2.078	1.464	1.599	1.172	0.519	0.571	-0.597	-0.616	-1.595	-0.866	-1.396	-1.823	-1.072	-0.075	2.260	1.251	1.638	0.437	1.112	1.067	0.482	0.501	0.384	-1.196	-1.987	-2.213	-1.491	-2.207	-3.906
2.144	1.425	1.567	1.137	0.596	0.647	-0.635	-0.622	-1.795	-0.981	-1.655	-1.961	-1.202	-0.161	2.238	1.121	1.540	0.535	1.030	0.934	0.385	0.480	0.547	-1.068	-1.695	-1.970	-1.299	-2.135	0.000
2.202	1.361	1.515	1.081	0.633	0.711	-0.674	-0.636	-1.997	-1.101	-1.943	-2.061	-1.305	-0.281	2.202	0.940	1.382	0.602	0.884	0.735	0.214	0.392	0.658	-0.901	-1.297	-1.593	-1.037	-1.977	3.906
2.238	1.272	1.444	1.007	0.624	0.757	-0.697	-0.640	-2.165	-1.198	-2.207	-2.099	-1.374	-0.428	2.133	0.708	1.158	0.619	0.671	0.472	-0.023	0.235	0.695	-0.709	-0.810	-1.092	-0.717	-1.730	7.812
2.240	1.159	1.355	0.917	0.572	0.775	-0.690	-0.620	-2.266	-1.248	-2.398	-2.054	-1.403	-0.584	2.011	0.437	0.873	0.573	0.396	0.163	-0.306	0.017	0.646	-0.505	-0.266	-0.491	-0.360	-1.400	11.719
2.202	1.025	1.251	0.817	0.483	0.760	-0.641	-0.570	-2.278	-1.232	-2.474	-1.918	-1.385	-0.726	1.827	0.149	0.545	0.463	0.080	-0.165	-0.605	-0.245	0.507	-0.306	0.288	0.162	0.008	-1.009	15.625
2.129	0.880	1.136	0.717	0.372	0.711	-0.548	-0.485	-2.192	-1.143	-2.412	-1.696	-1.319	-0.831	1.584	-0.131	0.201	0.297	-0.250	-0.479	-0.884	-0.528	0.289	-0.130	0.799	0.806	0.354	-0.592	19.531
2.027	0.737	1.014	0.630	0.257	0.632	-0.414	-0.369	-2.013	-0.985	-2.212	-1.409	-1.203	-0.876	1.298	-0.376	-0.124	0.096	-0.564	-0.745	-1.109	-0.807	0.012	0.007	1.212	1.374	0.645	-0.193	23.438
1.910	0.616	0.891	0.570	0.160	0.536	-0.250	-0.231	-1.760	-0.772	-1.896	-1.090	-1.041	-0.848	0.999	-0.560	-0.400	-0.118	-0.835	-0.932	-1.253	-1.061	-0.297	0.093	1.478	1.799	0.851	0.136	27.344
1.790	0.533	0.773	0.553	0.101	0.440	-0.070	-0.080	-1.462	-0.525	-1.510	-0.783	-0.839	-0.746	0.724	-0.663	-0.597	-0.317	-1.041	-1.020	-1.298	-1.272	-0.609	0.117	1.565	2.026	0.949	0.347	31.250
1.682	0.507	0.668	0.587	0.096	0.363	0.109	0.071	-1.153	-0.270	-1.113	-0.538	-0.610	-0.577	0.512	-0.676	-0.699	-0.479	-1.166	-0.997	-1.240	-1.428	-0.896	0.078	1.460	2.021	0.923	0.397	35.156
1.599	0.547	0.589	0.676	0.151	0.324	0.268	0.213	-0.869	-0.038	-0.776	-0.404	-0.369	-0.357	0.397	-0.597	-0.700	-0.582	-1.204	-0.866	-1.090	-1.523	-1.136	-0.025	1.176	1.774	0.767	0.256	39.062
1.555	0.659	0.550	0.819	0.263	0.334	0.392	0.340	-0.637	0.144	-0.564	-0.421	-0.140	-0.114	0.402	-0.432	-0.602	-0.612	-1.155	-0.642	-0.868	-1.556	-1.313	-0.190	0.744	1.301	0.480	-0.089	42.969
1.562	0.836	0.562	1.007	0.418	0.401	0.464	0.450	-0.476	0.247	-0.527	-0.618	0.050	0.124	0.530	-0.198	-0.421	-0.560	-1.023	-0.349	-0.601	-1.532	-1.422	-0.412	0.215	0.643	0.072	-0.636	46.875
1.626	1.063	0.633	1.226	0.595	0.524	0.474	0.549	-0.388	0.252	-0.692	-1.002	0.169	0.323	0.764	0.083	-0.178	-0.424	-0.821	-0.019	-0.323	-1.459	-1.461	-0.689	-0.349	-0.136	-0.446	-1.357	50.781
1.746	1.317	0.765	1.455	0.769	0.693	0.417	0.650	-0.358	0.149	-1.050	-1.551	0.187	0.450	1.064	0.382	0.098	-0.214	-0.567	0.311	-0.070	-1.350	-1.438	-1.016	-0.883	-0.959	-1.051	-2.204	54.688
1.908	1.567	0.946	1.670	0.911	0.893	0.295	0.771	-0.357	-0.055	-1.556	-2.220	0.078	0.477	1.377	0.664	0.373	0.046	-0.289	0.601	0.126	-1.222	-1.364	-1.388	-1.323	-1.737	-1.714	-3.104	58.594
2.086	1.777	1.158	1.844	0.998	1.101	0.118	0.932	-0.340	-0.339	-2.130	-2.934	-0.170	0.384	1.641	0.893	0.608	0.321	-0.019	0.810	0.235	-1.093	-1.252	-1.792	-1.617	-2.380	-2.392	-3.968	62.500
2.243	1.910	1.376	1.949	1.010	1.292	-0.096	1.150	-0.257	-0.666	-2.672	-3.601	-0.552	0.159	1.797	1.029	0.764	0.568	0.201	0.902	0.232	-0.985	-1.121	-2.209	-1.723	-2.804	-3.031	-4.698	66.406
2.335	1.933	1.572	1.956	0.932	1.440	-0.323	1.443	-0.057	-0.984	-3.073	-4.121	-1.050	-0.200	1.798	1.038	0.802	0.739	0.333	0.848	0.100	-0.917	-0.987	-2.611	-1.620	-2.940	-3.572	-5.202	70.312
2.322	1.822	1.716	1.845	0.755	1.522	-0.537	1.819	0.303	-1.240	-3.232	-4.404	-1.630	-0.683	1.614	0.892	0.693	0.795	0.341	0.627	-0.172	-0.906	-0.866	-2.964	-1.306	-2.748	-3.955	-5.399	74.219
2.170	1.561	1.783	1.602	0.479	1.522	-0.711	2.282	0.852	-1.382	-3.075	-4.377	-2.246	-1.270	1.235	0.576	0.422	0.711	0.200	0.232	-0.585	-0.966	-0.772	-3.234	-0.798	-2.216	-4.128	-5.240	78.125
1.860	1.148	1.749	1.224	0.110	1.430	-0.821	2.825	1.599	-1.369	-2.560	-4.002	-2.853	-1.935	0.670	0.089	-0.012	0.483	-0.098	-0.333	-1.131	-1.103	-0.715	-3.390	-0.126	-1.364	-4.057	-4.707	82.031
1.391	0.592	1.601	0.718	-0.343	1.244	-0.851	3.438	2.530	-1.178	-1.689	-3.277	-3.406	-2.645	-0.055	-0.555	-0.593	0.125	-0.546	-1.046	-1.794	-1.316	-0.702	-3.410	0.667	-0.239	-3.728	-3.816	85.938
0.778	-0.087	1.335	0.101	-0.859	0.972	-0.788	4.102	3.610	-0.800	-0.498	-2.235	-3.867	-3.363	-0.905	-1.325	-1.290	-0.333	-1.119	-1.876	-2.546	-1.596	-0.737	-3.287	1.532	1.092	-3.148	-2.612	89.844
0.051	-0.862	0.958	-0.601	-1.414	0.628	-0.633	4.793	4.789	-0.249	0.941	-0.944	-4.209	-4.050	-1.835	-2.182	-2.065	-0.853	-1.779	-2.779	-3.353	-1.925	-0.819	-3.023	2.426	2.553	-2.346	-1.165	93.750
-0.746	-1.699	0.493	-1.357	-1.976	0.233	-0.387	5.479	5.999	0.448	2.536	0.508	-4.412	-4.668	-2.800	-3.078	-2.876	-1.399	-2.485	-3.706	-4.171	-2.281	-0.944	-2.634	3.305	4.069	-1.367	0.442	97.656
-1.563	-2.561	-0.029	-2.132	-2.509	-0.190	-0.060	6.125	7.168	1.252	4.183	2.022	-4.468	-5.179	-3.752	-3.961	-3.685	-1.938	-3.192	-4.603	-4.954	-2.639	-1.103	-2.143	4.137	5.569	-0.264	2.120	101.562
-2.350	-3.407	-0.570	-2.888	-2.976	-0.611	0.336	6.688	8.222	2.115	5.777	3.501	-4.373	-5.550	-4.646	-4.780	-4.455	-2.451	-3.858	-5.418	-5.650	-2.973	-1.289	-1.579	4.891	6.992	0.901	3.781	105.469
-3.060	-4.194	-1.095	-3.584	-3.341	-1.005	0.785	7.128	9.094	2.990	7.222	4.855	-4.130	-5.750	-5.443	-5.488	-5.155	-2.927	-4.446	-6.099	-6.211	-3.258	-1.490	-0.968	5.544	8.288	2.072	5.345	109.375
-3.660	-4.882	-1.576	-4.183	-3.573	-1.348	1.272	7.404	9.726	3.832	8.443	6.015	-3.745	-5.757	-6.108	-6.042	-5.758	-3.360	-4.925	-6.601	-6.590	-3.471	-1.690	-0.337	6.071	9.417	3.196	6.743	113.281
-4.128	-5.434	-2.000	-4.648	-3.655	-1.623	1.780	7.483	10.078	4.600	9.384	6.933	-3.227	-5.554	-6.616	-6.411	-6.239	-3.751	-5.271	-6.889	-6.752	-3.593	-1.874	0.295	6.452	10.348	4.228	7.918	117.188
-4.457	-5.819	-2.368	-4.953	-3.580	-1.822	2.292	7.344	10.134	5.266	10.020	7.585	-2.587	-5.135	-6.953	-6.577	-6.578	-4.095	-5.467	-6.939	-6.672	-3.609	-2.025	0.916	6.666	11.055	5.134	8.830	121.094
-4.653	-6.019	-2.690	-5.082	-3.358	-1.949	2.792	6.984	9.900	5.814	10.352	7.969	-1.839	-4.507	-7.117	-6.538	-6.762	-4.388	-5.502	-6.748	-6.344	-3.508	-2.126	1.516	6.701	11.522	5.892	9.455	125.000
-4.733	-6.029	-2.978	-5.036	-3.010	-2.013	3.263	6.418	9.411	6.235	10.408	8.104	-1.005	-3.691	-7.120	-6.305	-6.788	-4.622	-5.378	-6.330	-5.780	-3.288	-2.165	2.090	6.551	11.737	6.489	9.789	128.906
-4.717	-5.859	-3.246	-4.826	-2.566	-2.030	3.690	5.682	8.723	6.534	10.233	8.025	-0.110	-2.723	-6.980	-5.909	-6.665	-4.791	-5.104	-5.717	-5.013	-2.953	-2.132	2.630	6.222	11.700	6.920	9.845	132.812
-4.624	-5.537	-3.497	-4.483	-2.061	-2.015	4.059	4.832	7.909	6.721	9.888	7.775	0.814	-1.649	-6.724	-5.392	-6.414	-4.892	-4.704	-4.959	-4.094	-2.518	-2.028	3.126	5.729	11.419	7.187	9.650	136.719
-4.466	-5.099	-3.725	-4.041	-1.532	-1.981	4.360	3.933	7.049	6.810	9.434	7.402	1.727	-0.528	-6.381	-4.800	-6.065	-4.928	-4.208	-4.116	-3.086	-2.007	-1.860	3.562	5.096	10.914	7.295	9.244	140.625
-4.252	-4.591	-3.915	-3.542	-1.009	-1.934	4.585	3.058	6.224	6.820	8.931	6.956	2.589	0.580	-5.978	-4.182	-5.655	-4.904	-3.654	-3.250	-2.057	-1.450	-1.646	3.920	4.356	10.214	7.253	8.673	144.531
-3.986	-4.059	-4.045	-3.027	-0.520	-1.875	4.730	2.275	5.502	6.764	8.429	6.480	3.354	1.611	-5.541	-3.584	-5.222	-4.826	-3.082	-2.421	-1.077	-0.883	-1.409	4.177	3.543	9.359	7.070	7.991	148.438
-3.672	-3.544	-4.094	-2.528	-0.084	-1.801	4.797	1.639	4.936	6.658	7.964	6.009	3.982	2.512	-5.090	-3.041	-4.799	-4.703	-2.531	-1.680	-0.203	-0.345	-1.177	4.315	2.690	8.399	6.761	7.247	152.344
-3.321	-3.079	-4.050	-2.073	0.288	-1.707	4.789	1.191	4.559	6.514	7.565	5.575	4.437	3.237	-4.644	-2.579	-4.414	-4.543	-2.036	-1.063	0.518	0.129	-0.979	4.320	1.833	7.388	6.340	6.493	156.250
-2.949	-2.687	-3.910	-1.679	0.589	-1.587	4.718	0.951	4.383	6.347	7.248	5.199	4.695	3.755	-4.225	-2.213	-4.092	-4.357	-1.624	-0.591	1.057	0.508	-0.840	4.187	1.005	6.389	5.831	5.777	160.156
-2.580	-2.379	-3.683	-1.356	0.816	-1.441	4.598	0.923	4.405	6.170	7.030	4.897	4.745	4.049	-3.853	-1.952	-3.847	-4.160	-1.316	-0.275	1.401	0.767	-0.777	3.922	0.239	5.462	5.260	5.138	164.062
-2.241	-2.158	-3.391	-1.110	0.972	-1.270	4.448	1.095	4.606	5.998	6.919	4.679	4.589	4.116	-3.555	-1.796	-3.690	-3.971	-1.126	-0.110	1.551	0.893	-0.799	3.538	-0.431	4.662	4.655	4.611	167.969
-1.960	-2.023	-3.060	-0.942	1.060	-1.080	4.286	1.444	4.959	5.844	6.923	4.547	4.243	3.970	-3.353	-1.744	-3.625	-3.812	-1.058	-0.086	1.523	0.883	-0.904	3.060	-0.976	4.036	4.049	4.216	171.875
-1.757	-1.967	-2.716	-0.849	1.087	-0.879	4.131	1.939	5.433	5.721	7.043	4.494	3.734	3.636	-3.266	-1.786	-3.652	-3.709	-1.112	-0.183	1.340	0.743	-1.082	2.516	-1.369	3.613	3.469	3.962	175.781
-1.643	-1.981	-2.386	-0.829	1.061	-0.676	3.996	2.545	5.996	5.637	7.272	4.509	3.099	3.148	-3.303	-1.914	-3.765	-3.684	-1.277	-0.382	1.032	0.492	-1.313	1.935	-1.593	3.405	2.939	3.842	179.688
-1.618	-2.058	-2.091	-0.875	0.990	-0.481	3.892	3.226	6.615	5.593	7.592	4.573	2.378	2.545	-3.464	-2.116	-3.954	-3.752	-1.540	-0.660	0.630	0.154	-1.575	1.349	-1.638	3.410	2.477	3.839	183.594
-1.673	-2.187	-1.847	-0.979	0.884	-0.302	3.821	3.947	7.262	5.588	7.974	4.666	1.617	1.870	-3.735	-2.377	-4.206	-3.917	-1.883	-0.996	0.166	-0.242	-1.844	0.787	-1.505	3.609	2.095	3.929	187.500
-1.792	-2.361	-1.666	-1.134	0.752	-0.148	3.779	4.676	7.913	5.615	8.383	4.771	0.858	1.159	-4.095	-2.685	-4.511	-4.170	-2.288	-1.374	-0.333	-0.670	-2.102	0.278	-1.204	3.978	1.801	4.085	191.406
-1.957	-2.570	-1.554	-1.331	0.600	-0.026	3.759	5.384	8.547	5.663	8.782	4.876	0.140	0.443	-4.515	-3.029	-4.858	-4.487	-2.740	-1.782	-0.850	-1.108	-2.337	-0.156	-0.751	4.487	1.601	4.287	195.312
-2.152	-2.807	-1.510	-1.562	0.430	0.056	3.751	6.048	9.146	5.725	9.138	4.975	-0.508	-0.255	-4.966	-3.402	-5.236	-4.836	-3.224	-2.213	-1.372	-1.540	-2.544	-0.495	-0.170	5.111	1.498	4.521	199.219
-2.366	-3.067	-1.527	-1.821	0.244	0.092	3.742	6.652	9.701	5.790	9.427	5.070	-1.064	-0.925	-5.421	-3.800	-5.637	-5.181	-3.731	-2.664	-1.898	-1.961	-2.725	-0.729	0.519	5.823	1.493	4.782	203.125
-2.591	-3.344	-1.594	-2.105	0.037	0.080	3.726	7.184	10.201	5.854	9.639	5.171	-1.519	-1.560	-5.859	-4.220	-6.051	-5.492	-4.250	-3.134	-2.429	-2.373	-2.886	-0.858	1.292	6.603	1.584	5.069	207.031
-2.825	-3.636	-1.699	-2.411	-0.194	0.020	3.697	7.641	10.641	5.912	9.777	5.286	-1.874	-2.158	-6.262	-4.663	-6.466	-5.745	-4.771	-3.622	-2.969	-2.780	-3.034	-0.887	2.125	7.431	1.764	5.387	210.938
-3.071	-3.944	-1.826	-2.739	-0.452	-0.086	3.655	8.024	11.016	5.963	9.853	5.426	-2.136	-2.717	-6.623	-5.123	-6.865	-5.934	-5.280	-4.124	-3.519	-3.185	-3.170	-0.831	2.998	8.288	2.021	5.736	214.844
-3.333	-4.269	-1.965	-3.087	-0.739	-0.231	3.601	8.337	11.325	6.007	9.885	5.593	-2.315	-3.229	-6.936	-5.593	-7.233	-6.061	-5.760	-4.629	-4.072	-3.586	-3.291	-0.709	3.886	9.154	2.339	6.113	218.750
-3.617	-4.614	-2.111	-3.453	-1.049	-0.406	3.541	8.584	11.563	6.044	9.889	5.785	-2.423	-3.680	-7.202	-6.059	-7.552	-6.144	-6.189	-5.124	-4.615	-3.974	-3.387	-0.539	4.764	10.005	2.697	6.509	222.656
-3.926	-4.981	-2.266	-3.834	-1.373	-0.602	3.483	8.770	11.729	6.074	9.876	5.995	-2.468	-4.052	-7.424	-6.506	-7.808	-6.203	-6.547	-5.593	-5.127	-4.329	-3.445	-0.337	5.608	10.818	3.075	6.910	226.562
-4.255	-5.366	-2.436	-4.219	-1.697	-0.806	3.432	8.896	11.820	6.097	9.852	6.207	-2.454	-4.323	-7.610	-6.915	-7.991	-6.261	-6.817	-6.018	-5.582	-4.628	-3.450	-0.114	6.391	11.566	3.454	7.296	230.469
-4.594	-5.761	-2.633	-4.598	-2.004	-1.010	3.397	8.962	11.836	6.114	9.811	6.404	-2.384	-4.472	-7.768	-7.268	-8.096	-6.337	-6.987	-6.379	-5.953	-4.845	-3.393	0.128	7.088	12.223	3.821	7.648	234.375
-4.925	-6.151	-2.865	-4.953	-2.275	-1.204	3.383	8.967	11.777	6.123	9.743	6.569	-2.257	-4.488	-7.906	-7.551	-8.127	-6.435	-7.054	-6.665	-6.222	-4.957	-3.269	0.387	7.677	12.765	4.161	7.948	238.281
-5.225	-6.517	-3.134	-5.271	-2.497	-1.381	3.393	8.909	11.647	6.121	9.635	6.686	-2.076	-4.370	-8.026	-7.753	-8.091	-6.552	-7.022	-6.865	-6.376	-4.950	-3.081	0.668	8.143	13.172	4.467	8.178	242.188
-5.472	-6.838	-3.435	-5.538	-2.661	-1.539	3.430	8.792	11.453	6.107	9.476	6.745	-1.846	-4.130	-8.130	-7.872	-8.001	-6.670	-6.905	-6.978	-6.416	-4.821	-2.837	0.971	8.475	13.432	4.732	8.329	246.094
-5.651	-7.099	-3.750	-5.747	-2.765	-1.677	3.491	8.623	11.204	6.081	9.263	6.745	-1.572	-3.793	-8.213	-7.913	-7.873	-6.768	-6.718	-7.011	-6.355	-4.580	-2.551	1.298	8.671	13.541	4.952	8.396	250.000
-5.754	-7.292	-4.056	-5.896	-2.815	-1.796	3.575	8.415	10.920	6.045	9.002	6.691	-1.264	-3.391	-8.269	-7.890	-7.727	-6.825	-6.485	-6.975	-6.215	-4.246	-2.238	1.644	8.736	13.504	5.126	8.381	253.906
-5.788	-7.417	-4.328	-5.991	-2.819	-1.897	3.680	8.186	10.621	6.004	8.712	6.594	-0.935	-2.962	-8.293	-7.820	-7.580	-6.828	-6.227	-6.890	-6.022	-3.848	-1.916	2.002	8.685	13.337	5.255	8.296	257.812
-5.770	-7.484	-4.544	-6.041	-2.789	-1.979	3.803	7.957	10.333	5.969	8.419	6.473	-0.594	-2.538	-8.282	-7.723	-7.450	-6.778	-5.967	-6.775	-5.805	-3.419	-1.599	2.362	8.538	13.064	5.344	8.155	261.719
-5.724	-7.509	-4.688	-6.057	-2.737	-2.041	3.944	7.747	10.078	5.948	8.154	6.345	-0.250	-2.146	-8.237	-7.618	-7.350	-6.687	-5.724	-6.651	-5.585	-2.990	-1.300	2.716	8.319	12.716	5.403	7.979	265.625
-5.679	-7.510	-4.757	-6.051	-2.674	-2.082	4.097	7.569	9.871	5.950	7.943	6.224	0.092	-1.799	-8.168	-7.519	-7.284	-6.577	-5.508	-6.532	-5.377	-2.586	-1.028	3.057	8.056	12.324	5.441	7.787	269.531
-5.661	-7.503	-4.762	-6.029	-2.610	-2.102	4.261	7.428	9.719	5.983	7.806	6.123	0.430	-1.500	-8.087	-7.436	-7.251	-6.473	-5.325	-6.425	-5.186	-2.222	-0.786	3.383	7.776	11.922	5.474	7.599	273.438
-5.692	-7.501	-4.724	-5.998	-2.550	-2.105	4.430	7.316	9.614	6.048	7.749	6.047	0.769	-1.240	-8.013	-7.370	-7.244	-6.399	-5.176	-6.332	-5.009	-1.902	-0.573	3.695	7.507	11.542	5.518	7.433	277.344
-5.788	-7.509	-4.675	-5.963	-2.498	-2.095	4.600	7.219	9.538	6.145	7.767	6.002	1.118	-1.003	-7.965	-7.319	-7.252	-6.372	-5.054	-6.247	-4.841	-1.624	-0.388	4.002	7.271	11.213	5.592	7.304	281.250
-5.956	-7.530	-4.652	-5.928	-2.453	-2.081	4.772	7.115	9.468	6.272	7.843	5.991	1.490	-0.765	-7.961	-7.276	-7.264	-6.401	-4.956	-6.162	-4.672	-1.379	-0.226	4.314	7.087	10.960	5.718	7.227	285.156
-6.194	-7.562	-4.689	-5.897	-2.412	-2.070	4.946	6.982	9.376	6.426	7.953	6.021	1.901	-0.505	-8.015	-7.237	-7.273	-6.484	-4.874	-6.070	-4.494	-1.158	-0.084	4.642	6.966	10.799	5.914	7.214	289.062
-6.492	-7.601	-4.810	-5.877	-2.369	-2.067	5.125	6.803	9.238	6.604	8.072	6.095	2.363	-0.205	-8.129	-7.195	-7.275	-6.615	-4.805	-5.964	-4.303	-0.951	0.038	4.997	6.915	10.744	6.196	7.277	292.969
-6.836	-7.640	-5.026	-5.870	-2.319	-2.077	5.313	6.565	9.039	6.803	8.176	6.219	2.886	0.147	-8.298	-7.149	-7.271	-6.779	-4.747	-5.841	-4.096	-0.755	0.140	5.382	6.931	10.795	6.570	7.420	296.875
-7.207	-7.672	-5.327	-5.880	-2.255	-2.099	5.513	6.268	8.773	7.020	8.248	6.394	3.469	0.551	-8.508	-7.096	-7.266	-6.962	-4.700	-5.698	-3.872	-0.572	0.218	5.795	7.002	10.944	7.036	7.644	300.781
-7.582	-7.692	-5.691	-5.906	-2.173	-2.132	5.725	5.923	8.449	7.252	8.282	6.617	4.100	0.998	-8.735	-7.039	-7.265	-7.153	-4.664	-5.540	-3.631	-0.410	0.266	6.223	7.115	11.172	7.576	7.940	304.688
-7.943	-7.693	-6.082	-5.942	-2.072	-2.168	5.946	5.553	8.089	7.494	8.283	6.881	4.756	1.470	-8.957	-6.979	-7.277	-7.344	-4.643	-5.370	-3.377	-0.282	0.274	6.649	7.252	11.456	8.165	8.293	308.594
-8.272	-7.672	-6.463	-5.982	-1.951	-2.199	6.172	5.188	7.725	7.745	8.266	7.177	5.406	1.939	-9.153	-6.922	-7.309	-7.534	-4.642	-5.197	-3.114	-0.203	0.236	7.050	7.394	11.764	8.766	8.681	312.500
-8.557	-7.631	-6.804	-6.019	-1.814	-2.217	6.395	4.868	7.398	8.001	8.256	7.491	6.014	2.377	-9.313	-6.873	-7.367	-7.726	-4.670	-5.030	-2.850	-0.188	0.144	7.399	7.526	12.067	9.339	9.079	316.406
-8.790	-7.576	-7.082	-6.044	-1.665	-2.215	6.609	4.629	7.153	8.261	8.281	7.814	6.545	2.756	-9.433	-6.837	-7.458	-7.927	-4.732	-4.878	-2.592	-0.246	-0.006	7.674	7.636	12.339	9.846	9.461	320.312
-8.975	-7.516	-7.290	-6.056	-1.515	-2.189	6.807	4.504	7.025	8.520	8.366	8.132	6.969	3.053	-9.520	-6.820	-7.585	-8.139	-4.832	-4.751	-2.352	-0.381	-0.211	7.856	7.713	12.558	10.249	9.804	324.219
-9.117	-7.465	-7.429	-6.054	-1.374	-2.137	6.979	4.512	7.041	8.774	8.529	8.435	7.264	3.253	-9.582	-6.822	-7.744	-8.358	-4.968	-4.652	-2.139	-0.586	-0.461	7.932	7.750	12.709	10.524	10.086	328.125
-9.228	-7.434	-7.509	-6.041	-1.250	-2.062	7.120	4.657	7.207	9.011	8.770	8.710	7.420	3.353	-9.629	-6.841	-7.928	-8.568	-5.128	-4.582	-1.959	-0.841	-0.742	7.897	7.741	12.780	10.652	10.289	332.031
-9.316	-7.431	-7.537	-6.020	-1.155	-1.971	7.222	4.924	7.509	9.219	9.073	8.945	7.438	3.358	-9.667	-6.870	-8.121	-8.745	-5.295	-4.537	-1.819	-1.119	-1.032	7.754	7.682	12.763	10.627	10.399	335.938
-9.389	-7.457	-7.519	-5.995	-1.095	-1.871	7.277	5.283	7.912	9.379	9.406	9.124	7.326	3.282	-9.696	-6.900	-8.303	-8.859	-5.444	-4.507	-1.720	-1.388	-1.307	7.514	7.571	12.658	10.454	10.406	339.844
-9.446	-7.507	-7.455	-5.968	-1.073	-1.771	7.279	5.691	8.368	9.472	9.724	9.232	7.104	3.141	-9.709	-6.919	-8.452	-8.883	-5.554	-4.486	-1.663	-1.617	-1.542	7.196	7.411	12.469	10.147	10.306	343.750
-9.481	-7.570	-7.340	-5.940	-1.089	-1.679	7.226	6.104	8.820	9.480	9.977	9.257	6.792	2.955	-9.693	-6.922	-8.551	-8.797	-5.603	-4.465	-1.645	-1.781	-1.716	6.827	7.212	12.205	9.730	10.102	347.656
-9.482	-7.631	-7.167	-5.908	-1.139	-1.599	7.116	6.479	9.213	9.389	10.114	9.186	6.415	2.741	-9.632	-6.907	-8.587	-8.596	-5.583	-4.443	-1.664	-1.863	-1.815	6.435	6.991	11.879	9.233	9.800	351.562
-9.439	-7.673	-6.936	-5.868	-1.214	-1.532	6.952	6.784	9.498	9.190	10.095	9.014	5.999	2.512	-9.514	-6.878	-8.560	-8.289	-5.494	-4.420	-1.718	-1.860	-1.829	6.048	6.767	11.511	8.690	9.415	355.469
-9.342	-7.684	-6.651	-5.813	-1.301	-1.474	6.743	7.000	9.643	8.886	9.893	8.739	5.567	2.279	-9.330	-6.843	-8.477	-7.901	-5.343	-4.399	-1.805	-1.779	-1.758	5.694	6.566	11.120	8.137	8.964	359.375
-9.193	-7.657	-6.333	-5.736	-1.385	-1.418	6.501	7.124	9.633	8.489	9.501	8.366	5.145	2.050	-9.082	-6.814	-8.352	-7.462	-5.146	-4.389	-1.921	-1.638	-1.606	5.392	6.413	10.726	7.609	8.470	363.281
-9.001	-7.593	-6.009	-5.636	-1.452	-1.358	6.244	7.163	9.470	8.022	8.932	7.910	4.754	1.831	-8.787	-6.801	-8.201	-7.005	-4.920	-4.397	-2.062	-1.455	-1.381	5.159	6.329	10.349	7.138	7.956	367.188
-8.787	-7.505	-5.717	-5.514	-1.491	-1.291	5.989	7.134	9.174	7.517	8.221	7.395	4.417	1.629	-8.469	-6.816	-8.040	-6.560	-4.683	-4.432	-2.223	-1.250	-1.095	5.007	6.327	10.006	6.753	7.451	371.094
-8.579	-7.412	-5.494	-5.385	-1.501	-1.219	5.760	7.056	8.778	7.017	7.424	6.854	4.155	1.453	-8.162	-6.865	-7.884	-6.151	-4.449	-4.499	-2.398	-1.038	-0.762	4.946	6.414	9.719	6.481	6.989	375.000
-8.406	-7.342	-5.375	-5.267	-1.488	-1.151	5.578	6.945	8.323	6.570	6.614	6.338	3.990	1.314	-7.904	-6.955	-7.743	-5.801	-4.233	-4.608	-2.582	-0.830	-0.397	4.984	6.586	9.506	6.348	6.611	378.906
-8.296	-7.326	-5.380	-5.190	-1.469	-1.103	5.465	6.814	7.857	6.226	5.880	5.906	3.940	1.221	-7.731	-7.090	-7.632	-5.527	-4.048	-4.763	-2.771	-0.632	-0.021	5.129	6.832	9.393	6.376	6.363	382.812
-8.270	-7.395	-5.516	-5.182	-1.465	-1.096	5.439	6.672	7.426	6.033	5.312	5.627	4.020	1.184	-7.674	-7.274	-7.562	-5.345	-3.910	-4.972	-2.961	-0.452	0.342	5.386	7.134	9.404	6.585	6.296	386.719
-8.340	-7.572	-5.770	-5.270	-1.499	-1.148	5.513	6.524	7.072	6.030	4.997	5.566	4.237	1.207	-7.751	-7.511	-7.551	-5.267	-3.837	-5.239	-3.153	-0.298	0.664	5.751	7.470	9.560	6.985	6.456	390.625
-8.506	-7.868	-6.117	-5.466	-1.586	-1.271	5.694	6.374	6.831	6.239	5.000	5.776	4.584	1.286	-7.963	-7.802	-7.615	-5.299	-3.847	-5.566	-3.351	-0.184	0.917	6.213	7.815	9.875	7.575	6.877	394.531
-8.757	-8.277	-6.518	-5.769	-1.729	-1.466	5.974	6.229	6.722	6.661	5.353	6.282	5.045	1.410	-8.297	-8.146	-7.764	-5.441	-3.958	-5.948	-3.559	-0.128	1.075	6.747	8.143	10.342	8.332	7.564	398.438
-9.068	-8.773	-6.933	-6.157	-1.917	-1.717	6.337	6.094	6.750	7.270	6.044	7.070	5.586	1.561	-8.719	-8.535	-8.003	-5.681	-4.177	-6.373	-3.782	-0.146	1.121	7.315	8.427	10.932	9.213	8.490	402.344
-9.406	-9.313	-7.321	-6.592	-2.125	-1.996	6.755	5.979	6.901	8.014	7.014	8.086	6.165	1.716	-9.181	-8.950	-8.323	-5.995	-4.502	-6.821	-4.018	-0.254	1.046	7.873	8.640	11.591	10.155	9.588	406.250
-9.728	-9.838	-7.649	-7.020	-2.316	-2.261	7.190	5.889	7.142	8.819	8.157	9.235	6.732	1.855	-9.624	-9.365	-8.699	-6.350	-4.914	-7.259	-4.260	-0.456	0.857	8.368	8.757	12.240	11.072	10.752	410.156
-9.988	-10.283	-7.889	-7.383	-2.451	-2.467	7.601	5.825	7.424	9.596	9.334	10.389	7.239	1.964	-9.982	-9.742	-9.094	-6.700	-5.377	-7.650	-4.491	-0.740	0.576	8.755	8.756	12.783	11.872	11.849	414.062
-10.140	-10.584	-8.022	-7.625	-2.491	-2.572	7.945	5.777	7.682	10.248	10.384	11.406	7.645	2.041	-10.190	-10.039	-9.457	-6.996	-5.841	-7.950	-4.685	-1.080	0.235	8.996	8.619	13.123	12.463	12.735	417.969
-10.143	-10.686	-8.030	-7.701	-2.405	-2.548	8.184	5.726	7.845	10.690	11.151	12.149	7.924	2.098	-10.193	-10.213	-9.733	-7.186	-6.246	-8.114	-4.807	-1.432	-0.126	9.068	8.334	13.172	12.767	13.279	421.875
-9.967	-10.552	-7.903	-7.583	-2.180	-2.381	8.291	5.641	7.845	10.854	11.506	12.510	8.068	2.157	-9.951	-10.223	-9.868	-7.231	-6.527	-8.104	-4.820	-1.744	-0.463	8.970	7.898	12.870	12.736	13.380	425.781
-9.600	-10.172	-7.633	-7.267	-1.820	-2.080	8.250	5.487	7.626	10.706	11.367	12.422	8.087	2.251	-9.451	-10.040	-9.820	-7.105	-6.630	-7.892	-4.691	-1.962	-0.739	8.719	7.318	12.198	12.361	12.992	429.688
-9.050	-9.563	-7.223	-6.773	-1.346	-1.674	8.067	5.229	7.156	10.253	10.717	11.880	8.009	2.410	-8.710	-9.653	-9.565	-6.808	-6.520	-7.469	-4.397	-2.040	-0.926	8.349	6.610	11.182	11.675	12.130	433.594
-8.352	-8.770	-6.691	-6.144	-0.794	-1.204	7.762	4.847	6.438	9.540	9.610	10.936	7.876	2.660	-7.773	-9.072	-9.103	-6.364	-6.185	-6.847	-3.932	-1.950	-1.012	7.910	5.803	9.896	10.750	10.875	437.500
-7.559	-7.865	-6.070	-5.435	-0.209	-0.723	7.376	4.336	5.512	8.651	8.166	9.696	7.735	3.013	-6.717	-8.328	-8.462	-5.823	-5.645	-6.059	-3.309	-1.688	-0.998	7.457	4.933	8.450	9.693	9.360	441.406
-6.742	-6.932	-5.408	-4.715	0.364	-0.281	6.959	3.716	4.453	7.693	6.554	8.304	7.632	3.467	-5.636	-7.477	-7.696	-5.254	-4.948	-5.161	-2.561	-1.273	-0.900	7.041	4.045	6.978	8.623	7.752	445.312
-5.976	-6.057	-4.761	-4.048	0.887	0.081	6.569	3.031	3.362	6.779	4.969	6.918	7.603	4.002	-4.631	-6.590	-6.877	-4.731	-4.165	-4.222	-1.737	-0.748	-0.745	6.707	3.185	5.615	7.656	6.224	449.219
-5.328	-5.318	-4.186	-3.490	1.328	0.336	6.253	2.341	2.353	6.015	3.598	5.687	7.666	4.584	-3.795	-5.745	-6.089	-4.327	-3.375	-3.318	-0.897	-0.168	-0.564	6.482	2.398	4.480	6.885	4.929	453.125
-4.846	-4.769	-3.728	-3.080	1.671	0.474	6.050	1.710	1.530	5.477	2.596	4.731	7.820	5.167	-3.202	-5.014	-5.411	-4.095	-2.659	-2.522	-0.103	0.405	-0.384	6.374	1.719	3.654	6.371	3.977	457.031
-4.555	-4.433	-3.416	-2.834	1.912	0.501	5.974	1.199	0.975	5.207	2.058	4.123	8.042	5.703	-2.890	-4.455	-4.908	-4.064	-2.083	-1.890	0.588	0.916	-0.231	6.371	1.176	3.175	6.129	3.426	460.938
-4.451	-4.304	-3.258	-2.745	2.057	0.437	6.021	0.851	0.733	5.206	2.011	3.884	8.294	6.143	-2.864	-4.101	-4.618	-4.233	-1.692	-1.461	1.132	1.320	-0.118	6.448	0.781	3.034	6.137	3.271	464.844
-4.511	-4.349	-3.244	-2.789	2.121	0.309	6.166	0.688	0.805	5.437	2.416	3.986	8.528	6.451	-3.089	-3.959	-4.552	-4.575	-1.503	-1.246	1.501	1.594	-0.049	6.569	0.536	3.183	6.342	3.461	468.750
-4.696	-4.517	-3.346	-2.928	2.120	0.147	6.371	0.701	1.149	5.835	3.174	4.360	8.699	6.604	-3.507	-4.010	-4.688	-5.039	-1.509	-1.233	1.690	1.733	-0.020	6.696	0.430	3.544	6.672	3.906	472.656
-4.956	-4.754	-3.527	-3.124	2.074	-0.023	6.595	0.864	1.696	6.324	4.151	4.914	8.771	6.596	-4.039	-4.215	-4.979	-5.564	-1.677	-1.387	1.708	1.750	-0.017	6.798	0.444	4.029	7.052	4.501	476.562
-5.246	-5.013	-3.748	-3.340	1.995	-0.181	6.800	1.131	2.352	6.826	5.200	5.547	8.724	6.444	-4.607	-4.520	-5.364	-6.085	-1.960	-1.660	1.588	1.676	-0.024	6.854	0.555	4.549	7.417	5.143	480.469
-5.524	-5.260	-3.978	-3.549	1.895	-0.314	6.957	1.451	3.026	7.275	6.182	6.167	8.560	6.181	-5.142	-4.868	-5.773	-6.545	-2.302	-1.995	1.370	1.547	-0.025	6.855	0.733	5.034	7.716	5.745	484.375
-5.760	-5.476	-4.194	-3.735	1.780	-0.417	7.052	1.777	3.635	7.627	6.988	6.704	8.300	5.852	-5.593	-5.208	-6.141	-6.901	-2.649	-2.338	1.101	1.401	-0.008	6.807	0.953	5.437	7.925	6.247	488.281
-5.935	-5.659	-4.387	-3.891	1.655	-0.490	7.083	2.068	4.116	7.859	7.546	7.112	7.982	5.508	-5.930	-5.499	-6.418	-7.132	-2.953	-2.644	0.828	1.269	0.032	6.728	1.191	5.736	8.037	6.622	492.188
-6.046	-5.812	-4.557	-4.017	1.525	-0.541	7.058	2.300	4.435	7.969	7.832	7.377	7.648	5.195	-6.146	-5.718	-6.578	-7.236	-3.185	-2.881	0.588	1.171	0.093	6.637	1.430	5.937	8.069	6.871	496.094
-6.099	-5.941	-4.708	-4.118	1.391	-0.575	6.990	2.457	4.584	7.974	7.861	7.509	7.344	4.951	-6.249	-5.856	-6.617	-7.232	-3.330	-3.034	0.405	1.115	0.166	6.557	1.661	6.060	8.046	7.016	500.000
-6.108	-6.048	-4.849	-4.199	1.258	-0.601	6.894	2.538	4.576	7.899	7.680	7.536	7.104	4.797	-6.255	-5.920	-6.554	-7.153	-3.393	-3.103	0.286	1.095	0.238	6.505	1.878	6.139	8.001	7.093	503.906
-6.091	-6.129	-4.982	-4.264	1.131	-0.627	6.781	2.549	4.441	7.772	7.351	7.493	6.949	4.739	-6.185	-5.926	-6.424	-7.037	-3.390	-3.101	0.227	1.098	0.295	6.491	2.085	6.205	7.964	7.138	507.812
-6.062	-6.175	-5.104	-4.311	1.013	-0.658	6.658	2.504	4.217	7.619	6.945	7.415	6.883	4.765	-6.059	-5.897	-6.268	-6.922	-3.346	-3.049	0.212	1.106	0.329	6.517	2.288	6.283	7.957	7.180	511.719
-6.033	-6.176	-5.205	-4.342	0.911	-0.695	6.525	2.418	3.945	7.457	6.519	7.324	6.892	4.852	-5.893	-5.853	-6.126	-6.835	-3.286	-2.972	0.219	1.104	0.332	6.577	2.490	6.384	7.989	7.235	515.625
-6.008	-6.124	-5.269	-4.352	0.828	-0.735	6.382	2.307	3.659	7.294	6.116	7.231	6.953	4.971	-5.700	-5.811	-6.028	-6.789	-3.233	-2.890	0.232	1.081	0.308	6.663	2.695	6.506	8.057	7.300	519.531
-5.986	-6.014	-5.275	-4.340	0.769	-0.770	6.225	2.187	3.384	7.129	5.758	7.126	7.034	5.095	-5.485	-5.781	-5.991	-6.778	-3.199	-2.819	0.234	1.035	0.264	6.759	2.898	6.633	8.141	7.357	523.438
-5.953	-5.850	-5.204	-4.300	0.738	-0.790	6.050	2.070	3.135	6.950	5.444	6.989	7.105	5.202	-5.253	-5.761	-6.011	-6.782	-3.186	-2.764	0.222	0.970	0.212	6.853	3.088	6.740	8.214	7.374	527.344
-5.892	-5.640	-5.043	-4.230	0.739	-0.782	5.858	1.964	2.912	6.743	5.157	6.789	7.141	5.282	-5.003	-5.743	-6.071	-6.770	-3.187	-2.722	0.197	0.899	0.168	6.929	3.250	6.795	8.241	7.311	531.250
-5.781	-5.395	-4.788	-4.125	0.775	-0.733	5.649	1.872	2.709	6.492	4.867	6.494	7.128	5.336	-4.734	-5.706	-6.140	-6.710	-3.184	-2.680	0.171	0.838	0.144	6.976	3.362	6.766	8.187	7.131	535.156
-5.599	-5.123	-4.449	-3.982	0.850	-0.638	5.431	1.795	2.512	6.183	4.540	6.084	7.062	5.373	-4.442	-5.627	-6.179	-6.578	-3.156	-2.618	0.163	0.802	0.152	6.982	3.402	6.626	8.023	6.805	539.062
-5.329	-4.831	-4.047	-3.796	0.965	-0.493	5.212	1.725	2.303	5.811	4.146	5.550	6.951	5.412	-4.127	-5.481	-6.147	-6.362	-3.078	-2.514	0.190	0.808	0.197	6.939	3.351	6.357	7.732	6.319	542.969
-4.963	-4.520	-3.615	-3.567	1.120	-0.307	5.001	1.654	2.067	5.376	3.666	4.900	6.810	5.469	-3.788	-5.245	-6.011	-6.063	-2.930	-2.344	0.274	0.868	0.279	6.843	3.194	5.950	7.311	5.678	546.875
-4.502	-4.188	-3.184	-3.293	1.312	-0.091	4.806	1.568	1.789	4.887	3.092	4.161	6.654	5.559	-3.426	-4.903	-5.746	-5.695	-2.696	-2.090	0.426	0.987	0.393	6.692	2.924	5.409	6.771	4.905	550.781
-3.953	-3.830	-2.785	-2.978	1.539	0.139	4.633	1.453	1.458	4.361	2.432	3.368	6.501	5.689	-3.041	-4.451	-5.345	-5.284	-2.370	-1.743	0.655	1.165	0.533	6.492	2.541	4.747	6.138	4.035	554.688
-3.334	-3.443	-2.438	-2.627	1.793	0.366	4.484	1.295	1.068	3.818	1.708	2.565	6.361	5.858	-2.634	-3.894	-4.817	-4.855	-1.957	-1.307	0.956	1.395	0.690	6.252	2.056	3.990	5.448	3.116	558.594
-2.671	-3.026	-2.153	-2.253	2.067	0.576	4.357	1.085	0.621	3.282	0.954	1.798	6.239	6.055	-2.209	-3.256	-4.190	-4.436	-1.476	-0.798	1.313	1.665	0.855	5.984	1.488	3.170	4.743	2.200	562.500
-1.995	-2.584	-1.931	-1.866	2.350	0.760	4.248	0.822	0.126	2.778	0.213	1.109	6.136	6.264	-1.769	-2.570	-3.508	-4.049	-0.957	-0.247	1.703	1.956	1.021	5.704	0.863	2.325	4.064	1.340	566.406
-1.340	-2.129	-1.764	-1.484	2.629	0.913	4.155	0.512	-0.398	2.332	-0.468	0.536	6.048	6.467	-1.327	-1.879	-2.825	-3.711	-0.437	0.309	2.095	2.247	1.178	5.430	0.213	1.496	3.454	0.585	570.312
-0.740	-1.678	-1.641	-1.125	2.890	1.035	4.075	0.172	-0.924	1.966	-1.044	0.109	5.973	6.646	-0.899	-1.231	-2.198	-3.430	0.043	0.826	2.453	2.517	1.323	5.180	-0.423	0.725	2.946	-0.023	574.219
-0.220	-1.259	-1.550	-0.808	3.116	1.126	4.008	-0.174	-1.419	1.700	-1.473	-0.151	5.907	6.784	-0.505	-0.672	-1.680	-3.210	0.444	1.265	2.748	2.746	1.449	4.969	-1.008	0.048	2.570	-0.451	578.125
0.204	-0.899	-1.481	-0.550	3.289	1.188	3.956	-0.502	-1.851	1.547	-1.729	-0.232	5.851	6.870	-0.169	-0.239	-1.311	-3.049	0.739	1.591	2.953	2.920	1.555	4.813	-1.506	-0.502	2.344	-0.678	582.031
0.526	-0.631	-1.430	-0.369	3.395	1.220	3.923	-0.784	-2.189	1.514	-1.799	-0.135	5.808	6.899	0.088	0.040	-1.114	-2.943	0.910	1.782	3.052	3.031	1.642	4.721	-1.889	-0.903	2.275	-0.699	585.938
0.748	-0.483	-1.398	-0.279	3.426	1.220	3.914	-0.999	-2.415	1.598	-1.689	0.127	5.782	6.870	0.248	0.157	-1.090	-2.889	0.956	1.828	3.040	3.080	1.714	4.702	-2.134	-1.142	2.360	-0.524	589.844
0.881	-0.477	-1.390	-0.289	3.376	1.186	3.930	-1.133	-2.519	1.788	-1.421	0.529	5.777	6.785	0.302	0.115	-1.222	-2.877	0.886	1.733	2.921	3.074	1.777	4.755	-2.231	-1.215	2.587	-0.176	593.750
0.935	-0.619	-1.410	-0.404	3.249	1.120	3.972	-1.182	-2.505	2.060	-1.032	1.034	5.797	6.655	0.248	-0.067	-1.481	-2.899	0.721	1.513	2.713	3.025	1.838	4.878	-2.181	-1.130	2.930	0.308	597.656
0.924	-0.902	-1.460	-0.616	3.055	1.023	4.035	-1.150	-2.392	2.386	-0.570	1.596	5.841	6.489	0.094	-0.359	-1.825	-2.941	0.488	1.194	2.440	2.950	1.904	5.060	-1.993	-0.904	3.354	0.879	601.562
0.860	-1.297	-1.535	-0.912	2.809	0.903	4.111	-1.052	-2.206	2.729	-0.092	2.162	5.907	6.304	-0.145	-0.724	-2.211	-2.992	0.216	0.811	2.133	2.865	1.978	5.285	-1.687	-0.562	3.818	1.486	605.469
0.757	-1.761	-1.626	-1.267	2.527	0.770	4.185	-0.909	-1.982	3.050	0.350	2.678	5.983	6.113	-0.450	-1.120	-2.597	-3.038	-0.064	0.404	1.826	2.786	2.061	5.532	-1.292	-0.135	4.277	2.072	609.375
0.631	-2.242	-1.720	-1.650	2.232	0.632	4.242	-0.744	-1.753	3.312	0.707	3.097	6.056	5.933	-0.796	-1.506	-2.944	-3.067	-0.323	0.016	1.552	2.724	2.151	5.773	-0.839	0.339	4.682	2.585	613.281
0.503	-2.685	-1.803	-2.026	1.944	0.502	4.264	-0.582	-1.552	3.484	0.943	3.379	6.108	5.773	-1.155	-1.841	-3.217	-3.068	-0.537	-0.313	1.339	2.687	2.241	5.979	-0.368	0.816	4.992	2.979	617.188
0.396	-3.040	-1.858	-2.357	1.682	0.387	4.238	-0.440	-1.401	3.546	1.034	3.500	6.117	5.641	-1.500	-2.093	-3.392	-3.034	-0.684	-0.551	1.206	2.677	2.325	6.120	0.083	1.255	5.173	3.218	621.094
0.334	-3.272	-1.871	-2.612	1.462	0.293	4.154	-0.332	-1.315	3.488	0.978	3.453	6.067	5.539	-1.801	-2.240	-3.453	-2.961	-0.755	-0.674	1.160	2.692	2.395	6.171	0.477	1.614	5.202	3.282	625.000
0.336	-3.364	-1.827	-2.766	1.293	0.226	4.009	-0.265	-1.298	3.314	0.787	3.247	5.944	5.464	-2.034	-2.274	-3.397	-2.846	-0.745	-0.676	1.197	2.725	2.443	6.117	0.782	1.860	5.075	3.166	628.906
0.413	-3.317	-1.717	-2.808	1.179	0.188	3.807	-0.239	-1.345	3.044	0.489	2.909	5.745	5.408	-2.179	-2.199	-3.232	-2.696	-0.663	-0.568	1.301	2.764	2.465	5.952	0.979	1.973	4.803	2.885	632.812
0.562	-3.150	-1.535	-2.741	1.119	0.181	3.561	-0.248	-1.444	2.704	0.123	2.479	5.475	5.366	-2.228	-2.033	-2.983	-2.520	-0.528	-0.373	1.446	2.798	2.456	5.688	1.063	1.949	4.413	2.470	636.719
0.767	-2.895	-1.283	-2.582	1.106	0.206	3.289	-0.284	-1.576	2.330	-0.266	2.004	5.152	5.330	-2.185	-1.807	-2.682	-2.329	-0.362	-0.126	1.608	2.817	2.417	5.350	1.042	1.802	3.949	1.968	640.625
1.005	-2.592	-0.974	-2.360	1.126	0.260	3.010	-0.338	-1.723	1.959	-0.633	1.531	4.802	5.298	-2.068	-1.557	-2.368	-2.141	-0.195	0.132	1.759	2.812	2.353	4.974	0.940	1.560	3.459	1.433	644.531
1.244	-2.283	-0.627	-2.112	1.166	0.335	2.745	-0.402	-1.866	1.622	-0.940	1.103	4.457	5.267	-1.901	-1.318	-2.079	-1.968	-0.053	0.365	1.882	2.781	2.273	4.603	0.790	1.262	2.995	0.922	648.438
1.459	-2.007	-0.269	-1.876	1.207	0.421	2.511	-0.470	-1.989	1.345	-1.162	0.754	4.148	5.240	-1.716	-1.121	-1.842	-1.823	0.047	0.544	1.964	2.728	2.190	4.276	0.626	0.951	2.602	0.484	652.344
1.630	-1.793	0.068	-1.688	1.233	0.504	2.316	-0.542	-2.081	1.140	-1.288	0.504	3.900	5.218	-1.543	-0.983	-1.673	-1.715	0.097	0.654	2.005	2.662	2.119	4.026	0.480	0.663	2.311	0.154	656.250
1.746	-1.658	0.354	-1.574	1.228	0.567	2.166	-0.615	-2.138	1.012	-1.320	0.361	3.732	5.204	-1.408	-0.910	-1.572	-1.648	0.098	0.694	2.008	2.596	2.073	3.873	0.374	0.428	2.137	-0.048	660.156
1.810	-1.606	0.561	-1.546	1.184	0.594	2.058	-0.693	-2.159	0.957	-1.270	0.321	3.647	5.197	-1.328	-0.896	-1.524	-1.623	0.064	0.675	1.984	2.543	2.063	3.822	0.317	0.260	2.081	-0.120	664.062
1.835	-1.629	0.672	-1.600	1.095	0.574	1.992	-0.774	-2.144	0.964	-1.153	0.376	3.641	5.196	-1.310	-0.925	-1.510	-1.638	0.010	0.614	1.945	2.513	2.091	3.861	0.302	0.161	2.128	-0.073	667.969
1.840	-1.708	0.678	-1.720	0.969	0.504	1.964	-0.858	-2.098	1.024	-0.984	0.515	3.702	5.198	-1.353	-0.977	-1.512	-1.692	-0.048	0.534	1.902	2.509	2.155	3.969	0.316	0.124	2.258	0.073	671.875
1.844	-1.822	0.580	-1.880	0.817	0.389	1.974	-0.938	-2.023	1.131	-0.773	0.724	3.817	5.201	-1.449	-1.035	-1.518	-1.784	-0.097	0.451	1.861	2.528	2.242	4.118	0.336	0.134	2.444	0.296	675.781
1.857	-1.946	0.388	-2.051	0.661	0.243	2.026	-1.008	-1.921	1.280	-0.527	0.992	3.972	5.206	-1.584	-1.085	-1.530	-1.915	-0.137	0.378	1.826	2.562	2.334	4.283	0.341	0.176	2.667	0.575	679.688
1.880	-2.060	0.118	-2.203	0.525	0.085	2.126	-1.059	-1.793	1.474	-0.244	1.312	4.159	5.214	-1.743	-1.127	-1.560	-2.085	-0.173	0.317	1.798	2.596	2.409	4.444	0.318	0.238	2.913	0.892	683.594
1.901	-2.152	-0.209	-2.314	0.431	-0.061	2.278	-1.085	-1.640	1.714	0.078	1.677	4.377	5.234	-1.910	-1.166	-1.626	-2.296	-0.217	0.267	1.776	2.614	2.447	4.594	0.257	0.311	3.173	1.237	687.500
1.897	-2.216	-0.573	-2.372	0.396	-0.175	2.483	-1.080	-1.465	2.005	0.440	2.080	4.625	5.275	-2.075	-1.214	-1.745	-2.545	-0.283	0.218	1.758	2.605	2.432	4.733	0.164	0.394	3.447	1.601	691.406
1.845	-2.256	-0.950	-2.377	0.426	-0.247	2.735	-1.047	-1.276	2.343	0.840	2.514	4.905	5.345	-2.228	-1.283	-1.929	-2.824	-0.383	0.161	1.743	2.562	2.361	4.872	0.050	0.488	3.735	1.980	695.312
1.729	-2.282	-1.320	-2.340	0.516	-0.274	3.020	-0.993	-1.085	2.720	1.268	2.971	5.216	5.450	-2.366	-1.380	-2.173	-3.123	-0.519	0.090	1.733	2.488	2.240	5.023	-0.066	0.597	4.038	2.368	699.219
1.541	-2.306	-1.665	-2.280	0.646	-0.272	3.316	-0.933	-0.910	3.121	1.708	3.437	5.554	5.594	-2.488	-1.506	-2.461	-3.425	-0.683	0.004	1.732	2.395	2.091	5.200	-0.165	0.725	4.354	2.756	703.125
1.291	-2.342	-1.971	-2.220	0.789	-0.264	3.598	-0.886	-0.771	3.520	2.137	3.895	5.910	5.774	-2.593	-1.649	-2.761	-3.709	-0.858	-0.090	1.744	2.303	1.941	5.410	-0.229	0.876	4.674	3.134	707.031
1.005	-2.400	-2.229	-2.183	0.916	-0.280	3.837	-0.873	-0.689	3.891	2.527	4.328	6.269	5.985	-2.684	-1.792	-3.034	-3.954	-1.015	-0.180	1.775	2.236	1.825	5.654	-0.244	1.047	4.990	3.489	710.938
0.714	-2.485	-2.432	-2.183	1.000	-0.346	4.011	-0.913	-0.681	4.204	2.847	4.715	6.616	6.217	-2.761	-1.914	-3.243	-4.141	-1.125	-0.251	1.832	2.217	1.771	5.926	-0.207	1.231	5.288	3.807	714.844
0.455	-2.594	-2.579	-2.227	1.027	-0.477	4.102	-1.020	-0.760	4.436	3.071	5.036	6.935	6.461	-2.822	-1.994	-3.358	-4.253	-1.165	-0.290	1.917	2.260	1.799	6.212	-0.123	1.417	5.556	4.076	718.750
0.261	-2.716	-2.670	-2.309	0.996	-0.673	4.107	-1.198	-0.928	4.568	3.179	5.276	7.211	6.705	-2.862	-2.020	-3.366	-4.281	-1.120	-0.286	2.033	2.369	1.912	6.495	-0.005	1.590	5.779	4.287	722.656
0.157	-2.832	-2.710	-2.411	0.921	-0.916	4.030	-1.444	-1.175	4.593	3.160	5.424	7.428	6.937	-2.875	-1.986	-3.269	-4.224	-0.989	-0.237	2.176	2.535	2.098	6.751	0.127	1.731	5.949	4.430	726.562
0.155	-2.924	-2.704	-2.513	0.827	-1.174	3.886	-1.743	-1.483	4.511	3.018	5.477	7.573	7.146	-2.855	-1.896	-3.088	-4.086	-0.784	-0.146	2.339	2.737	2.334	6.960	0.255	1.828	6.056	4.504	730.469
0.254	-2.972	-2.660	-2.589	0.740	-1.408	3.694	-2.070	-1.825	4.332	2.767	5.439	7.636	7.315	-2.796	-1.762	-2.852	-3.881	-0.529	-0.022	2.513	2.947	2.587	7.101	0.360	1.869	6.096	4.508	734.375
0.440	-2.963	-2.584	-2.620	0.684	-1.584	3.474	-2.399	-2.172	4.074	2.433	5.319	7.607	7.431	-2.697	-1.600	-2.594	-3.625	-0.253	0.125	2.684	3.138	2.825	7.158	0.431	1.853	6.065	4.444	738.281
0.691	-2.892	-2.480	-2.595	0.672	-1.674	3.242	-2.700	-2.495	3.755	2.047	5.129	7.482	7.481	-2.561	-1.426	-2.340	-3.336	0.014	0.280	2.841	3.285	3.019	7.123	0.464	1.786	5.967	4.320	742.188
0.978	-2.762	-2.348	-2.513	0.702	-1.669	3.011	-2.950	-2.774	3.396	1.642	4.884	7.261	7.452	-2.395	-1.259	-2.107	-3.031	0.247	0.431	2.971	3.373	3.149	6.993	0.462	1.682	5.804	4.144	746.094
1.275	-2.586	-2.188	-2.386	0.759	-1.574	2.785	-3.133	-2.994	3.019	1.248	4.599	6.950	7.339	-2.209	-1.113	-1.903	-2.721	0.427	0.566	3.064	3.396	3.208	6.773	0.438	1.560	5.585	3.928	750.000
1.558	-2.383	-1.995	-2.232	0.820	-1.411	2.564	-3.245	-3.154	2.643	0.889	4.291	6.563	7.143	-2.021	-1.001	-1.727	-2.414	0.546	0.674	3.110	3.358	3.196	6.478	0.405	1.438	5.322	3.687	753.906
1.809	-2.176	-1.773	-2.076	0.856	-1.212	2.345	-3.288	-3.258	2.284	0.586	3.978	6.122	6.874	-1.846	-0.931	-1.573	-2.116	0.602	0.746	3.104	3.272	3.126	6.131	0.379	1.339	5.032	3.442	757.812
2.014	-1.987	-1.528	-1.942	0.843	-1.012	2.128	-3.276	-3.315	1.961	0.349	3.681	5.656	6.550	-1.704	-0.906	-1.438	-1.835	0.599	0.776	3.048	3.153	3.014	5.759	0.377	1.281	4.735	3.215	761.719
2.163	-1.838	-1.280	-1.851	0.765	-0.848	1.914	-3.225	-3.337	1.688	0.186	3.422	5.199	6.198	-1.608	-0.926	-1.323	-1.582	0.546	0.762	2.947	3.018	2.881	5.398	0.412	1.279	4.460	3.033	765.625
2.248	-1.742	-1.053	-1.817	0.617	-0.747	1.708	-3.156	-3.334	1.478	0.098	3.226	4.785	5.846	-1.569	-0.984	-1.236	-1.368	0.456	0.709	2.813	2.884	2.746	5.082	0.493	1.345	4.236	2.922	769.531
2.265	-1.709	-0.879	-1.848	0.406	-0.730	1.518	-3.087	-3.314	1.339	0.082	3.114	4.444	5.525	-1.591	-1.072	-1.189	-1.203	0.339	0.626	2.661	2.761	2.625	4.844	0.625	1.484	4.091	2.908	773.438
2.209	-1.739	-0.786	-1.940	0.146	-0.803	1.351	-3.034	-3.283	1.274	0.131	3.105	4.198	5.257	-1.672	-1.178	-1.194	-1.093	0.205	0.523	2.506	2.655	2.531	4.709	0.809	1.700	4.049	3.011	777.344
2.078	-1.829	-0.799	-2.086	-0.147	-0.962	1.213	-3.006	-3.243	1.284	0.238	3.208	4.058	5.054	-1.806	-1.295	-1.260	-1.038	0.062	0.413	2.361	2.569	2.470	4.688	1.044	1.989	4.123	3.239	781.250
1.875	-1.969	-0.928	-2.274	-0.454	-1.193	1.106	-3.007	-3.196	1.359	0.393	3.421	4.017	4.918	-1.983	-1.413	-1.392	-1.031	-0.085	0.306	2.234	2.499	2.440	4.781	1.323	2.345	4.314	3.591	785.156
1.612	-2.148	-1.164	-2.489	-0.765	-1.479	1.027	-3.035	-3.140	1.487	0.585	3.729	4.060	4.838	-2.193	-1.531	-1.584	-1.061	-0.233	0.207	2.126	2.440	2.436	4.970	1.637	2.757	4.605	4.051	789.062
1.305	-2.348	-1.482	-2.719	-1.070	-1.795	0.968	-3.081	-3.078	1.648	0.799	4.105	4.157	4.796	-2.422	-1.644	-1.821	-1.113	-0.381	0.118	2.035	2.387	2.450	5.227	1.976	3.207	4.967	4.589	792.969
0.979	-2.555	-1.844	-2.949	-1.367	-2.120	0.918	-3.138	-3.013	1.821	1.020	4.511	4.275	4.770	-2.657	-1.753	-2.080	-1.174	-0.528	0.037	1.953	2.333	2.472	5.513	2.325	3.673	5.364	5.162	796.875
