FP1	F3	F7	FC3	C3	C5	P3	P7	PO7	PO3	O1	Oz	Pz	CPz	FP2	Fz	F4	F8	FC4	FCz	Cz	C4	C6	P4	P8	PO8	PO4	O2	time
0.647	0.037	-0.039	-0.105	-0.728	-1.253	-1.014	-0.477	-0.429	-0.300	0.736	0.989	-0.637	-0.203	-0.055	0.605	0.602	0.425	0.297	0.142	0.222	-0.410	-0.528	0.280	-0.371	-0.043	0.239	0.619	-199.219
0.680	0.103	0.351	0.044	-0.498	-0.714	-1.073	-0.193	-0.228	-0.417	0.663	0.768	-0.980	-0.302	0.090	0.543	0.546	0.531	0.222	0.138	0.152	-0.568	-0.560	-0.060	-0.540	-0.330	-0.109	0.380	-195.312
0.713	0.150	0.701	0.166	-0.294	-0.212	-1.132	0.076	-0.049	-0.535	0.573	0.546	-1.303	-0.405	0.220	0.486	0.508	0.629	0.162	0.135	0.082	-0.703	-0.572	-0.380	-0.675	-0.582	-0.431	0.148	-191.406
0.740	0.162	0.979	0.242	-0.138	0.220	-1.183	0.321	0.089	-0.647	0.461	0.326	-1.585	-0.510	0.316	0.430	0.497	0.709	0.122	0.127	0.009	-0.798	-0.548	-0.659	-0.750	-0.764	-0.696	-0.061	-187.500
0.753	0.125	1.163	0.258	-0.043	0.559	-1.222	0.530	0.178	-0.745	0.329	0.119	-1.805	-0.619	0.367	0.372	0.514	0.763	0.106	0.110	-0.073	-0.844	-0.481	-0.876	-0.744	-0.851	-0.879	-0.230	-183.594
0.738	0.037	1.240	0.209	-0.012	0.796	-1.237	0.701	0.217	-0.814	0.194	-0.060	-1.946	-0.728	0.361	0.303	0.549	0.786	0.105	0.074	-0.169	-0.841	-0.372	-1.013	-0.649	-0.827	-0.959	-0.339	-179.688
0.680	-0.103	1.210	0.098	-0.039	0.932	-1.218	0.832	0.219	-0.840	0.079	-0.188	-1.996	-0.833	0.295	0.212	0.583	0.778	0.108	0.009	-0.287	-0.795	-0.231	-1.054	-0.464	-0.686	-0.920	-0.366	-175.781
0.564	-0.287	1.079	-0.069	-0.115	0.974	-1.152	0.928	0.204	-0.804	0.012	-0.240	-1.948	-0.928	0.165	0.084	0.590	0.738	0.095	-0.098	-0.432	-0.722	-0.070	-0.990	-0.198	-0.432	-0.755	-0.290	-171.875
0.379	-0.510	0.861	-0.280	-0.224	0.938	-1.027	0.998	0.199	-0.692	0.022	-0.193	-1.798	-1.005	-0.024	-0.094	0.543	0.668	0.047	-0.260	-0.610	-0.636	0.095	-0.814	0.133	-0.076	-0.463	-0.097	-167.969
0.120	-0.764	0.572	-0.525	-0.353	0.839	-0.837	1.051	0.230	-0.494	0.127	-0.032	-1.552	-1.057	-0.263	-0.334	0.420	0.563	-0.052	-0.486	-0.822	-0.553	0.252	-0.531	0.513	0.363	-0.058	0.216	-164.062
-0.208	-1.045	0.228	-0.795	-0.491	0.693	-0.579	1.100	0.320	-0.212	0.337	0.246	-1.220	-1.081	-0.540	-0.642	0.209	0.419	-0.211	-0.779	-1.067	-0.484	0.394	-0.153	0.921	0.863	0.442	0.640	-160.156
-0.591	-1.343	-0.152	-1.080	-0.627	0.513	-0.260	1.153	0.480	0.144	0.642	0.631	-0.821	-1.074	-0.841	-1.012	-0.088	0.231	-0.427	-1.134	-1.336	-0.435	0.517	0.297	1.338	1.397	1.004	1.153	-156.250
-1.005	-1.650	-0.550	-1.371	-0.758	0.311	0.104	1.215	0.707	0.552	1.020	1.095	-0.376	-1.037	-1.147	-1.429	-0.452	-0.004	-0.688	-1.533	-1.617	-0.409	0.623	0.786	1.746	1.936	1.592	1.719	-152.344
-1.422	-1.950	-0.949	-1.656	-0.879	0.095	0.490	1.284	0.986	0.981	1.434	1.597	0.088	-0.973	-1.440	-1.864	-0.851	-0.281	-0.970	-1.949	-1.890	-0.402	0.714	1.277	2.125	2.449	2.166	2.297	-148.438
-1.807	-2.226	-1.327	-1.921	-0.988	-0.126	0.868	1.347	1.285	1.398	1.840	2.091	0.543	-0.883	-1.701	-2.281	-1.245	-0.587	-1.246	-2.344	-2.128	-0.411	0.792	1.733	2.458	2.908	2.686	2.840	-144.531
-2.126	-2.455	-1.664	-2.149	-1.081	-0.345	1.209	1.388	1.568	1.765	2.194	2.526	0.966	-0.771	-1.912	-2.633	-1.593	-0.898	-1.483	-2.676	-2.301	-0.427	0.856	2.119	2.728	3.283	3.118	3.303	-140.625
-2.348	-2.614	-1.937	-2.319	-1.151	-0.556	1.483	1.383	1.793	2.049	2.454	2.857	1.333	-0.631	-2.052	-2.878	-1.855	-1.188	-1.654	-2.902	-2.377	-0.440	0.903	2.406	2.915	3.546	3.430	3.646	-136.719
-2.449	-2.680	-2.128	-2.408	-1.189	-0.752	1.669	1.307	1.921	2.225	2.588	3.049	1.630	-0.458	-2.107	-2.976	-1.997	-1.428	-1.731	-2.985	-2.329	-0.440	0.928	2.576	3.000	3.672	3.601	3.835	-132.812
-2.415	-2.634	-2.221	-2.396	-1.184	-0.926	1.756	1.142	1.923	2.277	2.577	3.077	1.852	-0.244	-2.062	-2.899	-1.997	-1.591	-1.700	-2.897	-2.135	-0.413	0.926	2.622	2.965	3.639	3.618	3.849	-128.906
-2.245	-2.464	-2.209	-2.269	-1.126	-1.071	1.741	0.877	1.783	2.200	2.419	2.934	2.000	0.020	-1.909	-2.639	-1.844	-1.659	-1.551	-2.629	-1.791	-0.349	0.893	2.549	2.791	3.434	3.478	3.675	-125.000
-1.951	-2.170	-2.092	-2.022	-1.008	-1.180	1.634	0.515	1.500	2.005	2.123	2.631	2.082	0.333	-1.646	-2.205	-1.542	-1.623	-1.288	-2.190	-1.306	-0.240	0.833	2.369	2.469	3.052	3.187	3.313	-121.094
-1.554	-1.764	-1.880	-1.666	-0.830	-1.246	1.454	0.073	1.093	1.713	1.714	2.191	2.110	0.686	-1.282	-1.626	-1.106	-1.489	-0.926	-1.609	-0.711	-0.083	0.752	2.103	1.998	2.503	2.762	2.779	-117.188
-1.084	-1.269	-1.589	-1.224	-0.600	-1.262	1.223	-0.420	0.591	1.356	1.221	1.652	2.094	1.057	-0.833	-0.946	-0.566	-1.270	-0.487	-0.930	-0.052	0.118	0.657	1.774	1.393	1.810	2.229	2.100	-113.281
-0.575	-0.721	-1.243	-0.729	-0.331	-1.222	0.965	-0.923	0.035	0.968	0.682	1.056	2.041	1.416	-0.324	-0.219	0.038	-0.988	-0.005	-0.209	0.615	0.350	0.561	1.407	0.682	1.009	1.618	1.319	-109.375
-0.063	-0.161	-0.869	-0.221	-0.044	-1.123	0.703	-1.396	-0.531	0.582	0.130	0.447	1.954	1.725	0.214	0.496	0.659	-0.670	0.483	0.496	1.233	0.594	0.473	1.024	-0.089	0.149	0.965	0.486	-105.469
0.422	0.370	-0.496	0.263	0.238	-0.970	0.452	-1.799	-1.065	0.224	-0.401	-0.135	1.829	1.949	0.746	1.149	1.246	-0.341	0.940	1.133	1.752	0.825	0.397	0.644	-0.866	-0.712	0.307	-0.344	-101.562
0.854	0.838	-0.144	0.691	0.493	-0.771	0.221	-2.106	-1.532	-0.088	-0.885	-0.657	1.661	2.060	1.240	1.697	1.754	-0.025	1.332	1.661	2.135	1.019	0.336	0.280	-1.587	-1.514	-0.321	-1.117	-97.656
1.214	1.221	0.173	1.041	0.701	-0.542	0.012	-2.300	-1.907	-0.350	-1.305	-1.099	1.442	2.044	1.666	2.116	2.146	0.261	1.635	2.057	2.366	1.154	0.282	-0.061	-2.199	-2.204	-0.892	-1.787	-93.750
1.495	1.512	0.453	1.303	0.848	-0.304	-0.177	-2.381	-2.175	-0.565	-1.645	-1.449	1.168	1.904	2.004	2.397	2.402	0.506	1.835	2.315	2.447	1.215	0.226	-0.378	-2.659	-2.739	-1.383	-2.318	-89.844
1.697	1.715	0.703	1.477	0.926	-0.075	-0.354	-2.360	-2.334	-0.744	-1.900	-1.707	0.839	1.657	2.242	2.547	2.520	0.704	1.931	2.445	2.398	1.196	0.153	-0.673	-2.947	-3.095	-1.782	-2.693	-85.938
1.825	1.849	0.933	1.574	0.938	0.127	-0.523	-2.257	-2.389	-0.899	-2.067	-1.878	0.461	1.331	2.379	2.588	2.512	0.857	1.934	2.467	2.248	1.098	0.051	-0.953	-3.062	-3.270	-2.086	-2.911	-82.031
1.891	1.933	1.148	1.610	0.892	0.292	-0.685	-2.095	-2.351	-1.038	-2.149	-1.974	0.050	0.961	2.419	2.544	2.407	0.966	1.862	2.408	2.033	0.936	-0.087	-1.223	-3.024	-3.276	-2.298	-2.983	-78.125
1.904	1.987	1.347	1.602	0.805	0.415	-0.836	-1.898	-2.235	-1.163	-2.151	-2.006	-0.373	0.583	2.372	2.444	2.235	1.036	1.738	2.296	1.787	0.727	-0.262	-1.485	-2.869	-3.144	-2.428	-2.934	-74.219
1.874	2.022	1.513	1.567	0.696	0.500	-0.965	-1.681	-2.056	-1.270	-2.082	-1.985	-0.783	0.227	2.247	2.308	2.024	1.073	1.584	2.152	1.535	0.498	-0.465	-1.735	-2.636	-2.906	-2.484	-2.787	-70.312
1.806	2.041	1.625	1.515	0.586	0.552	-1.057	-1.458	-1.830	-1.350	-1.957	-1.920	-1.149	-0.082	2.054	2.151	1.793	1.079	1.416	1.992	1.295	0.273	-0.681	-1.960	-2.359	-2.597	-2.475	-2.572	-66.406
1.705	2.036	1.661	1.452	0.490	0.578	-1.099	-1.232	-1.571	-1.394	-1.791	-1.820	-1.444	-0.328	1.804	1.977	1.551	1.059	1.247	1.824	1.078	0.077	-0.886	-2.143	-2.067	-2.246	-2.409	-2.313	-62.500
1.568	1.999	1.604	1.379	0.421	0.584	-1.082	-1.004	-1.297	-1.394	-1.605	-1.695	-1.648	-0.506	1.510	1.785	1.295	1.014	1.082	1.651	0.885	-0.071	-1.060	-2.263	-1.777	-1.878	-2.295	-2.032	-58.594
1.396	1.919	1.453	1.296	0.384	0.574	-1.004	-0.775	-1.022	-1.350	-1.420	-1.556	-1.747	-0.615	1.187	1.574	1.018	0.943	0.920	1.472	0.715	-0.159	-1.180	-2.300	-1.493	-1.511	-2.139	-1.750	-54.688
1.186	1.793	1.219	1.203	0.377	0.551	-0.872	-0.543	-0.759	-1.267	-1.254	-1.416	-1.737	-0.662	0.854	1.339	0.716	0.846	0.759	1.287	0.565	-0.183	-1.233	-2.239	-1.214	-1.159	-1.952	-1.482	-50.781
0.937	1.625	0.927	1.099	0.395	0.515	-0.697	-0.311	-0.515	-1.153	-1.118	-1.285	-1.625	-0.655	0.529	1.081	0.384	0.722	0.591	1.092	0.428	-0.149	-1.212	-2.074	-0.937	-0.833	-1.744	-1.245	-46.875
0.652	1.420	0.612	0.987	0.429	0.471	-0.495	-0.079	-0.293	-1.017	-1.013	-1.173	-1.423	-0.607	0.228	0.801	0.027	0.573	0.410	0.885	0.301	-0.069	-1.118	-1.810	-0.657	-0.540	-1.523	-1.045	-42.969
0.341	1.189	0.308	0.868	0.470	0.419	-0.279	0.152	-0.085	-0.863	-0.931	-1.080	-1.149	-0.530	-0.037	0.501	-0.349	0.401	0.208	0.662	0.176	0.038	-0.961	-1.463	-0.372	-0.286	-1.296	-0.885	-39.062
0.017	0.939	0.044	0.744	0.507	0.365	-0.059	0.378	0.119	-0.690	-0.851	-1.003	-0.822	-0.437	-0.264	0.186	-0.731	0.210	-0.021	0.423	0.051	0.149	-0.756	-1.056	-0.083	-0.072	-1.064	-0.762	-35.156
-0.302	0.677	-0.163	0.617	0.532	0.310	0.160	0.600	0.335	-0.495	-0.749	-0.929	-0.458	-0.337	-0.458	-0.139	-1.109	0.006	-0.277	0.170	-0.079	0.244	-0.522	-0.618	0.205	0.104	-0.829	-0.663	-31.250
-0.594	0.408	-0.314	0.485	0.538	0.256	0.375	0.813	0.574	-0.270	-0.604	-0.844	-0.076	-0.235	-0.630	-0.466	-1.470	-0.204	-0.555	-0.091	-0.210	0.310	-0.279	-0.177	0.487	0.246	-0.587	-0.574	-27.344
-0.840	0.138	-0.419	0.352	0.518	0.203	0.587	1.012	0.839	-0.013	-0.403	-0.734	0.308	-0.134	-0.793	-0.783	-1.803	-0.411	-0.839	-0.346	-0.336	0.340	-0.046	0.236	0.752	0.361	-0.340	-0.483	-23.438
-1.021	-0.120	-0.498	0.223	0.472	0.151	0.791	1.187	1.121	0.270	-0.148	-0.594	0.680	-0.032	-0.956	-1.071	-2.094	-0.606	-1.110	-0.572	-0.442	0.338	0.159	0.600	0.989	0.451	-0.093	-0.381	-19.531
-1.125	-0.348	-0.572	0.108	0.403	0.098	0.979	1.323	1.395	0.561	0.139	-0.428	1.022	0.077	-1.120	-1.307	-2.328	-0.778	-1.340	-0.745	-0.510	0.316	0.322	0.894	1.181	0.516	0.143	-0.273	-15.625
-1.140	-0.521	-0.650	0.023	0.319	0.044	1.135	1.400	1.625	0.830	0.419	-0.256	1.315	0.199	-1.272	-1.465	-2.483	-0.913	-1.501	-0.836	-0.522	0.291	0.434	1.109	1.313	0.550	0.350	-0.173	-11.719
-1.058	-0.613	-0.730	-0.014	0.235	-0.012	1.241	1.396	1.766	1.040	0.643	-0.104	1.542	0.340	-1.389	-1.520	-2.542	-0.997	-1.568	-0.821	-0.459	0.279	0.490	1.236	1.368	0.540	0.503	-0.104	-7.812
-0.876	-0.602	-0.792	0.013	0.165	-0.066	1.276	1.290	1.775	1.152	0.759	-0.008	1.687	0.498	-1.439	-1.453	-2.486	-1.019	-1.525	-0.683	-0.312	0.295	0.492	1.275	1.330	0.472	0.582	-0.092	-3.906
-0.592	-0.476	-0.809	0.113	0.125	-0.118	1.226	1.070	1.620	1.135	0.727	0.006	1.741	0.668	-1.392	-1.256	-2.308	-0.971	-1.368	-0.423	-0.082	0.344	0.446	1.232	1.193	0.336	0.570	-0.158	0.000
-0.210	-0.238	-0.751	0.284	0.122	-0.166	1.085	0.730	1.288	0.975	0.528	-0.078	1.704	0.838	-1.224	-0.940	-2.011	-0.854	-1.110	-0.056	0.218	0.423	0.362	1.116	0.959	0.128	0.464	-0.309	3.906
0.254	0.091	-0.599	0.513	0.161	-0.209	0.862	0.281	0.789	0.682	0.174	-0.257	1.587	0.993	-0.928	-0.528	-1.615	-0.674	-0.776	0.384	0.561	0.521	0.252	0.943	0.641	-0.144	0.277	-0.533	7.812
0.780	0.476	-0.354	0.774	0.235	-0.251	0.581	-0.256	0.157	0.288	-0.297	-0.506	1.414	1.117	-0.519	-0.059	-1.152	-0.449	-0.405	0.852	0.914	0.621	0.130	0.735	0.261	-0.463	0.037	-0.799	11.719
1.338	0.873	-0.037	1.035	0.331	-0.293	0.274	-0.847	-0.551	-0.154	-0.821	-0.783	1.215	1.200	-0.032	0.423	-0.663	-0.199	-0.037	1.301	1.242	0.703	0.005	0.512	-0.155	-0.801	-0.218	-1.064	15.625
1.896	1.238	0.310	1.268	0.436	-0.337	-0.018	-1.450	-1.274	-0.584	-1.324	-1.041	1.024	1.237	0.486	0.875	-0.190	0.053	0.289	1.684	1.512	0.751	-0.116	0.295	-0.580	-1.129	-0.448	-1.285	19.531
2.426	1.536	0.641	1.447	0.535	-0.381	-0.261	-2.025	-1.950	-0.946	-1.741	-1.236	0.868	1.234	0.982	1.264	0.233	0.289	0.549	1.973	1.704	0.756	-0.230	0.098	-0.992	-1.425	-0.620	-1.426	23.438
2.905	1.744	0.916	1.562	0.621	-0.421	-0.429	-2.537	-2.531	-1.201	-2.027	-1.346	0.766	1.202	1.410	1.571	0.585	0.500	0.732	2.156	1.813	0.719	-0.336	-0.073	-1.378	-1.677	-0.719	-1.476	27.344
3.321	1.860	1.113	1.618	0.695	-0.445	-0.515	-2.958	-2.988	-1.338	-2.171	-1.372	0.719	1.160	1.746	1.795	0.863	0.684	0.848	2.246	1.853	0.651	-0.436	-0.223	-1.733	-1.890	-0.750	-1.450	31.250
3.668	1.903	1.235	1.633	0.763	-0.443	-0.530	-3.277	-3.320	-1.375	-2.203	-1.351	0.713	1.125	1.986	1.952	1.081	0.851	0.924	2.273	1.849	0.573	-0.527	-0.362	-2.057	-2.083	-0.744	-1.394	35.156
3.952	1.903	1.311	1.638	0.838	-0.399	-0.504	-3.489	-3.542	-1.359	-2.184	-1.341	0.720	1.111	2.150	2.072	1.267	1.017	0.998	2.282	1.838	0.513	-0.603	-0.507	-2.357	-2.284	-0.746	-1.373	39.062
4.183	1.900	1.384	1.667	0.932	-0.302	-0.475	-3.601	-3.687	-1.354	-2.202	-1.422	0.702	1.123	2.276	2.188	1.455	1.202	1.110	2.318	1.853	0.498	-0.654	-0.677	-2.635	-2.528	-0.815	-1.465	42.969
4.375	1.933	1.501	1.750	1.053	-0.143	-0.485	-3.622	-3.789	-1.427	-2.345	-1.669	0.621	1.155	2.408	2.331	1.674	1.421	1.292	2.418	1.918	0.548	-0.669	-0.886	-2.888	-2.841	-1.003	-1.742	46.875
4.544	2.029	1.696	1.905	1.202	0.074	-0.571	-3.557	-3.871	-1.637	-2.689	-2.140	0.446	1.190	2.579	2.519	1.938	1.684	1.555	2.599	2.040	0.672	-0.634	-1.144	-3.103	-3.235	-1.351	-2.251	50.781
4.699	2.194	1.982	2.133	1.367	0.340	-0.754	-3.405	-3.940	-2.012	-3.270	-2.861	0.157	1.202	2.804	2.748	2.238	1.989	1.887	2.851	2.208	0.863	-0.541	-1.449	-3.259	-3.699	-1.873	-3.008	54.688
4.839	2.408	2.342	2.411	1.526	0.634	-1.037	-3.153	-3.975	-2.549	-4.077	-3.805	-0.250	1.163	3.069	2.990	2.545	2.323	2.252	3.140	2.387	1.095	-0.389	-1.792	-3.325	-4.198	-2.553	-3.981	58.594
4.950	2.625	2.733	2.697	1.647	0.927	-1.406	-2.781	-3.929	-3.207	-5.040	-4.901	-0.762	1.045	3.330	3.197	2.808	2.662	2.589	3.403	2.528	1.331	-0.187	-2.154	-3.270	-4.671	-3.342	-5.092	62.500
5.004	2.782	3.099	2.931	1.694	1.186	-1.824	-2.260	-3.733	-3.912	-6.042	-6.031	-1.351	0.826	3.522	3.303	2.965	2.973	2.828	3.564	2.575	1.523	0.044	-2.510	-3.066	-5.044	-4.168	-6.225	66.406
4.963	2.810	3.379	3.052	1.634	1.381	-2.247	-1.567	-3.317	-4.572	-6.930	-7.053	-1.982	0.493	3.575	3.242	2.960	3.218	2.902	3.545	2.471	1.624	0.273	-2.836	-2.696	-5.239	-4.943	-7.244	70.312
4.792	2.651	3.521	3.007	1.442	1.484	-2.622	-0.690	-2.618	-5.088	-7.546	-7.819	-2.614	0.044	3.425	2.960	2.751	3.359	2.761	3.286	2.172	1.594	0.466	-3.109	-2.163	-5.188	-5.581	-8.007	74.219
4.462	2.271	3.491	2.762	1.112	1.481	-2.902	0.363	-1.606	-5.373	-7.750	-8.201	-3.206	-0.508	3.030	2.428	2.320	3.362	2.382	2.751	1.658	1.411	0.590	-3.310	-1.486	-4.847	-6.004	-8.395	78.125
3.960	1.670	3.275	2.311	0.654	1.365	-3.047	1.555	-0.293	-5.367	-7.449	-8.112	-3.718	-1.138	2.381	1.652	1.682	3.204	1.776	1.946	0.935	1.073	0.618	-3.424	-0.702	-4.202	-6.153	-8.322	82.031
3.293	0.885	2.879	1.680	0.098	1.144	-3.033	2.819	1.257	-5.041	-6.608	-7.515	-4.114	-1.809	1.503	0.672	0.876	2.872	0.985	0.916	0.043	0.601	0.542	-3.440	0.143	-3.269	-5.996	-7.749	85.938
2.490	-0.023	2.327	0.919	-0.509	0.833	-2.850	4.062	2.937	-4.403	-5.264	-6.430	-4.361	-2.471	0.450	-0.441	-0.038	2.371	0.079	-0.257	-0.952	0.038	0.366	-3.347	0.999	-2.092	-5.522	-6.687	89.844
1.599	-0.975	1.656	0.097	-1.112	0.457	-2.506	5.174	4.603	-3.496	-3.513	-4.933	-4.432	-3.070	-0.698	-1.596	-0.989	1.719	-0.859	-1.471	-1.963	-0.556	0.112	-3.138	1.821	-0.732	-4.747	-5.196	93.750
0.681	-1.891	0.912	-0.712	-1.655	0.039	-2.024	6.040	6.098	-2.392	-1.505	-3.140	-4.307	-3.547	-1.853	-2.699	-1.906	0.949	-1.744	-2.612	-2.897	-1.117	-0.183	-2.804	2.574	0.738	-3.704	-3.372	97.656
-0.196	-2.703	0.145	-1.442	-2.088	-0.396	-1.441	6.560	7.274	-1.179	0.586	-1.192	-3.978	-3.851	-2.925	-3.659	-2.726	0.107	-2.502	-3.579	-3.664	-1.579	-0.480	-2.342	3.231	2.240	-2.445	-1.341	101.562
-0.966	-3.363	-0.594	-2.038	-2.375	-0.824	-0.799	6.665	8.018	0.046	2.582	0.761	-3.449	-3.944	-3.835	-4.411	-3.401	-0.755	-3.077	-4.292	-4.195	-1.893	-0.736	-1.755	3.778	3.697	-1.035	0.760	105.469
-1.571	-3.844	-1.261	-2.468	-2.498	-1.226	-0.142	6.330	8.268	1.193	4.328	2.581	-2.738	-3.806	-4.525	-4.911	-3.900	-1.581	-3.441	-4.703	-4.449	-2.025	-0.920	-1.060	4.200	5.032	0.445	2.791	109.375
-1.971	-4.142	-1.822	-2.723	-2.458	-1.582	0.487	5.585	8.024	2.192	5.708	4.155	-1.879	-3.443	-4.963	-5.150	-4.213	-2.320	-3.591	-4.804	-4.422	-1.970	-1.013	-0.289	4.490	6.178	1.912	4.627	113.281
-2.152	-4.268	-2.256	-2.811	-2.273	-1.876	1.055	4.506	7.347	2.995	6.660	5.405	-0.919	-2.885	-5.147	-5.146	-4.348	-2.925	-3.548	-4.624	-4.140	-1.747	-1.015	0.515	4.638	7.076	3.278	6.163	117.188
-2.120	-4.248	-2.560	-2.757	-1.979	-2.095	1.539	3.212	6.352	3.584	7.178	6.295	0.084	-2.183	-5.105	-4.939	-4.328	-3.365	-3.353	-4.223	-3.660	-1.399	-0.945	1.295	4.638	7.686	4.463	7.329	121.094
-1.907	-4.110	-2.742	-2.597	-1.618	-2.232	1.928	1.844	5.185	3.967	7.311	6.829	1.068	-1.403	-4.883	-4.587	-4.190	-3.625	-3.061	-3.676	-3.055	-0.987	-0.834	1.989	4.486	7.990	5.401	8.094	125.000
-1.559	-3.889	-2.827	-2.370	-1.237	-2.289	2.221	0.548	4.007	4.173	7.144	7.046	1.971	-0.617	-4.544	-4.153	-3.978	-3.710	-2.729	-3.068	-2.404	-0.577	-0.725	2.540	4.185	7.992	6.048	8.460	128.906
-1.128	-3.616	-2.840	-2.114	-0.876	-2.274	2.427	-0.549	2.965	4.243	6.788	7.008	2.739	0.107	-4.151	-3.696	-3.739	-3.644	-2.411	-2.474	-1.777	-0.234	-0.659	2.901	3.748	7.723	6.382	8.466	132.812
-0.664	-3.319	-2.809	-1.857	-0.565	-2.203	2.562	-1.350	2.177	4.223	6.358	6.790	3.329	0.715	-3.762	-3.262	-3.509	-3.468	-2.149	-1.948	-1.227	-0.008	-0.673	3.040	3.190	7.224	6.404	8.169	136.719
-0.204	-3.017	-2.755	-1.621	-0.319	-2.093	2.644	-1.806	1.716	4.154	5.952	6.464	3.714	1.169	-3.413	-2.879	-3.315	-3.232	-1.966	-1.522	-0.786	0.071	-0.789	2.948	2.531	6.548	6.138	7.641	140.625
0.234	-2.720	-2.685	-1.413	-0.139	-1.961	2.688	-1.910	1.603	4.067	5.643	6.091	3.885	1.453	-3.122	-2.555	-3.166	-2.987	-1.867	-1.200	-0.462	0.000	-1.015	2.630	1.790	5.742	5.617	6.949	144.531
0.647	-2.428	-2.594	-1.227	-0.013	-1.819	2.705	-1.699	1.814	3.979	5.467	5.713	3.850	1.568	-2.882	-2.278	-3.052	-2.775	-1.835	-0.962	-0.243	-0.201	-1.340	2.112	0.983	4.844	4.885	6.151	148.438
1.049	-2.132	-2.465	-1.050	0.081	-1.674	2.698	-1.244	2.282	3.892	5.425	5.353	3.632	1.533	-2.669	-2.022	-2.949	-2.623	-1.838	-0.775	-0.103	-0.493	-1.741	1.432	0.125	3.880	3.988	5.291	152.344
1.456	-1.817	-2.276	-0.863	0.165	-1.523	2.664	-0.633	2.915	3.797	5.488	5.012	3.263	1.380	-2.448	-1.756	-2.826	-2.542	-1.837	-0.601	-0.011	-0.824	-2.182	0.633	-0.772	2.868	2.972	4.396	156.250
1.885	-1.468	-2.009	-0.648	0.258	-1.362	2.594	0.044	3.615	3.681	5.608	4.680	2.783	1.144	-2.188	-1.452	-2.655	-2.525	-1.796	-0.404	0.065	-1.141	-2.621	-0.234	-1.692	1.819	1.883	3.485	160.156
2.341	-1.074	-1.656	-0.392	0.372	-1.182	2.479	0.706	4.289	3.528	5.732	4.342	2.232	0.862	-1.871	-1.097	-2.416	-2.555	-1.685	-0.166	0.149	-1.399	-3.019	-1.117	-2.613	0.749	0.768	2.569	164.062
2.813	-0.637	-1.223	-0.095	0.508	-0.979	2.312	1.297	4.869	3.328	5.818	3.984	1.648	0.566	-1.495	-0.693	-2.108	-2.608	-1.493	0.117	0.254	-1.565	-3.339	-1.969	-3.501	-0.315	-0.328	1.664	167.969
3.276	-0.172	-0.734	0.232	0.657	-0.753	2.095	1.787	5.316	3.080	5.836	3.598	1.062	0.277	-1.081	-0.264	-1.749	-2.663	-1.230	0.427	0.379	-1.627	-3.554	-2.744	-4.314	-1.336	-1.359	0.791	171.875
3.693	0.291	-0.224	0.565	0.800	-0.512	1.837	2.177	5.623	2.792	5.776	3.187	0.497	0.005	-0.668	0.153	-1.374	-2.705	-0.921	0.729	0.510	-1.593	-3.649	-3.406	-4.998	-2.260	-2.280	-0.021	175.781
4.022	0.713	0.266	0.873	0.914	-0.270	1.557	2.490	5.812	2.482	5.647	2.763	-0.031	-0.249	-0.303	0.510	-1.030	-2.731	-0.609	0.982	0.623	-1.485	-3.626	-3.927	-5.498	-3.029	-3.053	-0.737	179.688
4.223	1.052	0.688	1.122	0.979	-0.047	1.280	2.763	5.924	2.173	5.468	2.341	-0.508	-0.495	-0.037	0.760	-0.767	-2.749	-0.343	1.142	0.688	-1.339	-3.499	-4.290	-5.763	-3.584	-3.645	-1.322	183.594
4.265	1.268	0.998	1.282	0.977	0.139	1.032	3.040	6.009	1.893	5.265	1.943	-0.929	-0.741	0.089	0.865	-0.628	-2.777	-0.169	1.174	0.675	-1.193	-3.294	-4.489	-5.753	-3.873	-4.036	-1.743	187.500
4.131	1.334	1.159	1.334	0.899	0.270	0.836	3.354	6.113	1.666	5.062	1.589	-1.287	-0.999	0.045	0.803	-0.642	-2.836	-0.124	1.056	0.564	-1.080	-3.040	-4.528	-5.445	-3.862	-4.217	-1.976	191.406
3.822	1.236	1.147	1.267	0.745	0.333	0.710	3.728	6.268	1.513	4.882	1.295	-1.578	-1.273	-0.185	0.568	-0.819	-2.945	-0.225	0.785	0.345	-1.024	-2.769	-4.420	-4.837	-3.531	-4.190	-2.011	195.312
3.349	0.975	0.952	1.082	0.523	0.320	0.661	4.168	6.491	1.444	4.742	1.079	-1.798	-1.562	-0.600	0.169	-1.151	-3.121	-0.475	0.368	0.019	-1.036	-2.506	-4.182	-3.949	-2.886	-3.970	-1.846	199.219
2.734	0.563	0.580	0.786	0.244	0.228	0.689	4.661	6.784	1.466	4.655	0.953	-1.942	-1.858	-1.188	-0.369	-1.617	-3.369	-0.856	-0.173	-0.398	-1.117	-2.270	-3.835	-2.817	-1.945	-3.576	-1.492	203.125
2.004	0.021	0.055	0.392	-0.079	0.060	0.786	5.183	7.136	1.577	4.632	0.930	-2.006	-2.150	-1.930	-1.019	-2.187	-3.689	-1.341	-0.811	-0.884	-1.257	-2.072	-3.401	-1.489	-0.747	-3.031	-0.964	207.031
1.188	-0.628	-0.592	-0.086	-0.430	-0.175	0.943	5.702	7.524	1.770	4.683	1.022	-1.983	-2.422	-2.799	-1.751	-2.831	-4.077	-1.896	-1.518	-1.412	-1.440	-1.915	-2.896	-0.021	0.661	-2.357	-0.283	210.938
0.313	-1.356	-1.320	-0.631	-0.796	-0.466	1.148	6.187	7.926	2.037	4.813	1.236	-1.867	-2.656	-3.762	-2.536	-3.524	-4.525	-2.489	-2.266	-1.955	-1.652	-1.798	-2.333	1.529	2.226	-1.575	0.531	214.844
-0.594	-2.138	-2.087	-1.225	-1.164	-0.795	1.394	6.608	8.319	2.367	5.024	1.575	-1.653	-2.836	-4.786	-3.351	-4.250	-5.022	-3.095	-3.030	-2.487	-1.875	-1.717	-1.722	3.106	3.888	-0.702	1.453	218.750
-1.509	-2.947	-2.856	-1.849	-1.520	-1.146	1.675	6.945	8.683	2.749	5.313	2.033	-1.338	-2.948	-5.831	-4.178	-4.999	-5.560	-3.695	-3.790	-2.989	-2.100	-1.667	-1.069	4.659	5.587	0.242	2.457	222.656
-2.405	-3.761	-3.597	-2.485	-1.853	-1.501	1.987	7.190	9.005	3.169	5.666	2.597	-0.923	-2.984	-6.859	-4.999	-5.763	-6.124	-4.278	-4.526	-3.445	-2.315	-1.641	-0.381	6.142	7.260	1.237	3.515	226.562
-3.256	-4.558	-4.285	-3.115	-2.153	-1.847	2.323	7.343	9.277	3.611	6.065	3.243	-0.422	-2.944	-7.832	-5.799	-6.532	-6.698	-4.837	-5.225	-3.845	-2.517	-1.633	0.331	7.517	8.852	2.257	4.593	230.469
-4.037	-5.320	-4.903	-3.723	-2.416	-2.175	2.675	7.417	9.499	4.059	6.484	3.939	0.147	-2.837	-8.715	-6.563	-7.292	-7.263	-5.368	-5.873	-4.189	-2.700	-1.637	1.051	8.754	10.310	3.272	5.656	234.375
-4.729	-6.032	-5.442	-4.300	-2.641	-2.479	3.030	7.429	9.674	4.495	6.898	4.652	0.752	-2.680	-9.483	-7.274	-8.022	-7.798	-5.867	-6.460	-4.477	-2.862	-1.646	1.756	9.832	11.594	4.249	6.666	238.281
-5.317	-6.681	-5.896	-4.838	-2.833	-2.759	3.371	7.404	9.813	4.900	7.282	5.347	1.356	-2.498	-10.123	-7.918	-8.695	-8.283	-6.327	-6.983	-4.718	-3.002	-1.653	2.422	10.740	12.676	5.157	7.591	242.188
-5.796	-7.258	-6.265	-5.335	-3.002	-3.015	3.679	7.363	9.928	5.257	7.619	5.993	1.919	-2.317	-10.629	-8.481	-9.284	-8.702	-6.740	-7.438	-4.922	-3.116	-1.652	3.021	11.477	13.543	5.964	8.405	246.094
-6.169	-7.755	-6.553	-5.791	-3.159	-3.249	3.934	7.327	10.031	5.555	7.900	6.566	2.403	-2.164	-11.008	-8.955	-9.764	-9.044	-7.096	-7.827	-5.101	-3.205	-1.639	3.527	12.048	14.195	6.645	9.086	250.000
-6.439	-8.167	-6.766	-6.209	-3.318	-3.464	4.118	7.310	10.134	5.781	8.122	7.047	2.775	-2.060	-11.272	-9.331	-10.116	-9.303	-7.385	-8.152	-5.260	-3.268	-1.613	3.923	12.463	14.642	7.181	9.622	253.906
-6.611	-8.492	-6.910	-6.587	-3.488	-3.661	4.216	7.317	10.241	5.928	8.284	7.424	3.016	-2.018	-11.434	-9.605	-10.331	-9.474	-7.595	-8.414	-5.404	-3.308	-1.576	4.194	12.732	14.901	7.562	10.008	257.812
-6.688	-8.731	-6.990	-6.920	-3.675	-3.841	4.222	7.344	10.347	5.993	8.388	7.690	3.118	-2.037	-11.504	-9.774	-10.409	-9.559	-7.717	-8.610	-5.527	-3.326	-1.532	4.340	12.864	14.990	7.783	10.241	261.719
-6.671	-8.883	-7.011	-7.198	-3.874	-4.006	4.135	7.377	10.443	5.973	8.431	7.840	3.089	-2.106	-11.490	-9.838	-10.359	-9.559	-7.747	-8.731	-5.616	-3.325	-1.490	4.367	12.868	14.931	7.849	10.326	265.625
-6.560	-8.952	-6.973	-7.406	-4.071	-4.157	3.966	7.398	10.513	5.874	8.413	7.877	2.952	-2.205	-11.395	-9.795	-10.196	-9.478	-7.684	-8.766	-5.654	-3.310	-1.458	4.289	12.750	14.742	7.773	10.270	269.531
-6.363	-8.938	-6.878	-7.526	-4.246	-4.296	3.734	7.387	10.539	5.705	8.331	7.806	2.741	-2.305	-11.222	-9.647	-9.944	-9.324	-7.535	-8.704	-5.622	-3.283	-1.444	4.128	12.519	14.445	7.577	10.088	273.438
-6.095	-8.842	-6.734	-7.539	-4.374	-4.419	3.463	7.329	10.511	5.481	8.191	7.642	2.495	-2.381	-10.974	-9.400	-9.626	-9.114	-7.312	-8.535	-5.505	-3.248	-1.456	3.910	12.185	14.063	7.291	9.799	277.344
-5.778	-8.664	-6.551	-7.433	-4.429	-4.525	3.182	7.213	10.420	5.224	8.001	7.407	2.254	-2.410	-10.662	-9.064	-9.266	-8.866	-7.035	-8.259	-5.296	-3.208	-1.499	3.663	11.765	13.621	6.948	9.431	281.250
-5.439	-8.406	-6.348	-7.204	-4.396	-4.608	2.922	7.039	10.270	4.960	7.779	7.131	2.052	-2.380	-10.299	-8.652	-8.886	-8.605	-6.726	-7.887	-4.999	-3.164	-1.574	3.414	11.281	13.150	6.586	9.017	285.156
-5.109	-8.074	-6.149	-6.861	-4.266	-4.662	2.709	6.813	10.070	4.714	7.546	6.846	1.916	-2.288	-9.906	-8.188	-8.507	-8.353	-6.406	-7.440	-4.632	-3.115	-1.672	3.187	10.759	12.675	6.242	8.592	289.062
-4.817	-7.681	-5.979	-6.426	-4.048	-4.681	2.561	6.549	9.834	4.509	7.325	6.583	1.863	-2.139	-9.505	-7.696	-8.145	-8.130	-6.096	-6.948	-4.219	-3.057	-1.783	3.002	10.226	12.224	5.947	8.190	292.969
-4.586	-7.248	-5.859	-5.935	-3.761	-4.662	2.494	6.262	9.579	4.365	7.134	6.366	1.899	-1.942	-9.120	-7.203	-7.815	-7.949	-5.808	-6.444	-3.788	-2.981	-1.886	2.876	9.712	11.815	5.726	7.839	296.875
-4.434	-6.803	-5.807	-5.431	-3.432	-4.605	2.514	5.970	9.320	4.289	6.983	6.212	2.027	-1.708	-8.770	-6.736	-7.529	-7.812	-5.548	-5.958	-3.366	-2.877	-1.958	2.820	9.241	11.462	5.592	7.559	300.781
-4.366	-6.377	-5.831	-4.956	-3.094	-4.514	2.621	5.684	9.067	4.285	6.871	6.125	2.243	-1.444	-8.472	-6.316	-7.298	-7.715	-5.313	-5.512	-2.972	-2.731	-1.976	2.840	8.832	11.169	5.550	7.359	304.688
-4.382	-6.003	-5.927	-4.549	-2.776	-4.397	2.808	5.414	8.825	4.347	6.789	6.097	2.541	-1.153	-8.233	-5.957	-7.131	-7.649	-5.097	-5.117	-2.618	-2.535	-1.923	2.938	8.499	10.932	5.594	7.236	308.594
-4.469	-5.705	-6.084	-4.235	-2.497	-4.266	3.064	5.162	8.597	4.464	6.721	6.114	2.911	-0.837	-8.055	-5.665	-7.033	-7.604	-4.894	-4.774	-2.304	-2.282	-1.788	3.110	8.246	10.742	5.712	7.176	312.500
-4.611	-5.499	-6.285	-4.026	-2.269	-4.133	3.373	4.927	8.379	4.625	6.654	6.158	3.342	-0.495	-7.935	-5.440	-7.003	-7.573	-4.695	-4.474	-2.026	-1.974	-1.570	3.349	8.073	10.588	5.886	7.163	316.406
-4.794	-5.388	-6.511	-3.917	-2.091	-4.012	3.719	4.707	8.170	4.818	6.579	6.217	3.824	-0.129	-7.871	-5.276	-7.033	-7.551	-4.498	-4.204	-1.772	-1.621	-1.282	3.646	7.973	10.460	6.104	7.179	320.312
-5.011	-5.363	-6.751	-3.892	-1.953	-3.919	4.083	4.503	7.973	5.036	6.500	6.286	4.342	0.255	-7.865	-5.163	-7.105	-7.540	-4.302	-3.954	-1.534	-1.238	-0.941	3.989	7.937	10.356	6.355	7.215	324.219
-5.263	-5.404	-7.005	-3.927	-1.840	-3.865	4.451	4.318	7.795	5.277	6.433	6.369	4.881	0.647	-7.923	-5.090	-7.197	-7.546	-4.109	-3.716	-1.305	-0.843	-0.572	4.369	7.956	10.280	6.633	7.269	328.125
-5.563	-5.484	-7.281	-3.993	-1.738	-3.860	4.811	4.157	7.649	5.539	6.401	6.476	5.428	1.034	-8.054	-5.048	-7.283	-7.576	-3.922	-3.488	-1.084	-0.456	-0.200	4.776	8.021	10.241	6.939	7.347	332.031
-5.924	-5.577	-7.592	-4.067	-1.637	-3.909	5.155	4.032	7.553	5.824	6.428	6.622	5.967	1.398	-8.265	-5.031	-7.339	-7.643	-3.745	-3.278	-0.879	-0.097	0.151	5.200	8.122	10.252	7.274	7.461	335.938
-6.355	-5.662	-7.946	-4.133	-1.531	-4.011	5.479	3.953	7.524	6.133	6.538	6.816	6.482	1.723	-8.553	-5.036	-7.352	-7.755	-3.584	-3.097	-0.699	0.218	0.459	5.631	8.249	10.320	7.635	7.620	339.844
-6.855	-5.728	-8.343	-4.182	-1.422	-4.156	5.781	3.932	7.579	6.459	6.737	7.060	6.958	1.994	-8.904	-5.061	-7.318	-7.920	-3.445	-2.958	-0.559	0.473	0.707	6.053	8.389	10.446	8.014	7.825	343.750
-7.402	-5.772	-8.764	-4.215	-1.316	-4.328	6.060	3.976	7.725	6.792	7.017	7.341	7.382	2.201	-9.290	-5.109	-7.245	-8.139	-3.335	-2.872	-0.471	0.660	0.880	6.449	8.531	10.618	8.394	8.065	347.656
-7.960	-5.804	-9.173	-4.239	-1.218	-4.501	6.312	4.089	7.957	7.112	7.345	7.632	7.739	2.341	-9.671	-5.179	-7.154	-8.399	-3.261	-2.847	-0.441	0.774	0.975	6.804	8.662	10.814	8.750	8.313	351.562
-8.478	-5.835	-9.522	-4.261	-1.134	-4.648	6.530	4.263	8.254	7.391	7.661	7.889	8.016	2.414	-10.000	-5.270	-7.063	-8.676	-3.225	-2.880	-0.467	0.820	0.994	7.100	8.771	11.000	9.052	8.527	355.469
-8.899	-5.876	-9.762	-4.290	-1.065	-4.741	6.703	4.486	8.574	7.593	7.892	8.059	8.204	2.430	-10.233	-5.377	-6.988	-8.931	-3.223	-2.961	-0.541	0.811	0.953	7.327	8.850	11.137	9.270	8.658	359.375
-9.170	-5.934	-9.850	-4.327	-1.005	-4.755	6.814	4.732	8.864	7.678	7.955	8.085	8.295	2.398	-10.330	-5.489	-6.933	-9.117	-3.242	-3.071	-0.645	0.769	0.879	7.479	8.897	11.183	9.374	8.652	363.281
-9.254	-6.005	-9.760	-4.367	-0.948	-4.676	6.848	4.970	9.066	7.615	7.777	7.916	8.289	2.331	-10.269	-5.593	-6.889	-9.186	-3.263	-3.190	-0.760	0.718	0.806	7.555	8.912	11.106	9.347	8.469	367.188
-9.136	-6.078	-9.493	-4.403	-0.888	-4.504	6.793	5.166	9.128	7.385	7.319	7.529	8.189	2.241	-10.047	-5.678	-6.838	-9.103	-3.265	-3.297	-0.868	0.683	0.766	7.563	8.899	10.889	9.188	8.091	371.094
-8.830	-6.139	-9.078	-4.429	-0.821	-4.256	6.648	5.292	9.016	6.995	6.590	6.934	8.009	2.137	-9.686	-5.733	-6.760	-8.855	-3.232	-3.380	-0.957	0.683	0.786	7.517	8.867	10.543	8.913	7.535	375.000
-8.384	-6.178	-8.572	-4.442	-0.754	-3.964	6.425	5.325	8.729	6.486	5.659	6.191	7.774	2.024	-9.232	-5.759	-6.642	-8.459	-3.160	-3.437	-1.029	0.721	0.876	7.436	8.826	10.105	8.566	6.864	378.906
-7.868	-6.199	-8.047	-4.453	-0.698	-3.673	6.150	5.260	8.300	5.927	4.655	5.406	7.515	1.903	-8.752	-5.770	-6.488	-7.963	-3.061	-3.482	-1.095	0.789	1.027	7.343	8.792	9.644	8.211	6.181	382.812
-7.369	-6.217	-7.585	-4.479	-0.675	-3.432	5.864	5.107	7.794	5.411	3.747	4.719	7.270	1.775	-8.319	-5.790	-6.320	-7.443	-2.967	-3.541	-1.177	0.862	1.211	7.263	8.777	9.248	7.926	5.619	386.719
-6.975	-6.260	-7.252	-4.546	-0.706	-3.285	5.615	4.888	7.294	5.039	3.117	4.282	7.076	1.636	-8.005	-5.851	-6.175	-6.983	-2.915	-3.648	-1.303	0.903	1.383	7.215	8.793	9.006	7.788	5.317	390.625
-6.751	-6.360	-7.093	-4.680	-0.806	-3.262	5.449	4.640	6.888	4.898	2.917	4.222	6.962	1.484	-7.859	-5.984	-6.096	-6.663	-2.947	-3.837	-1.497	0.875	1.497	7.214	8.839	8.991	7.857	5.386	394.531
-6.730	-6.543	-7.116	-4.895	-0.981	-3.368	5.399	4.398	6.646	5.039	3.240	4.617	6.942	1.315	-7.898	-6.210	-6.124	-6.538	-3.095	-4.131	-1.779	0.745	1.508	7.260	8.907	9.232	8.160	5.884	398.438
-6.902	-6.817	-7.288	-5.194	-1.222	-3.584	5.479	4.198	6.608	5.469	4.093	5.471	7.012	1.130	-8.102	-6.535	-6.278	-6.625	-3.370	-4.535	-2.153	0.498	1.388	7.342	8.972	9.708	8.676	6.793	402.344
-7.212	-7.170	-7.545	-5.557	-1.502	-3.868	5.680	4.063	6.774	6.141	5.390	6.704	7.148	0.930	-8.414	-6.943	-6.556	-6.900	-3.759	-5.035	-2.607	0.135	1.132	7.437	8.997	10.345	9.338	8.018	406.250
-7.574	-7.561	-7.804	-5.948	-1.785	-4.160	5.968	4.003	7.103	6.962	6.961	8.165	7.313	0.724	-8.749	-7.395	-6.922	-7.299	-4.224	-5.594	-3.112	-0.317	0.759	7.512	8.944	11.021	10.043	9.392	410.156
-7.889	-7.932	-7.977	-6.316	-2.027	-4.395	6.291	4.011	7.523	7.809	8.582	9.653	7.465	0.521	-9.012	-7.839	-7.320	-7.733	-4.708	-6.159	-3.628	-0.813	0.311	7.533	8.772	11.594	10.668	10.711	414.062
-8.061	-8.217	-7.998	-6.606	-2.186	-4.519	6.590	4.065	7.941	8.550	10.013	10.955	7.565	0.334	-9.113	-8.217	-7.678	-8.104	-5.143	-6.673	-4.106	-1.293	-0.151	7.470	8.456	11.921	11.093	11.763	417.969
-8.024	-8.358	-7.828	-6.772	-2.229	-4.493	6.809	4.132	8.260	9.069	11.036	11.878	7.589	0.181	-8.985	-8.477	-7.926	-8.323	-5.464	-7.080	-4.502	-1.692	-0.559	7.309	7.988	11.893	11.228	12.374	421.875
-7.747	-8.321	-7.469	-6.785	-2.141	-4.304	6.907	4.171	8.399	9.285	11.499	12.292	7.531	0.083	-8.600	-8.580	-8.008	-8.327	-5.621	-7.337	-4.775	-1.952	-0.851	7.054	7.383	11.456	11.032	12.435	425.781
-7.246	-8.103	-6.956	-6.641	-1.925	-3.969	6.866	4.145	8.301	9.170	11.338	12.146	7.408	0.058	-7.969	-8.515	-7.900	-8.094	-5.592	-7.421	-4.901	-2.030	-0.979	6.731	6.679	10.620	10.520	11.927	429.688
-6.574	-7.734	-6.351	-6.364	-1.603	-3.531	6.692	4.021	7.950	8.750	10.589	11.480	7.256	0.122	-7.148	-8.293	-7.609	-7.644	-5.381	-7.333	-4.870	-1.908	-0.921	6.382	5.930	9.466	9.765	10.925	433.594
-5.817	-7.274	-5.734	-5.999	-1.210	-3.050	6.421	3.780	7.366	8.101	9.379	10.415	7.123	0.287	-6.222	-7.953	-7.178	-7.036	-5.022	-7.094	-4.691	-1.594	-0.686	6.062	5.197	8.131	8.886	9.587	437.500
-5.071	-6.801	-5.186	-5.606	-0.792	-2.592	6.101	3.420	6.604	7.337	7.903	9.130	7.060	0.555	-5.297	-7.547	-6.672	-6.355	-4.570	-6.742	-4.386	-1.128	-0.309	5.825	4.543	6.781	8.021	8.121	441.406
-4.433	-6.390	-4.776	-5.245	-0.391	-2.218	5.791	2.954	5.743	6.582	6.386	7.828	7.108	0.917	-4.478	-7.135	-6.168	-5.699	-4.091	-6.325	-3.988	-0.565	0.154	5.716	4.016	5.588	7.307	6.751	445.312
-3.984	-6.102	-4.554	-4.966	-0.044	-1.973	5.545	2.412	4.874	5.952	5.044	6.699	7.291	1.354	-3.849	-6.772	-5.737	-5.155	-3.648	-5.894	-3.538	0.023	0.636	5.758	3.648	4.695	6.851	5.673	449.219
-3.776	-5.973	-4.538	-4.799	0.224	-1.875	5.401	1.835	4.083	5.533	4.045	5.889	7.609	1.836	-3.464	-6.497	-5.429	-4.792	-3.291	-5.492	-3.074	0.569	1.073	5.952	3.445	4.191	6.709	5.022	453.125
-3.826	-6.002	-4.720	-4.749	0.404	-1.917	5.379	1.273	3.441	5.368	3.492	5.473	8.034	2.329	-3.336	-6.329	-5.270	-4.646	-3.047	-5.148	-2.634	1.015	1.412	6.271	3.393	4.103	6.884	4.855	457.031
-4.112	-6.162	-5.060	-4.798	0.500	-2.068	5.472	0.770	2.993	5.453	3.402	5.457	8.518	2.793	-3.436	-6.264	-5.255	-4.716	-2.923	-4.877	-2.243	1.324	1.618	6.666	3.459	4.393	7.321	5.142	460.938
-4.583	-6.402	-5.499	-4.910	0.527	-2.283	5.655	0.367	2.758	5.744	3.722	5.778	8.999	3.191	-3.709	-6.280	-5.359	-4.969	-2.907	-4.680	-1.920	1.480	1.678	7.078	3.597	4.970	7.926	5.782	464.844
-5.164	-6.663	-5.966	-5.042	0.505	-2.513	5.888	0.091	2.730	6.165	4.344	6.328	9.411	3.491	-4.079	-6.344	-5.540	-5.347	-2.974	-4.544	-1.672	1.490	1.601	7.442	3.760	5.709	8.583	6.630	468.750
-5.768	-6.889	-6.391	-5.151	0.454	-2.714	6.123	-0.046	2.879	6.630	5.129	6.976	9.697	3.673	-4.466	-6.420	-5.751	-5.780	-3.093	-4.450	-1.499	1.379	1.409	7.704	3.904	6.479	9.178	7.523	472.656
-6.315	-7.036	-6.712	-5.207	0.392	-2.855	6.314	-0.049	3.162	7.050	5.936	7.596	9.820	3.725	-4.799	-6.476	-5.951	-6.201	-3.236	-4.378	-1.393	1.182	1.135	7.827	3.999	7.160	9.615	8.310	476.562
-6.734	-7.079	-6.887	-5.193	0.328	-2.923	6.423	0.064	3.525	7.354	6.640	8.084	9.762	3.651	-5.024	-6.487	-6.107	-6.554	-3.377	-4.308	-1.342	0.939	0.818	7.797	4.027	7.664	9.832	8.875	480.469
-6.979	-7.014	-6.900	-5.108	0.268	-2.922	6.423	0.261	3.910	7.492	7.151	8.372	9.531	3.464	-5.106	-6.441	-6.198	-6.803	-3.498	-4.224	-1.334	0.691	0.496	7.622	3.991	7.945	9.809	9.154	484.375
-7.029	-6.853	-6.760	-4.965	0.209	-2.868	6.303	0.501	4.265	7.440	7.419	8.434	9.156	3.192	-5.037	-6.335	-6.212	-6.936	-3.586	-4.120	-1.354	0.469	0.201	7.333	3.906	8.002	9.563	9.138	488.281
-6.893	-6.622	-6.502	-4.788	0.147	-2.786	6.065	0.741	4.542	7.204	7.434	8.283	8.680	2.867	-4.832	-6.176	-6.149	-6.957	-3.634	-3.991	-1.390	0.299	-0.041	6.973	3.795	7.872	9.145	8.866	492.188
-6.597	-6.352	-6.178	-4.601	0.075	-2.705	5.726	0.942	4.708	6.809	7.223	7.962	8.154	2.526	-4.523	-5.977	-6.013	-6.887	-3.639	-3.843	-1.427	0.194	-0.212	6.593	3.688	7.621	8.630	8.419	496.094
-6.185	-6.078	-5.849	-4.431	-0.013	-2.651	5.311	1.071	4.744	6.302	6.841	7.534	7.626	2.205	-4.160	-5.751	-5.814	-6.756	-3.603	-3.683	-1.454	0.159	-0.306	6.242	3.611	7.328	8.097	7.894	500.000
-5.710	-5.828	-5.574	-4.293	-0.120	-2.644	4.854	1.108	4.648	5.738	6.355	7.070	7.139	1.936	-3.795	-5.514	-5.562	-6.595	-3.527	-3.519	-1.459	0.190	-0.324	5.957	3.578	7.067	7.619	7.390	503.906
-5.223	-5.623	-5.399	-4.195	-0.243	-2.695	4.388	1.049	4.437	5.174	5.838	6.633	6.722	1.740	-3.479	-5.275	-5.271	-6.435	-3.416	-3.359	-1.431	0.276	-0.275	5.763	3.592	6.894	7.249	6.989	507.812
-4.768	-5.473	-5.348	-4.136	-0.379	-2.804	3.949	0.902	4.140	4.660	5.357	6.270	6.392	1.632	-3.249	-5.040	-4.949	-6.297	-3.274	-3.206	-1.364	0.403	-0.175	5.667	3.644	6.839	7.012	6.738	511.719
-4.380	-5.378	-5.423	-4.104	-0.517	-2.964	3.564	0.688	3.795	4.237	4.960	6.006	6.150	1.611	-3.126	-4.810	-4.607	-6.195	-3.103	-3.057	-1.253	0.558	-0.039	5.658	3.712	6.897	6.907	6.648	515.625
-4.077	-5.328	-5.600	-4.086	-0.648	-3.157	3.255	0.438	3.442	3.924	4.675	5.840	5.990	1.671	-3.113	-4.582	-4.247	-6.131	-2.906	-2.908	-1.100	0.727	0.116	5.715	3.770	7.034	6.903	6.692	519.531
-3.863	-5.302	-5.835	-4.064	-0.756	-3.361	3.030	0.181	3.117	3.726	4.504	5.752	5.895	1.795	-3.193	-4.350	-3.875	-6.097	-2.682	-2.748	-0.909	0.903	0.275	5.804	3.789	7.194	6.954	6.812	523.438
-3.725	-5.277	-6.074	-4.024	-0.828	-3.552	2.888	-0.049	2.850	3.629	4.430	5.702	5.844	1.961	-3.338	-4.109	-3.490	-6.079	-2.435	-2.568	-0.688	1.079	0.429	5.891	3.745	7.314	7.004	6.935	527.344
-3.642	-5.225	-6.264	-3.953	-0.853	-3.704	2.818	-0.230	2.655	3.605	4.416	5.647	5.815	2.150	-3.508	-3.854	-3.095	-6.054	-2.165	-2.360	-0.448	1.253	0.572	5.943	3.623	7.329	6.998	6.984	531.250
-3.585	-5.123	-6.360	-3.843	-0.821	-3.800	2.796	-0.344	2.533	3.616	4.415	5.540	5.789	2.343	-3.664	-3.582	-2.693	-6.004	-1.876	-2.119	-0.195	1.428	0.704	5.935	3.419	7.194	6.892	6.894	535.156
-3.526	-4.953	-6.338	-3.691	-0.729	-3.825	2.797	-0.388	2.471	3.619	4.379	5.345	5.747	2.525	-3.768	-3.290	-2.291	-5.912	-1.573	-1.842	0.061	1.605	0.826	5.850	3.141	6.887	6.663	6.625	539.062
-3.442	-4.707	-6.192	-3.497	-0.582	-3.776	2.789	-0.370	2.443	3.575	4.261	5.040	5.677	2.685	-3.793	-2.981	-1.902	-5.770	-1.263	-1.535	0.316	1.788	0.946	5.687	2.810	6.419	6.308	6.168	542.969
-3.323	-4.393	-5.939	-3.268	-0.390	-3.660	2.744	-0.310	2.415	3.450	4.030	4.622	5.570	2.818	-3.722	-2.659	-1.539	-5.577	-0.953	-1.207	0.563	1.976	1.069	5.457	2.461	5.829	5.851	5.550	546.875
-3.164	-4.029	-5.609	-3.017	-0.173	-3.494	2.642	-0.234	2.354	3.226	3.670	4.110	5.423	2.918	-3.554	-2.334	-1.219	-5.340	-0.656	-0.874	0.797	2.164	1.201	5.181	2.134	5.186	5.336	4.828	550.781
-2.972	-3.646	-5.245	-2.760	0.046	-3.301	2.473	-0.169	2.232	2.901	3.190	3.543	5.237	2.981	-3.302	-2.019	-0.957	-5.072	-0.385	-0.556	1.007	2.344	1.345	4.890	1.871	4.568	4.818	4.085	554.688
-2.760	-3.281	-4.892	-2.519	0.244	-3.111	2.242	-0.142	2.033	2.493	2.617	2.972	5.020	3.006	-2.997	-1.734	-0.765	-4.791	-0.156	-0.275	1.184	2.501	1.500	4.617	1.713	4.059	4.359	3.409	558.594
-2.546	-2.970	-4.589	-2.318	0.399	-2.951	1.971	-0.166	1.760	2.038	2.003	2.458	4.787	2.995	-2.677	-1.496	-0.651	-4.519	0.017	-0.053	1.318	2.624	1.660	4.393	1.687	3.727	4.016	2.887	562.500
-2.351	-2.746	-4.368	-2.177	0.500	-2.844	1.692	-0.244	1.433	1.585	1.411	2.057	4.556	2.954	-2.391	-1.325	-0.617	-4.278	0.123	0.095	1.402	2.700	1.818	4.243	1.804	3.614	3.829	2.583	566.406
-2.194	-2.628	-4.248	-2.114	0.546	-2.800	1.445	-0.365	1.088	1.189	0.907	1.816	4.353	2.892	-2.186	-1.235	-0.660	-4.090	0.155	0.161	1.433	2.724	1.962	4.180	2.055	3.732	3.819	2.532	570.312
-2.092	-2.625	-4.234	-2.132	0.544	-2.818	1.270	-0.506	0.771	0.901	0.554	1.763	4.201	2.820	-2.099	-1.228	-0.772	-3.970	0.109	0.147	1.415	2.697	2.079	4.206	2.411	4.054	3.983	2.733	574.219
-2.052	-2.726	-4.315	-2.229	0.513	-2.884	1.197	-0.637	0.531	0.763	0.396	1.904	4.122	2.753	-2.152	-1.302	-0.942	-3.929	-0.007	0.065	1.355	2.623	2.158	4.310	2.830	4.527	4.294	3.151	578.125
-2.073	-2.910	-4.474	-2.386	0.473	-2.976	1.246	-0.731	0.408	0.796	0.453	2.222	4.128	2.698	-2.350	-1.441	-1.160	-3.966	-0.184	-0.066	1.265	2.515	2.194	4.474	3.259	5.078	4.711	3.723	582.031
-2.144	-3.147	-4.683	-2.580	0.445	-3.067	1.417	-0.763	0.427	1.003	0.722	2.681	4.226	2.664	-2.677	-1.622	-1.413	-4.071	-0.404	-0.225	1.159	2.385	2.187	4.671	3.647	5.628	5.184	4.373	585.938
-2.249	-3.404	-4.912	-2.781	0.444	-3.135	1.694	-0.720	0.592	1.365	1.171	3.233	4.407	2.652	-3.099	-1.821	-1.688	-4.227	-0.647	-0.388	1.049	2.249	2.143	4.879	3.955	6.106	5.661	5.020	589.844
-2.365	-3.649	-5.132	-2.963	0.478	-3.165	2.050	-0.605	0.886	1.845	1.750	3.821	4.656	2.661	-3.571	-2.013	-1.972	-4.407	-0.893	-0.538	0.945	2.117	2.075	5.074	4.155	6.460	6.098	5.595	593.750
-2.468	-3.854	-5.313	-3.102	0.547	-3.151	2.446	-0.432	1.270	2.395	2.392	4.391	4.951	2.688	-4.041	-2.177	-2.254	-4.581	-1.120	-0.661	0.854	1.996	1.997	5.243	4.241	6.661	6.462	6.044	597.656
-2.539	-4.001	-5.435	-3.182	0.645	-3.094	2.845	-0.230	1.689	2.962	3.027	4.893	5.267	2.732	-4.459	-2.300	-2.521	-4.719	-1.312	-0.751	0.779	1.893	1.922	5.376	4.218	6.705	6.735	6.337	601.562
-2.561	-4.077	-5.482	-3.197	0.764	-3.002	3.209	-0.033	2.084	3.493	3.590	5.292	5.582	2.795	-4.782	-2.373	-2.762	-4.797	-1.456	-0.805	0.723	1.808	1.861	5.475	4.107	6.606	6.912	6.467	605.469
-2.528	-4.081	-5.450	-3.147	0.896	-2.885	3.512	0.121	2.398	3.944	4.025	5.567	5.878	2.882	-4.980	-2.395	-2.966	-4.801	-1.547	-0.826	0.691	1.743	1.819	5.543	3.929	6.394	6.998	6.446	609.375
-2.442	-4.019	-5.347	-3.039	1.035	-2.750	3.737	0.203	2.583	4.283	4.297	5.709	6.147	3.002	-5.041	-2.367	-3.125	-4.728	-1.583	-0.816	0.686	1.701	1.795	5.589	3.711	6.104	7.007	6.299	613.281
-2.305	-3.907	-5.188	-2.884	1.179	-2.604	3.879	0.190	2.613	4.490	4.388	5.724	6.385	3.163	-4.968	-2.294	-3.230	-4.588	-1.566	-0.774	0.716	1.687	1.786	5.621	3.470	5.766	6.953	6.058	617.188
-2.126	-3.764	-4.995	-2.698	1.330	-2.446	3.941	0.079	2.479	4.559	4.301	5.628	6.593	3.371	-4.778	-2.181	-3.278	-4.394	-1.502	-0.701	0.784	1.706	1.789	5.643	3.218	5.402	6.847	5.750	621.094
-1.905	-3.612	-4.789	-2.496	1.489	-2.274	3.935	-0.122	2.195	4.493	4.052	5.438	6.772	3.622	-4.498	-2.033	-3.265	-4.162	-1.398	-0.597	0.893	1.763	1.801	5.656	2.958	5.020	6.698	5.399	625.000
-1.643	-3.470	-4.589	-2.293	1.656	-2.087	3.873	-0.387	1.791	4.304	3.668	5.172	6.920	3.908	-4.157	-1.856	-3.192	-3.906	-1.260	-0.461	1.042	1.861	1.819	5.654	2.685	4.617	6.503	5.016	628.906
-1.336	-3.350	-4.403	-2.101	1.828	-1.881	3.768	-0.684	1.311	4.010	3.180	4.845	7.030	4.208	-3.781	-1.658	-3.062	-3.636	-1.094	-0.297	1.222	1.997	1.847	5.625	2.392	4.181	6.259	4.604	632.812
-0.984	-3.255	-4.228	-1.928	1.996	-1.660	3.631	-0.976	0.802	3.631	2.621	4.468	7.092	4.498	-3.388	-1.445	-2.877	-3.356	-0.905	-0.112	1.421	2.165	1.886	5.558	2.072	3.697	5.957	4.158	636.719
-0.592	-3.179	-4.056	-1.774	2.151	-1.427	3.469	-1.228	0.312	3.188	2.020	4.047	7.090	4.751	-2.987	-1.226	-2.644	-3.067	-0.699	0.083	1.622	2.354	1.940	5.443	1.722	3.154	5.590	3.671	640.625
-0.173	-3.109	-3.870	-1.637	2.282	-1.190	3.285	-1.413	-0.121	2.702	1.407	3.586	7.007	4.940	-2.580	-1.008	-2.371	-2.766	-0.480	0.274	1.809	2.549	2.012	5.272	1.345	2.548	5.154	3.137	644.531
0.254	-3.026	-3.651	-1.507	2.377	-0.959	3.082	-1.513	-0.469	2.190	0.803	3.085	6.831	5.045	-2.168	-0.798	-2.068	-2.451	-0.253	0.447	1.964	2.732	2.103	5.044	0.952	1.887	4.652	2.553	648.438
0.670	-2.912	-3.386	-1.374	2.434	-0.738	2.861	-1.524	-0.718	1.669	0.227	2.549	6.550	5.048	-1.749	-0.601	-1.746	-2.119	-0.027	0.589	2.073	2.888	2.210	4.763	0.557	1.186	4.091	1.923	652.344
1.056	-2.752	-3.066	-1.229	2.453	-0.531	2.621	-1.452	-0.871	1.152	-0.307	1.981	6.160	4.945	-1.326	-0.417	-1.418	-1.764	0.192	0.694	2.127	3.004	2.328	4.435	0.178	0.466	3.482	1.254	656.250
1.403	-2.539	-2.695	-1.065	2.441	-0.337	2.364	-1.316	-0.944	0.647	-0.791	1.389	5.667	4.736	-0.905	-0.246	-1.097	-1.385	0.400	0.759	2.122	3.071	2.452	4.070	-0.172	-0.249	2.840	0.559	660.156
1.707	-2.275	-2.286	-0.877	2.410	-0.153	2.091	-1.138	-0.963	0.162	-1.219	0.783	5.083	4.433	-0.498	-0.083	-0.794	-0.982	0.591	0.790	2.062	3.090	2.575	3.678	-0.483	-0.937	2.179	-0.147	664.062
1.976	-1.969	-1.860	-0.667	2.372	0.023	1.803	-0.946	-0.957	-0.298	-1.590	0.177	4.432	4.053	-0.117	0.078	-0.515	-0.557	0.764	0.797	1.956	3.065	2.694	3.267	-0.752	-1.578	1.517	-0.848	667.969
2.221	-1.637	-1.443	-0.438	2.339	0.191	1.504	-0.767	-0.958	-0.728	-1.905	-0.413	3.744	3.622	0.227	0.242	-0.262	-0.118	0.921	0.794	1.819	3.008	2.806	2.848	-0.983	-2.161	0.870	-1.523	671.875
2.455	-1.299	-1.055	-0.200	2.319	0.349	1.197	-0.625	-0.991	-1.124	-2.169	-0.966	3.053	3.166	0.531	0.410	-0.035	0.324	1.062	0.791	1.669	2.931	2.908	2.430	-1.184	-2.676	0.258	-2.154	675.781
2.693	-0.978	-0.712	0.035	2.315	0.489	0.888	-0.537	-1.071	-1.479	-2.386	-1.461	2.394	2.714	0.795	0.581	0.168	0.753	1.189	0.796	1.521	2.845	2.998	2.025	-1.366	-3.117	-0.299	-2.718	679.688
2.943	-0.695	-0.421	0.252	2.324	0.605	0.588	-0.512	-1.202	-1.786	-2.560	-1.878	1.803	2.293	1.024	0.747	0.348	1.149	1.300	0.812	1.389	2.759	3.070	1.646	-1.536	-3.476	-0.779	-3.192	683.594
3.207	-0.472	-0.184	0.434	2.336	0.686	0.308	-0.549	-1.376	-2.035	-2.689	-2.196	1.311	1.922	1.223	0.896	0.504	1.493	1.392	0.833	1.280	2.677	3.120	1.311	-1.696	-3.749	-1.159	-3.551	687.500
3.476	-0.326	0.001	0.563	2.338	0.725	0.061	-0.638	-1.574	-2.213	-2.772	-2.396	0.939	1.618	1.397	1.014	0.629	1.768	1.462	0.851	1.197	2.601	3.142	1.040	-1.843	-3.927	-1.417	-3.775	691.406
3.732	-0.272	0.134	0.621	2.315	0.714	-0.139	-0.766	-1.773	-2.312	-2.804	-2.467	0.701	1.389	1.544	1.089	0.717	1.966	1.507	0.855	1.133	2.533	3.133	0.851	-1.966	-4.002	-1.532	-3.843	695.312
3.946	-0.320	0.211	0.596	2.255	0.646	-0.282	-0.920	-1.952	-2.325	-2.779	-2.404	0.601	1.240	1.660	1.111	0.759	2.085	1.523	0.834	1.081	2.476	3.095	0.763	-2.047	-3.963	-1.492	-3.747	699.219
4.087	-0.469	0.224	0.482	2.147	0.520	-0.363	-1.089	-2.096	-2.251	-2.698	-2.213	0.635	1.169	1.738	1.075	0.746	2.131	1.513	0.782	1.031	2.433	3.034	0.788	-2.066	-3.803	-1.291	-3.484	703.125
4.123	-0.716	0.163	0.281	1.990	0.335	-0.384	-1.271	-2.202	-2.100	-2.562	-1.904	0.790	1.175	1.771	0.983	0.675	2.112	1.478	0.698	0.977	2.413	2.962	0.934	-2.004	-3.519	-0.934	-3.063	707.031
4.034	-1.048	0.018	0.007	1.789	0.093	-0.351	-1.470	-2.275	-1.884	-2.382	-1.496	1.051	1.255	1.756	0.844	0.544	2.038	1.425	0.584	0.919	2.421	2.891	1.198	-1.845	-3.111	-0.434	-2.505	710.938
3.814	-1.444	-0.220	-0.320	1.556	-0.197	-0.274	-1.695	-2.332	-1.621	-2.170	-1.010	1.403	1.405	1.690	0.669	0.359	1.915	1.359	0.450	0.859	2.463	2.834	1.570	-1.586	-2.592	0.185	-1.837	714.844
3.473	-1.877	-0.551	-0.670	1.309	-0.521	-0.169	-1.953	-2.389	-1.331	-1.943	-0.467	1.826	1.618	1.579	0.476	0.129	1.748	1.284	0.307	0.806	2.537	2.800	2.029	-1.234	-1.984	0.891	-1.095	718.750
3.040	-2.316	-0.964	-1.013	1.067	-0.864	-0.048	-2.249	-2.461	-1.034	-1.716	0.108	2.304	1.887	1.430	0.281	-0.133	1.544	1.203	0.169	0.773	2.637	2.793	2.543	-0.815	-1.322	1.645	-0.319	722.656
2.557	-2.726	-1.434	-1.318	0.853	-1.205	0.074	-2.584	-2.561	-0.747	-1.504	0.692	2.817	2.199	1.259	0.102	-0.410	1.313	1.117	0.050	0.769	2.753	2.808	3.072	-0.366	-0.651	2.400	0.447	726.562
2.074	-3.075	-1.924	-1.561	0.684	-1.522	0.185	-2.949	-2.692	-0.485	-1.317	1.262	3.344	2.538	1.085	-0.044	-0.683	1.070	1.027	-0.037	0.806	2.869	2.839	3.573	0.063	-0.025	3.109	1.161	730.469
1.645	-3.337	-2.389	-1.723	0.576	-1.794	0.274	-3.331	-2.854	-0.263	-1.162	1.792	3.862	2.885	0.931	-0.143	-0.934	0.836	0.933	-0.080	0.892	2.970	2.869	4.003	0.422	0.502	3.724	1.782	734.375
1.315	-3.494	-2.781	-1.797	0.538	-2.002	0.334	-3.712	-3.040	-0.090	-1.046	2.257	4.344	3.227	0.822	-0.182	-1.146	0.633	0.839	-0.066	1.034	3.042	2.882	4.327	0.663	0.876	4.201	2.273	738.281
1.117	-3.537	-3.056	-1.783	0.573	-2.131	0.360	-4.073	-3.243	0.022	-0.973	2.629	4.767	3.550	0.783	-0.151	-1.303	0.483	0.751	0.012	1.233	3.076	2.861	4.517	0.750	1.053	4.503	2.601	742.188
1.065	-3.467	-3.182	-1.687	0.678	-2.170	0.348	-4.394	-3.451	0.066	-0.945	2.883	5.107	3.847	0.835	-0.045	-1.396	0.400	0.678	0.162	1.490	3.068	2.795	4.563	0.660	1.003	4.603	2.743	746.094
1.150	-3.294	-3.144	-1.521	0.847	-2.116	0.296	-4.662	-3.654	0.038	-0.961	3.000	5.345	4.115	0.991	0.137	-1.418	0.392	0.630	0.387	1.802	3.021	2.677	4.464	0.394	0.716	4.489	2.686	750.000
1.346	-3.032	-2.947	-1.298	1.065	-1.974	0.206	-4.863	-3.839	-0.061	-1.018	2.972	5.467	4.353	1.250	0.389	-1.368	0.453	0.617	0.682	2.159	2.945	2.512	4.232	-0.031	0.204	4.165	2.432	753.906
1.614	-2.701	-2.616	-1.032	1.316	-1.757	0.080	-4.992	-3.995	-0.224	-1.105	2.803	5.468	4.559	1.596	0.700	-1.249	0.568	0.648	1.040	2.549	2.851	2.312	3.889	-0.580	-0.498	3.652	1.998	757.812
1.910	-2.326	-2.197	-0.740	1.578	-1.488	-0.077	-5.044	-4.109	-0.438	-1.209	2.514	5.348	4.728	1.996	1.049	-1.070	0.717	0.723	1.441	2.952	2.754	2.097	3.460	-1.206	-1.334	2.988	1.420	761.719
2.198	-1.933	-1.742	-0.439	1.827	-1.191	-0.255	-5.022	-4.172	-0.686	-1.313	2.137	5.115	4.847	2.407	1.414	-0.844	0.878	0.840	1.860	3.343	2.665	1.889	2.973	-1.855	-2.234	2.224	0.750	765.625
2.448	-1.556	-1.308	-0.148	2.039	-0.895	-0.442	-4.926	-4.174	-0.947	-1.402	1.719	4.780	4.903	2.781	1.766	-0.592	1.030	0.992	2.264	3.691	2.590	1.710	2.456	-2.473	-3.118	1.421	0.050	769.531
2.645	-1.226	-0.942	0.113	2.190	-0.627	-0.627	-4.762	-4.111	-1.198	-1.460	1.307	4.360	4.877	3.074	2.078	-0.333	1.165	1.165	2.621	3.968	2.530	1.577	1.934	-3.013	-3.909	0.639	-0.613	773.438
2.788	-0.971	-0.676	0.323	2.262	-0.408	-0.799	-4.535	-3.983	-1.421	-1.480	0.945	3.871	4.754	3.255	2.329	-0.086	1.283	1.348	2.901	4.148	2.482	1.498	1.425	-3.442	-4.546	-0.068	-1.180	777.344
2.882	-0.812	-0.521	0.470	2.247	-0.250	-0.950	-4.252	-3.795	-1.606	-1.458	0.665	3.328	4.527	3.311	2.505	0.135	1.394	1.531	3.084	4.213	2.436	1.471	0.945	-3.743	-4.989	-0.666	-1.610	781.250
2.942	-0.755	-0.469	0.548	2.146	-0.156	-1.078	-3.921	-3.557	-1.749	-1.399	0.480	2.743	4.197	3.246	2.605	0.325	1.511	1.705	3.165	4.164	2.385	1.491	0.496	-3.920	-5.234	-1.142	-1.887	785.156
2.983	-0.789	-0.497	0.563	1.972	-0.117	-1.187	-3.552	-3.283	-1.856	-1.310	0.384	2.127	3.775	3.083	2.641	0.486	1.647	1.869	3.156	4.013	2.321	1.544	0.074	-3.993	-5.305	-1.508	-2.022	789.062
3.019	-0.888	-0.574	0.534	1.748	-0.117	-1.282	-3.158	-2.988	-1.937	-1.202	0.355	1.491	3.287	2.854	2.632	0.626	1.806	2.022	3.083	3.789	2.242	1.616	-0.330	-3.999	-5.255	-1.795	-2.053	792.969
3.063	-1.018	-0.669	0.483	1.501	-0.134	-1.371	-2.753	-2.685	-2.006	-1.087	0.360	0.845	2.766	2.598	2.603	0.756	1.983	2.170	2.980	3.533	2.152	1.693	-0.730	-3.980	-5.152	-2.048	-2.033	796.875
