FP1	F3	F7	FC3	C3	C5	P3	P7	PO7	PO3	O1	Oz	Pz	CPz	FP2	Fz	F4	F8	FC4	FCz	Cz	C4	C6	P4	P8	PO8	PO4	O2	time
-0.297	-0.474	-0.347	-0.597	0.251	0.283	0.356	0.832	1.047	0.828	0.561	0.657	0.792	0.964	0.173	-0.738	-2.200	-0.658	-0.893	-0.207	0.912	-0.197	-0.319	0.413	-0.098	-0.627	-0.220	-0.108	-199.219
-0.189	-0.193	-0.140	-0.337	0.365	0.320	0.373	0.724	0.851	0.687	0.357	0.388	0.795	1.011	0.315	-0.556	-2.056	-0.497	-0.869	0.004	1.048	-0.218	-0.541	0.185	-0.342	-0.793	-0.363	-0.333	-195.312
-0.081	0.074	0.044	-0.083	0.477	0.343	0.374	0.596	0.637	0.534	0.138	0.114	0.792	1.066	0.447	-0.361	-1.895	-0.329	-0.816	0.225	1.189	-0.214	-0.726	-0.018	-0.564	-0.948	-0.497	-0.552	-191.406
0.024	0.311	0.186	0.157	0.582	0.337	0.347	0.434	0.394	0.362	-0.106	-0.166	0.781	1.136	0.554	-0.146	-1.702	-0.149	-0.715	0.456	1.335	-0.169	-0.842	-0.174	-0.744	-1.078	-0.614	-0.757	-187.500
0.114	0.503	0.272	0.371	0.676	0.295	0.286	0.230	0.118	0.170	-0.377	-0.443	0.765	1.226	0.626	0.086	-1.472	0.037	-0.559	0.695	1.482	-0.069	-0.866	-0.264	-0.861	-1.164	-0.696	-0.933	-183.594
0.179	0.637	0.293	0.547	0.750	0.212	0.189	-0.014	-0.184	-0.036	-0.666	-0.704	0.749	1.330	0.650	0.322	-1.212	0.212	-0.350	0.930	1.620	0.086	-0.791	-0.274	-0.897	-1.187	-0.730	-1.061	-179.688
0.205	0.703	0.246	0.674	0.795	0.089	0.061	-0.288	-0.496	-0.241	-0.956	-0.928	0.740	1.441	0.620	0.547	-0.933	0.356	-0.103	1.146	1.737	0.288	-0.619	-0.200	-0.840	-1.132	-0.699	-1.124	-175.781
0.184	0.703	0.138	0.743	0.804	-0.067	-0.087	-0.572	-0.796	-0.430	-1.224	-1.098	0.747	1.546	0.535	0.741	-0.649	0.444	0.161	1.327	1.819	0.522	-0.369	-0.048	-0.689	-0.991	-0.598	-1.108	-171.875
0.110	0.646	-0.020	0.754	0.774	-0.248	-0.242	-0.844	-1.057	-0.586	-1.447	-1.199	0.771	1.631	0.397	0.890	-0.373	0.460	0.419	1.459	1.856	0.766	-0.071	0.166	-0.459	-0.769	-0.431	-1.012	-167.969
-0.014	0.547	-0.209	0.713	0.706	-0.440	-0.389	-1.079	-1.257	-0.696	-1.602	-1.225	0.812	1.684	0.219	0.987	-0.112	0.399	0.646	1.537	1.847	0.997	0.240	0.413	-0.175	-0.487	-0.214	-0.846	-164.062
-0.179	0.434	-0.410	0.636	0.605	-0.629	-0.515	-1.257	-1.379	-0.754	-1.673	-1.179	0.863	1.698	0.014	1.037	0.130	0.269	0.828	1.563	1.796	1.192	0.526	0.661	0.126	-0.176	0.025	-0.633	-160.156
-0.372	0.332	-0.602	0.543	0.480	-0.804	-0.609	-1.362	-1.416	-0.762	-1.653	-1.075	0.910	1.668	-0.198	1.049	0.355	0.092	0.954	1.545	1.715	1.334	0.755	0.874	0.407	0.124	0.252	-0.402	-156.250
-0.576	0.267	-0.769	0.457	0.343	-0.951	-0.667	-1.391	-1.369	-0.727	-1.545	-0.930	0.936	1.593	-0.400	1.039	0.560	-0.101	1.026	1.497	1.615	1.413	0.905	1.022	0.633	0.379	0.435	-0.184	-152.344
-0.771	0.255	-0.898	0.397	0.203	-1.063	-0.689	-1.347	-1.250	-0.662	-1.360	-0.764	0.925	1.473	-0.576	1.024	0.745	-0.279	1.050	1.432	1.511	1.425	0.968	1.084	0.781	0.560	0.549	-0.006	-148.438
-0.937	0.302	-0.979	0.376	0.070	-1.133	-0.681	-1.239	-1.074	-0.581	-1.118	-0.597	0.861	1.307	-0.713	1.017	0.905	-0.409	1.039	1.364	1.410	1.372	0.946	1.051	0.841	0.654	0.582	0.118	-144.531
-1.055	0.399	-1.007	0.393	-0.050	-1.157	-0.653	-1.080	-0.863	-0.498	-0.844	-0.443	0.732	1.099	-0.808	1.025	1.035	-0.471	1.008	1.300	1.315	1.264	0.854	0.928	0.819	0.663	0.536	0.180	-140.625
-1.114	0.526	-0.978	0.440	-0.155	-1.135	-0.616	-0.885	-0.635	-0.424	-0.564	-0.314	0.533	0.849	-0.859	1.048	1.129	-0.452	0.970	1.241	1.221	1.111	0.711	0.730	0.735	0.604	0.422	0.188	-136.719
-1.106	0.652	-0.894	0.499	-0.245	-1.069	-0.583	-0.667	-0.408	-0.366	-0.304	-0.213	0.267	0.565	-0.871	1.079	1.183	-0.354	0.936	1.186	1.120	0.929	0.544	0.479	0.617	0.504	0.264	0.155	-132.812
-1.038	0.745	-0.759	0.548	-0.324	-0.965	-0.565	-0.438	-0.196	-0.330	-0.083	-0.140	-0.055	0.255	-0.853	1.107	1.195	-0.191	0.909	1.125	1.006	0.733	0.377	0.202	0.496	0.393	0.087	0.101	-128.906
-0.921	0.778	-0.583	0.565	-0.395	-0.830	-0.570	-0.209	-0.012	-0.319	0.084	-0.090	-0.415	-0.068	-0.815	1.122	1.169	0.014	0.892	1.050	0.869	0.539	0.234	-0.072	0.404	0.301	-0.085	0.047	-125.000
-0.772	0.736	-0.382	0.537	-0.463	-0.674	-0.604	0.010	0.137	-0.335	0.192	-0.056	-0.793	-0.390	-0.767	1.112	1.108	0.232	0.882	0.953	0.708	0.362	0.135	-0.320	0.365	0.251	-0.229	0.011	-121.094
-0.610	0.618	-0.175	0.460	-0.531	-0.507	-0.669	0.209	0.243	-0.381	0.242	-0.031	-1.167	-0.697	-0.718	1.071	1.020	0.434	0.872	0.827	0.523	0.212	0.093	-0.525	0.390	0.255	-0.334	0.005	-117.188
-0.452	0.440	0.019	0.341	-0.597	-0.338	-0.762	0.380	0.304	-0.455	0.242	-0.011	-1.515	-0.977	-0.671	0.995	0.913	0.598	0.857	0.673	0.320	0.098	0.112	-0.676	0.478	0.312	-0.394	0.033	-113.281
-0.311	0.229	0.182	0.197	-0.654	-0.172	-0.876	0.514	0.317	-0.554	0.202	0.007	-1.823	-1.225	-0.629	0.887	0.796	0.713	0.830	0.493	0.107	0.023	0.189	-0.774	0.615	0.406	-0.413	0.090	-109.375
-0.194	0.018	0.304	0.051	-0.690	-0.011	-0.996	0.608	0.288	-0.673	0.136	0.019	-2.078	-1.435	-0.589	0.753	0.676	0.778	0.786	0.297	-0.103	-0.015	0.310	-0.823	0.773	0.514	-0.401	0.165	-105.469
-0.102	-0.164	0.384	-0.076	-0.695	0.146	-1.105	0.659	0.222	-0.800	0.057	0.020	-2.271	-1.604	-0.547	0.597	0.556	0.801	0.722	0.092	-0.302	-0.021	0.458	-0.834	0.923	0.608	-0.371	0.242	-101.562
-0.034	-0.295	0.426	-0.170	-0.656	0.299	-1.183	0.672	0.133	-0.920	-0.023	0.007	-2.397	-1.731	-0.499	0.427	0.437	0.794	0.634	-0.111	-0.482	-0.005	0.611	-0.820	1.037	0.666	-0.335	0.305	-97.656
0.018	-0.370	0.443	-0.225	-0.569	0.449	-1.208	0.654	0.035	-1.016	-0.090	-0.023	-2.455	-1.814	-0.442	0.245	0.315	0.771	0.521	-0.305	-0.639	0.019	0.748	-0.790	1.095	0.674	-0.301	0.344	-93.750
0.066	-0.393	0.450	-0.245	-0.437	0.591	-1.167	0.616	-0.052	-1.076	-0.136	-0.067	-2.444	-1.852	-0.373	0.055	0.184	0.739	0.378	-0.487	-0.775	0.034	0.848	-0.753	1.091	0.631	-0.274	0.358	-89.844
0.124	-0.379	0.462	-0.243	-0.272	0.721	-1.055	0.567	-0.113	-1.086	-0.154	-0.117	-2.367	-1.847	-0.295	-0.142	0.040	0.705	0.206	-0.658	-0.895	0.023	0.895	-0.714	1.029	0.551	-0.252	0.352	-85.938
0.209	-0.348	0.488	-0.233	-0.089	0.829	-0.878	0.520	-0.135	-1.044	-0.141	-0.163	-2.231	-1.804	-0.209	-0.345	-0.121	0.666	0.003	-0.819	-1.009	-0.028	0.877	-0.673	0.922	0.455	-0.230	0.337	-82.031
0.328	-0.318	0.533	-0.229	0.091	0.909	-0.651	0.484	-0.109	-0.950	-0.099	-0.193	-2.043	-1.729	-0.119	-0.550	-0.296	0.621	-0.226	-0.974	-1.125	-0.130	0.793	-0.631	0.789	0.366	-0.205	0.324	-78.125
0.486	-0.302	0.593	-0.239	0.249	0.957	-0.394	0.463	-0.037	-0.811	-0.031	-0.199	-1.815	-1.630	-0.030	-0.751	-0.475	0.567	-0.470	-1.125	-1.249	-0.284	0.648	-0.588	0.647	0.300	-0.176	0.320	-74.219
0.672	-0.308	0.662	-0.267	0.373	0.971	-0.131	0.460	0.078	-0.636	0.056	-0.178	-1.556	-1.512	0.054	-0.938	-0.645	0.501	-0.715	-1.269	-1.380	-0.479	0.455	-0.542	0.505	0.266	-0.145	0.325	-70.312
0.868	-0.335	0.725	-0.312	0.453	0.954	0.120	0.475	0.222	-0.434	0.157	-0.131	-1.276	-1.380	0.131	-1.102	-0.786	0.421	-0.941	-1.402	-1.513	-0.696	0.234	-0.491	0.367	0.256	-0.116	0.330	-66.406
1.051	-0.379	0.768	-0.367	0.486	0.908	0.347	0.503	0.382	-0.212	0.265	-0.065	-0.981	-1.233	0.197	-1.232	-0.881	0.326	-1.127	-1.515	-1.634	-0.911	0.003	-0.434	0.231	0.258	-0.095	0.325	-62.500
1.193	-0.432	0.776	-0.426	0.473	0.840	0.545	0.537	0.542	0.024	0.377	0.015	-0.674	-1.070	0.252	-1.318	-0.914	0.217	-1.255	-1.600	-1.729	-1.095	-0.215	-0.366	0.090	0.253	-0.084	0.299	-58.594
1.273	-0.485	0.735	-0.483	0.420	0.754	0.717	0.568	0.688	0.270	0.488	0.102	-0.358	-0.890	0.295	-1.357	-0.878	0.094	-1.313	-1.647	-1.784	-1.227	-0.406	-0.285	-0.061	0.229	-0.080	0.249	-54.688
1.276	-0.532	0.638	-0.531	0.333	0.658	0.869	0.587	0.805	0.520	0.596	0.195	-0.034	-0.694	0.327	-1.349	-0.773	-0.041	-1.300	-1.653	-1.790	-1.292	-0.559	-0.189	-0.224	0.177	-0.075	0.179	-50.781
1.198	-0.568	0.490	-0.567	0.218	0.556	1.005	0.583	0.885	0.768	0.700	0.296	0.294	-0.487	0.351	-1.299	-0.610	-0.182	-1.223	-1.616	-1.744	-1.287	-0.670	-0.078	-0.395	0.102	-0.054	0.102	-46.875
1.048	-0.591	0.305	-0.589	0.086	0.453	1.127	0.549	0.922	1.007	0.799	0.407	0.620	-0.277	0.369	-1.218	-0.410	-0.325	-1.100	-1.539	-1.653	-1.220	-0.741	0.045	-0.568	0.012	-0.005	0.040	-42.969
0.842	-0.601	0.106	-0.598	-0.057	0.352	1.233	0.483	0.912	1.224	0.892	0.533	0.936	-0.074	0.388	-1.118	-0.192	-0.462	-0.950	-1.428	-1.527	-1.105	-0.779	0.171	-0.731	-0.077	0.082	0.009	-39.062
0.605	-0.598	-0.079	-0.594	-0.200	0.253	1.316	0.385	0.859	1.405	0.978	0.674	1.228	0.110	0.412	-1.008	0.024	-0.587	-0.793	-1.291	-1.382	-0.962	-0.792	0.292	-0.876	-0.154	0.209	0.026	-35.156
0.364	-0.581	-0.222	-0.576	-0.334	0.155	1.366	0.259	0.765	1.539	1.055	0.827	1.482	0.262	0.446	-0.897	0.222	-0.694	-0.643	-1.136	-1.234	-0.809	-0.789	0.394	-0.996	-0.213	0.367	0.090	-31.250
0.145	-0.545	-0.308	-0.542	-0.447	0.057	1.376	0.117	0.639	1.611	1.117	0.979	1.680	0.375	0.491	-0.787	0.398	-0.777	-0.505	-0.968	-1.096	-0.661	-0.776	0.468	-1.088	-0.253	0.537	0.192	-27.344
-0.030	-0.483	-0.329	-0.486	-0.529	-0.040	1.342	-0.031	0.490	1.615	1.157	1.114	1.808	0.441	0.548	-0.674	0.553	-0.831	-0.377	-0.791	-0.976	-0.528	-0.757	0.502	-1.157	-0.287	0.690	0.306	-23.438
-0.147	-0.389	-0.293	-0.401	-0.566	-0.129	1.265	-0.170	0.327	1.547	1.169	1.211	1.853	0.457	0.613	-0.553	0.694	-0.855	-0.253	-0.608	-0.877	-0.415	-0.734	0.489	-1.211	-0.331	0.798	0.401	-19.531
-0.199	-0.255	-0.218	-0.281	-0.550	-0.202	1.154	-0.289	0.161	1.412	1.142	1.251	1.810	0.426	0.680	-0.416	0.833	-0.847	-0.121	-0.419	-0.797	-0.321	-0.709	0.428	-1.260	-0.401	0.831	0.444	-15.625
-0.188	-0.082	-0.128	-0.123	-0.476	-0.246	1.022	-0.379	-0.000	1.222	1.072	1.217	1.684	0.355	0.740	-0.259	0.978	-0.809	0.024	-0.226	-0.729	-0.241	-0.679	0.323	-1.314	-0.511	0.773	0.409	-11.719
-0.123	0.125	-0.047	0.074	-0.345	-0.252	0.884	-0.441	-0.153	0.993	0.951	1.103	1.491	0.259	0.784	-0.084	1.133	-0.742	0.189	-0.032	-0.664	-0.166	-0.641	0.187	-1.375	-0.665	0.621	0.282	-7.812
-0.017	0.349	0.007	0.300	-0.165	-0.211	0.754	-0.479	-0.299	0.745	0.778	0.910	1.258	0.157	0.802	0.105	1.295	-0.654	0.369	0.159	-0.593	-0.087	-0.591	0.038	-1.440	-0.853	0.389	0.067	-3.906
0.110	0.569	0.022	0.543	0.049	-0.126	0.643	-0.508	-0.442	0.497	0.556	0.649	1.019	0.071	0.789	0.296	1.457	-0.555	0.558	0.340	-0.506	0.005	-0.524	-0.099	-1.497	-1.054	0.105	-0.216	0.000
0.239	0.764	0.001	0.786	0.278	-0.002	0.560	-0.541	-0.589	0.268	0.292	0.342	0.811	0.021	0.743	0.473	1.605	-0.462	0.740	0.506	-0.398	0.114	-0.439	-0.200	-1.528	-1.236	-0.192	-0.534	3.906
0.347	0.914	-0.048	1.010	0.505	0.149	0.506	-0.592	-0.745	0.071	0.002	0.014	0.667	0.021	0.666	0.624	1.726	-0.396	0.899	0.649	-0.266	0.239	-0.339	-0.245	-1.515	-1.368	-0.460	-0.847	7.812
0.416	1.007	-0.106	1.203	0.712	0.312	0.484	-0.668	-0.909	-0.081	-0.292	-0.303	0.608	0.080	0.567	0.735	1.803	-0.381	1.014	0.766	-0.112	0.369	-0.236	-0.227	-1.445	-1.421	-0.663	-1.114	11.719
0.434	1.039	-0.157	1.351	0.884	0.472	0.492	-0.767	-1.072	-0.175	-0.562	-0.578	0.645	0.194	0.456	0.797	1.825	-0.435	1.071	0.852	0.055	0.488	-0.149	-0.147	-1.316	-1.380	-0.771	-1.302	15.625
0.395	1.014	-0.186	1.449	1.012	0.618	0.532	-0.873	-1.214	-0.203	-0.776	-0.785	0.774	0.349	0.341	0.805	1.785	-0.565	1.056	0.903	0.221	0.575	-0.099	-0.020	-1.135	-1.247	-0.771	-1.387	19.531
0.305	0.941	-0.188	1.494	1.093	0.741	0.606	-0.962	-1.309	-0.155	-0.906	-0.903	0.978	0.524	0.228	0.760	1.682	-0.766	0.966	0.917	0.370	0.606	-0.109	0.128	-0.924	-1.041	-0.669	-1.363	23.438
0.180	0.831	-0.166	1.487	1.126	0.838	0.719	-1.004	-1.328	-0.027	-0.926	-0.922	1.233	0.696	0.122	0.667	1.523	-1.015	0.808	0.892	0.486	0.564	-0.194	0.268	-0.718	-0.800	-0.485	-1.243	27.344
0.040	0.700	-0.127	1.437	1.119	0.912	0.873	-0.971	-1.248	0.179	-0.827	-0.847	1.509	0.842	0.021	0.537	1.324	-1.277	0.598	0.832	0.559	0.441	-0.359	0.369	-0.554	-0.576	-0.256	-1.059	31.250
-0.089	0.559	-0.082	1.354	1.080	0.969	1.066	-0.842	-1.057	0.453	-0.615	-0.700	1.776	0.945	-0.070	0.386	1.105	-1.513	0.358	0.747	0.587	0.239	-0.598	0.403	-0.471	-0.425	-0.030	-0.861	35.156
-0.181	0.422	-0.037	1.253	1.022	1.015	1.289	-0.610	-0.759	0.772	-0.320	-0.518	2.004	0.997	-0.147	0.233	0.894	-1.682	0.117	0.650	0.575	-0.025	-0.890	0.350	-0.499	-0.403	0.140	-0.708	39.062
-0.214	0.300	0.010	1.150	0.957	1.061	1.524	-0.286	-0.378	1.098	0.011	-0.351	2.165	0.998	-0.199	0.098	0.719	-1.754	-0.094	0.560	0.538	-0.325	-1.204	0.202	-0.650	-0.547	0.202	-0.664	42.969
-0.174	0.202	0.071	1.058	0.897	1.114	1.744	0.108	0.048	1.386	0.316	-0.254	2.234	0.949	-0.211	-0.002	0.608	-1.711	-0.253	0.493	0.490	-0.627	-1.504	-0.042	-0.914	-0.872	0.117	-0.781	46.875
-0.056	0.133	0.163	0.987	0.847	1.177	1.918	0.537	0.477	1.589	0.530	-0.275	2.188	0.852	-0.172	-0.058	0.578	-1.551	-0.343	0.460	0.443	-0.900	-1.751	-0.368	-1.258	-1.360	-0.138	-1.091	50.781
0.127	0.094	0.305	0.942	0.808	1.251	2.013	0.968	0.869	1.664	0.601	-0.449	2.009	0.705	-0.075	-0.071	0.634	-1.291	-0.363	0.463	0.401	-1.116	-1.917	-0.754	-1.628	-1.958	-0.562	-1.597	54.688
0.354	0.080	0.506	0.919	0.775	1.332	2.005	1.372	1.201	1.582	0.495	-0.782	1.687	0.502	0.076	-0.052	0.765	-0.958	-0.323	0.492	0.354	-1.263	-1.983	-1.176	-1.956	-2.586	-1.132	-2.265	58.594
0.589	0.080	0.761	0.910	0.738	1.413	1.878	1.737	1.471	1.336	0.213	-1.257	1.221	0.230	0.263	-0.026	0.945	-0.589	-0.248	0.524	0.286	-1.340	-1.947	-1.603	-2.174	-3.144	-1.800	-3.034	62.500
0.792	0.081	1.045	0.902	0.686	1.486	1.634	2.064	1.698	0.941	-0.217	-1.827	0.618	-0.123	0.454	-0.021	1.133	-0.222	-0.170	0.531	0.171	-1.361	-1.821	-2.012	-2.226	-3.539	-2.508	-3.819	66.406
0.925	0.070	1.323	0.880	0.607	1.544	1.289	2.371	1.918	0.433	-0.738	-2.432	-0.098	-0.567	0.613	-0.065	1.287	0.112	-0.125	0.482	-0.015	-1.351	-1.634	-2.384	-2.077	-3.696	-3.190	-4.533	70.312
0.958	0.035	1.554	0.833	0.493	1.577	0.873	2.682	2.177	-0.138	-1.279	-3.002	-0.898	-1.106	0.703	-0.181	1.369	0.388	-0.143	0.351	-0.290	-1.341	-1.419	-2.708	-1.726	-3.578	-3.789	-5.096	74.219
0.877	-0.029	1.704	0.750	0.338	1.578	0.421	3.025	2.514	-0.711	-1.764	-3.472	-1.741	-1.731	0.698	-0.380	1.353	0.594	-0.247	0.122	-0.662	-1.360	-1.215	-2.979	-1.201	-3.193	-4.258	-5.453	78.125
0.686	-0.124	1.755	0.627	0.141	1.539	-0.026	3.416	2.956	-1.231	-2.124	-3.788	-2.582	-2.427	0.588	-0.660	1.230	0.723	-0.445	-0.208	-1.129	-1.431	-1.052	-3.200	-0.555	-2.586	-4.567	-5.577	82.031
0.406	-0.247	1.704	0.462	-0.096	1.453	-0.432	3.860	3.508	-1.645	-2.305	-3.914	-3.372	-3.166	0.375	-1.011	1.005	0.776	-0.733	-0.630	-1.673	-1.565	-0.952	-3.369	0.146	-1.834	-4.700	-5.463	85.938
0.065	-0.396	1.564	0.255	-0.370	1.310	-0.765	4.345	4.153	-1.915	-2.271	-3.829	-4.065	-3.911	0.077	-1.411	0.698	0.753	-1.094	-1.125	-2.272	-1.760	-0.921	-3.485	0.837	-1.016	-4.652	-5.129	89.844
-0.307	-0.571	1.356	0.006	-0.677	1.107	-1.003	4.844	4.853	-2.016	-2.010	-3.529	-4.616	-4.620	-0.285	-1.841	0.334	0.653	-1.505	-1.665	-2.895	-2.003	-0.951	-3.535	1.470	-0.200	-4.424	-4.597	93.750
-0.686	-0.776	1.099	-0.285	-1.009	0.839	-1.131	5.320	5.558	-1.936	-1.527	-3.022	-4.989	-5.248	-0.692	-2.281	-0.067	0.472	-1.941	-2.223	-3.508	-2.269	-1.023	-3.503	2.022	0.572	-4.021	-3.895	97.656
-1.062	-1.019	0.806	-0.617	-1.359	0.511	-1.143	5.738	6.220	-1.676	-0.848	-2.327	-5.157	-5.748	-1.130	-2.718	-0.490	0.202	-2.380	-2.772	-4.079	-2.530	-1.113	-3.368	2.493	1.291	-3.449	-3.046	101.562
-1.437	-1.309	0.476	-0.988	-1.715	0.134	-1.041	6.068	6.798	-1.251	-0.009	-1.472	-5.105	-6.084	-1.598	-3.146	-0.931	-0.160	-2.806	-3.290	-4.578	-2.758	-1.194	-3.109	2.907	1.979	-2.719	-2.068	105.469
-1.827	-1.657	0.100	-1.394	-2.063	-0.275	-0.830	6.295	7.268	-0.682	0.941	-0.495	-4.835	-6.228	-2.099	-3.565	-1.395	-0.614	-3.209	-3.761	-4.981	-2.931	-1.247	-2.715	3.297	2.674	-1.848	-0.983	109.375
-2.253	-2.067	-0.333	-1.823	-2.385	-0.690	-0.519	6.420	7.628	-0.000	1.954	0.560	-4.362	-6.166	-2.644	-3.976	-1.890	-1.149	-3.587	-4.174	-5.271	-3.035	-1.261	-2.189	3.694	3.413	-0.864	0.184	113.281
-2.734	-2.532	-0.830	-2.260	-2.661	-1.084	-0.121	6.460	7.892	0.760	2.982	1.642	-3.718	-5.906	-3.239	-4.379	-2.419	-1.746	-3.939	-4.522	-5.439	-3.070	-1.236	-1.550	4.120	4.221	0.194	1.397	117.188
-3.279	-3.040	-1.389	-2.682	-2.872	-1.426	0.352	6.444	8.089	1.563	3.981	2.698	-2.948	-5.471	-3.887	-4.770	-2.978	-2.377	-4.266	-4.803	-5.483	-3.044	-1.183	-0.835	4.576	5.099	1.276	2.608	121.094
-3.885	-3.563	-1.991	-3.064	-3.000	-1.691	0.880	6.404	8.251	2.370	4.917	3.678	-2.103	-4.899	-4.578	-5.138	-3.549	-3.009	-4.561	-5.012	-5.411	-2.973	-1.124	-0.096	5.043	6.020	2.325	3.763	125.000
-4.531	-4.070	-2.609	-3.383	-3.036	-1.861	1.442	6.367	8.407	3.148	5.767	4.537	-1.237	-4.241	-5.292	-5.466	-4.103	-3.613	-4.815	-5.147	-5.235	-2.878	-1.082	0.613	5.488	6.936	3.284	4.806	128.906
-5.186	-4.524	-3.208	-3.617	-2.978	-1.931	2.015	6.354	8.577	3.868	6.516	5.246	-0.399	-3.551	-6.002	-5.737	-4.602	-4.168	-5.017	-5.208	-4.972	-2.781	-1.083	1.240	5.867	7.786	4.105	5.687	132.812
-5.811	-4.889	-3.753	-3.751	-2.833	-1.907	2.572	6.371	8.773	4.509	7.163	5.793	0.369	-2.876	-6.671	-5.929	-5.006	-4.661	-5.152	-5.191	-4.641	-2.700	-1.146	1.745	6.136	8.512	4.749	6.372	136.719
-6.371	-5.138	-4.214	-3.779	-2.616	-1.807	3.087	6.412	8.990	5.058	7.713	6.182	1.041	-2.257	-7.262	-6.027	-5.281	-5.091	-5.208	-5.097	-4.262	-2.648	-1.283	2.101	6.261	9.065	5.197	6.845	140.625
-6.835	-5.253	-4.571	-3.700	-2.349	-1.654	3.536	6.462	9.220	5.506	8.177	6.434	1.602	-1.719	-7.742	-6.019	-5.404	-5.462	-5.178	-4.927	-3.852	-2.629	-1.496	2.301	6.219	9.416	5.445	7.113	144.531
-7.187	-5.228	-4.813	-3.524	-2.055	-1.477	3.903	6.501	9.449	5.855	8.569	6.579	2.046	-1.271	-8.088	-5.903	-5.371	-5.782	-5.062	-4.686	-3.426	-2.640	-1.775	2.349	6.007	9.560	5.504	7.199	148.438
-7.421	-5.072	-4.941	-3.265	-1.758	-1.299	4.175	6.510	9.663	6.109	8.903	6.648	2.378	-0.912	-8.290	-5.685	-5.195	-6.054	-4.871	-4.379	-2.996	-2.672	-2.101	2.262	5.638	9.510	5.397	7.140	152.344
-7.540	-4.805	-4.966	-2.941	-1.475	-1.141	4.351	6.478	9.853	6.277	9.191	6.673	2.602	-0.631	-8.353	-5.382	-4.905	-6.276	-4.620	-4.018	-2.569	-2.711	-2.448	2.060	5.139	9.293	5.153	6.977	156.250
-7.557	-4.459	-4.906	-2.577	-1.223	-1.014	4.436	6.403	10.020	6.370	9.445	6.677	2.725	-0.414	-8.297	-5.013	-4.542	-6.442	-4.333	-3.617	-2.153	-2.742	-2.786	1.767	4.550	8.948	4.805	6.751	160.156
-7.486	-4.070	-4.786	-2.197	-1.011	-0.921	4.441	6.296	10.171	6.401	9.674	6.674	2.753	-0.247	-8.153	-4.608	-4.149	-6.543	-4.035	-3.198	-1.755	-2.753	-3.084	1.406	3.915	8.517	4.382	6.495	164.062
-7.347	-3.676	-4.636	-1.829	-0.847	-0.859	4.386	6.179	10.319	6.386	9.886	6.671	2.692	-0.123	-7.958	-4.195	-3.772	-6.574	-3.752	-2.784	-1.386	-2.734	-3.317	0.999	3.278	8.040	3.916	6.233	167.969
-7.161	-3.313	-4.481	-1.496	-0.734	-0.821	4.293	6.082	10.480	6.342	10.083	6.667	2.551	-0.040	-7.749	-3.805	-3.444	-6.535	-3.509	-2.405	-1.059	-2.683	-3.469	0.569	2.683	7.557	3.432	5.981	171.875
-6.955	-3.010	-4.347	-1.218	-0.671	-0.796	4.189	6.036	10.672	6.286	10.269	6.658	2.340	-0.001	-7.560	-3.466	-3.190	-6.437	-3.326	-2.085	-0.789	-2.604	-3.534	0.137	2.166	7.102	2.955	5.746	175.781
-6.757	-2.790	-4.250	-1.011	-0.657	-0.770	4.094	6.069	10.906	6.234	10.439	6.634	2.072	-0.013	-7.416	-3.203	-3.023	-6.301	-3.214	-1.850	-0.590	-2.507	-3.514	-0.275	1.760	6.707	2.507	5.529	179.688
-6.594	-2.664	-4.197	-0.880	-0.687	-0.733	4.029	6.200	11.188	6.196	10.591	6.588	1.763	-0.083	-7.334	-3.035	-2.943	-6.155	-3.181	-1.714	-0.478	-2.405	-3.425	-0.648	1.487	6.397	2.105	5.328	183.594
-6.493	-2.635	-4.185	-0.827	-0.750	-0.677	4.004	6.438	11.516	6.176	10.713	6.507	1.426	-0.214	-7.322	-2.969	-2.944	-6.030	-3.222	-1.684	-0.460	-2.313	-3.285	-0.962	1.365	6.190	1.763	5.139	187.500
-6.468	-2.695	-4.206	-0.844	-0.834	-0.598	4.022	6.777	11.878	6.170	10.793	6.381	1.076	-0.407	-7.379	-3.004	-3.013	-5.953	-3.328	-1.754	-0.538	-2.241	-3.114	-1.206	1.399	6.096	1.486	4.956	191.406
-6.525	-2.830	-4.246	-0.916	-0.928	-0.496	4.074	7.200	12.254	6.167	10.813	6.199	0.722	-0.655	-7.496	-3.131	-3.134	-5.943	-3.482	-1.910	-0.705	-2.195	-2.932	-1.373	1.588	6.116	1.277	4.775	195.312
-6.656	-3.022	-4.292	-1.030	-1.017	-0.374	4.148	7.683	12.620	6.148	10.756	5.953	0.371	-0.946	-7.657	-3.330	-3.293	-6.004	-3.665	-2.131	-0.947	-2.175	-2.751	-1.464	1.923	6.243	1.131	4.592	199.219
-6.847	-3.251	-4.333	-1.171	-1.093	-0.241	4.224	8.195	12.950	6.096	10.605	5.637	0.028	-1.267	-7.849	-3.579	-3.478	-6.130	-3.860	-2.397	-1.251	-2.176	-2.578	-1.484	2.388	6.468	1.042	4.408	203.125
-7.078	-3.502	-4.372	-1.330	-1.155	-0.109	4.283	8.709	13.221	5.997	10.353	5.259	-0.304	-1.602	-8.058	-3.861	-3.681	-6.301	-4.054	-2.690	-1.600	-2.192	-2.412	-1.439	2.967	6.781	1.009	4.234	207.031
-7.334	-3.770	-4.418	-1.507	-1.207	0.006	4.312	9.198	13.419	5.848	10.004	4.833	-0.618	-1.936	-8.278	-4.160	-3.902	-6.494	-4.239	-3.000	-1.983	-2.216	-2.248	-1.336	3.645	7.180	1.035	4.089	210.938
-7.604	-4.054	-4.488	-1.706	-1.264	0.086	4.303	9.644	13.539	5.656	9.578	4.390	-0.903	-2.257	-8.508	-4.473	-4.145	-6.684	-4.419	-3.327	-2.392	-2.245	-2.081	-1.179	4.410	7.670	1.132	4.000	214.844
-7.890	-4.363	-4.604	-1.937	-1.343	0.113	4.257	10.036	13.589	5.441	9.110	3.971	-1.144	-2.553	-8.756	-4.806	-4.421	-6.858	-4.606	-3.679	-2.823	-2.282	-1.906	-0.966	5.255	8.263	1.321	4.006	218.750
-8.199	-4.709	-4.785	-2.213	-1.464	0.075	4.186	10.372	13.588	5.234	8.647	3.627	-1.323	-2.819	-9.032	-5.175	-4.749	-7.012	-4.818	-4.071	-3.277	-2.335	-1.727	-0.696	6.175	8.974	1.621	4.143	222.656
-8.547	-5.102	-5.042	-2.545	-1.642	-0.036	4.106	10.658	13.566	5.071	8.243	3.410	-1.419	-3.050	-9.347	-5.599	-5.148	-7.156	-5.078	-4.520	-3.755	-2.418	-1.554	-0.365	7.163	9.815	2.053	4.443	226.562
-8.946	-5.547	-5.373	-2.937	-1.888	-0.217	4.038	10.905	13.554	4.989	7.950	3.361	-1.418	-3.245	-9.709	-6.097	-5.636	-7.310	-5.410	-5.040	-4.257	-2.546	-1.400	0.029	8.209	10.783	2.623	4.925	230.469
-9.403	-6.043	-5.762	-3.388	-2.202	-0.457	4.004	11.125	13.580	5.015	7.812	3.509	-1.310	-3.405	-10.120	-6.681	-6.222	-7.494	-5.826	-5.635	-4.779	-2.730	-1.283	0.480	9.289	11.859	3.322	5.584	234.375
-9.915	-6.579	-6.182	-3.884	-2.572	-0.735	4.019	11.329	13.664	5.164	7.851	3.856	-1.097	-3.533	-10.573	-7.347	-6.899	-7.723	-6.330	-6.297	-5.313	-2.974	-1.218	0.975	10.373	13.000	4.123	6.392	238.281
-10.465	-7.133	-6.596	-4.406	-2.980	-1.030	4.092	11.522	13.812	5.432	8.068	4.382	-0.792	-3.633	-11.052	-8.077	-7.645	-8.000	-6.907	-7.006	-5.844	-3.274	-1.212	1.492	11.418	14.148	4.980	7.296	242.188
-11.023	-7.683	-6.972	-4.928	-3.399	-1.317	4.222	11.702	14.018	5.799	8.441	5.041	-0.417	-3.710	-11.536	-8.836	-8.416	-8.315	-7.526	-7.727	-6.357	-3.613	-1.267	2.002	12.377	15.229	5.836	8.229	246.094
-11.554	-8.199	-7.283	-5.423	-3.802	-1.580	4.397	11.862	14.259	6.230	8.925	5.773	-0.002	-3.766	-11.996	-9.577	-9.160	-8.647	-8.146	-8.420	-6.832	-3.965	-1.374	2.472	13.204	16.175	6.633	9.119	250.000
-12.016	-8.656	-7.515	-5.866	-4.168	-1.811	4.600	11.989	14.507	6.681	9.465	6.513	0.420	-3.802	-12.407	-10.249	-9.819	-8.964	-8.716	-9.042	-7.251	-4.301	-1.518	2.874	13.860	16.926	7.317	9.898	253.906
-12.372	-9.032	-7.665	-6.235	-4.479	-2.012	4.806	12.067	14.726	7.105	9.997	7.195	0.822	-3.818	-12.744	-10.801	-10.339	-9.236	-9.188	-9.554	-7.593	-4.590	-1.682	3.185	14.319	17.445	7.852	10.517	257.812
-12.595	-9.311	-7.743	-6.520	-4.730	-2.193	4.990	12.080	14.885	7.460	10.462	7.767	1.181	-3.811	-12.989	-11.195	-10.684	-9.436	-9.525	-9.924	-7.843	-4.808	-1.846	3.396	14.571	17.719	8.219	10.945	261.719
-12.669	-9.488	-7.763	-6.713	-4.918	-2.370	5.125	12.016	14.957	7.714	10.813	8.195	1.486	-3.774	-13.128	-11.405	-10.838	-9.549	-9.704	-10.134	-7.987	-4.937	-1.994	3.506	14.626	17.762	8.421	11.177	265.625
-12.594	-9.564	-7.739	-6.819	-5.051	-2.557	5.193	11.866	14.925	7.848	11.019	8.462	1.732	-3.703	-13.158	-11.425	-10.806	-9.569	-9.720	-10.178	-8.014	-4.972	-2.115	3.530	14.505	17.608	8.476	11.230	269.531
-12.387	-9.545	-7.683	-6.844	-5.134	-2.764	5.183	11.629	14.786	7.856	11.070	8.572	1.926	-3.590	-13.084	-11.265	-10.614	-9.506	-9.587	-10.063	-7.918	-4.916	-2.200	3.487	14.244	17.303	8.417	11.136	273.438
-12.078	-9.443	-7.601	-6.802	-5.176	-2.993	5.095	11.309	14.547	7.750	10.976	8.546	2.076	-3.432	-12.916	-10.950	-10.303	-9.378	-9.333	-9.806	-7.702	-4.780	-2.249	3.405	13.880	16.900	8.279	10.938	277.344
-11.706	-9.272	-7.498	-6.705	-5.182	-3.238	4.939	10.917	14.227	7.552	10.765	8.417	2.197	-3.229	-12.672	-10.514	-9.917	-9.212	-8.994	-9.433	-7.376	-4.581	-2.265	3.310	13.454	16.449	8.102	10.680	281.250
-11.316	-9.049	-7.378	-6.566	-5.157	-3.486	4.735	10.470	13.850	7.294	10.479	8.225	2.303	-2.983	-12.376	-10.000	-9.497	-9.038	-8.607	-8.974	-6.958	-4.334	-2.251	3.231	13.001	15.992	7.918	10.406	285.156
-10.953	-8.790	-7.250	-6.398	-5.104	-3.723	4.510	9.985	13.445	7.014	10.163	8.013	2.409	-2.701	-12.056	-9.448	-9.078	-8.887	-8.204	-8.462	-6.473	-4.057	-2.213	3.191	12.550	15.563	7.756	10.152	289.062
-10.654	-8.513	-7.133	-6.212	-5.027	-3.932	4.297	9.487	13.040	6.750	9.867	7.820	2.528	-2.389	-11.742	-8.898	-8.681	-8.782	-7.809	-7.928	-5.950	-3.762	-2.157	3.208	12.123	15.182	7.637	9.943	292.969
-10.444	-8.235	-7.052	-6.016	-4.928	-4.104	4.125	8.996	12.662	6.536	9.626	7.675	2.672	-2.057	-11.465	-8.380	-8.321	-8.738	-7.438	-7.400	-5.420	-3.459	-2.084	3.294	11.732	14.860	7.574	9.796	296.875
-10.333	-7.974	-7.034	-5.818	-4.811	-4.233	4.016	8.534	12.328	6.396	9.467	7.599	2.850	-1.715	-11.250	-7.921	-8.003	-8.757	-7.098	-6.898	-4.912	-3.152	-1.998	3.451	11.386	14.599	7.574	9.715	300.781
-10.314	-7.744	-7.099	-5.628	-4.680	-4.321	3.986	8.117	12.047	6.346	9.395	7.596	3.065	-1.373	-11.117	-7.534	-7.728	-8.831	-6.790	-6.439	-4.449	-2.845	-1.898	3.675	11.091	14.396	7.639	9.698	304.688
-10.373	-7.561	-7.258	-5.454	-4.539	-4.376	4.035	7.756	11.819	6.383	9.401	7.662	3.314	-1.041	-11.073	-7.225	-7.494	-8.945	-6.510	-6.034	-4.048	-2.540	-1.783	3.955	10.851	14.249	7.767	9.737	308.594
-10.485	-7.435	-7.505	-5.306	-4.396	-4.408	4.154	7.457	11.637	6.497	9.462	7.781	3.588	-0.729	-11.117	-6.994	-7.299	-9.078	-6.253	-5.688	-3.716	-2.239	-1.653	4.273	10.669	14.153	7.952	9.820	312.500
-10.630	-7.373	-7.818	-5.192	-4.253	-4.427	4.323	7.221	11.490	6.664	9.545	7.930	3.873	-0.446	-11.235	-6.832	-7.141	-9.210	-6.017	-5.400	-3.456	-1.946	-1.507	4.611	10.552	14.106	8.187	9.935	316.406
-10.794	-7.380	-8.165	-5.122	-4.118	-4.443	4.520	7.048	11.369	6.856	9.623	8.086	4.150	-0.200	-11.408	-6.728	-7.015	-9.322	-5.798	-5.168	-3.261	-1.664	-1.347	4.948	10.504	14.108	8.459	10.069	320.312
-10.975	-7.457	-8.511	-5.097	-3.991	-4.461	4.722	6.936	11.268	7.049	9.677	8.233	4.402	0.005	-11.616	-6.671	-6.918	-9.403	-5.600	-4.988	-3.122	-1.402	-1.175	5.267	10.526	14.158	8.757	10.214	324.219
-11.184	-7.604	-8.827	-5.119	-3.875	-4.483	4.911	6.887	11.190	7.223	9.706	8.361	4.614	0.167	-11.845	-6.649	-6.844	-9.452	-5.425	-4.857	-3.026	-1.165	-0.998	5.557	10.617	14.255	9.066	10.367	328.125
-11.439	-7.818	-9.098	-5.186	-3.770	-4.506	5.077	6.903	11.150	7.374	9.726	8.476	4.781	0.289	-12.088	-6.657	-6.791	-9.474	-5.280	-4.773	-2.962	-0.963	-0.827	5.811	10.769	14.398	9.374	10.532	332.031
-11.763	-8.098	-9.323	-5.294	-3.675	-4.530	5.221	6.991	11.167	7.506	9.773	8.594	4.902	0.377	-12.350	-6.693	-6.762	-9.484	-5.175	-4.738	-2.921	-0.806	-0.671	6.027	10.973	14.587	9.671	10.718	335.938
-12.173	-8.438	-9.517	-5.440	-3.589	-4.549	5.351	7.158	11.266	7.637	9.888	8.739	4.987	0.435	-12.642	-6.761	-6.759	-9.502	-5.119	-4.756	-2.900	-0.700	-0.546	6.211	11.217	14.824	9.952	10.939	339.844
-12.678	-8.830	-9.701	-5.619	-3.514	-4.563	5.480	7.408	11.470	7.786	10.106	8.934	5.045	0.468	-12.973	-6.868	-6.794	-9.547	-5.120	-4.831	-2.901	-0.653	-0.462	6.364	11.492	15.106	10.213	11.209	343.750
-13.270	-9.257	-9.896	-5.824	-3.448	-4.568	5.618	7.740	11.790	7.970	10.444	9.193	5.087	0.476	-13.350	-7.019	-6.872	-9.637	-5.183	-4.964	-2.926	-0.668	-0.428	6.491	11.787	15.428	10.448	11.529	347.656
-13.924	-9.695	-10.114	-6.044	-3.393	-4.560	5.772	8.148	12.222	8.192	10.890	9.508	5.121	0.459	-13.761	-7.213	-7.000	-9.776	-5.306	-5.150	-2.979	-0.745	-0.448	6.589	12.093	15.773	10.651	11.886	351.562
-14.597	-10.109	-10.349	-6.264	-3.346	-4.534	5.943	8.616	12.738	8.438	11.394	9.845	5.147	0.414	-14.181	-7.441	-7.170	-9.958	-5.479	-5.374	-3.062	-0.875	-0.515	6.654	12.400	16.111	10.804	12.241	355.469
-15.235	-10.459	-10.580	-6.461	-3.301	-4.479	6.119	9.119	13.290	8.675	11.874	10.142	5.161	0.341	-14.567	-7.683	-7.365	-10.162	-5.680	-5.613	-3.169	-1.040	-0.615	6.673	12.693	16.393	10.883	12.529	359.375
-15.775	-10.700	-10.769	-6.610	-3.252	-4.385	6.280	9.623	13.810	8.851	12.220	10.315	5.154	0.243	-14.862	-7.909	-7.555	-10.350	-5.880	-5.837	-3.285	-1.218	-0.723	6.635	12.953	16.558	10.853	12.665	363.281
-16.159	-10.795	-10.872	-6.683	-3.187	-4.240	6.402	10.090	14.222	8.910	12.319	10.275	5.114	0.128	-15.009	-8.083	-7.703	-10.480	-6.045	-6.012	-3.388	-1.379	-0.814	6.528	13.156	16.540	10.681	12.559	367.188
-16.339	-10.717	-10.847	-6.661	-3.095	-4.038	6.461	10.479	14.453	8.804	12.077	9.949	5.037	0.009	-14.960	-8.175	-7.770	-10.507	-6.141	-6.110	-3.454	-1.496	-0.859	6.346	13.276	16.280	10.340	12.139	371.094
-16.290	-10.459	-10.670	-6.535	-2.971	-3.779	6.440	10.752	14.447	8.505	11.450	9.306	4.924	-0.095	-14.695	-8.163	-7.729	-10.399	-6.140	-6.115	-3.462	-1.544	-0.839	6.094	13.293	15.747	9.829	11.376	375.000
-16.019	-10.040	-10.343	-6.315	-2.815	-3.479	6.337	10.880	14.181	8.026	10.463	8.376	4.791	-0.169	-14.228	-8.046	-7.570	-10.144	-6.031	-6.028	-3.401	-1.512	-0.747	5.792	13.197	14.952	9.178	10.303	378.906
-15.566	-9.506	-9.900	-6.030	-2.639	-3.165	6.166	10.849	13.670	7.421	9.219	7.254	4.666	-0.197	-13.611	-7.846	-7.309	-9.758	-5.823	-5.870	-3.276	-1.403	-0.590	5.477	12.992	13.959	8.456	9.024	382.812
-14.996	-8.924	-9.407	-5.728	-2.463	-2.875	5.960	10.659	12.968	6.779	7.886	6.094	4.584	-0.170	-12.930	-7.605	-6.982	-9.285	-5.543	-5.681	-3.105	-1.234	-0.390	5.198	12.697	12.877	7.762	7.707	386.719
-14.395	-8.375	-8.947	-5.461	-2.314	-2.652	5.761	10.328	12.161	6.213	6.671	5.081	4.586	-0.084	-12.285	-7.375	-6.641	-8.787	-5.237	-5.509	-2.919	-1.035	-0.179	5.006	12.346	11.842	7.212	6.551	390.625
-13.846	-7.936	-8.603	-5.285	-2.220	-2.534	5.614	9.887	11.346	5.831	5.773	4.395	4.705	0.057	-11.770	-7.212	-6.342	-8.335	-4.955	-5.402	-2.756	-0.843	0.008	4.948	11.974	10.995	6.913	5.752	394.531
-13.420	-7.668	-8.440	-5.238	-2.202	-2.541	5.556	9.376	10.618	5.718	5.346	4.171	4.958	0.242	-11.454	-7.157	-6.134	-7.991	-4.748	-5.397	-2.649	-0.692	0.143	5.049	11.618	10.446	6.941	5.454	398.438
-13.156	-7.603	-8.482	-5.337	-2.268	-2.676	5.605	8.838	10.046	5.907	5.457	4.472	5.340	0.454	-11.360	-7.230	-6.046	-7.793	-4.648	-5.508	-2.622	-0.609	0.203	5.309	11.298	10.249	7.315	5.722	402.344
-13.058	-7.733	-8.713	-5.569	-2.413	-2.916	5.756	8.312	9.665	6.375	6.079	5.269	5.822	0.674	-11.460	-7.424	-6.082	-7.745	-4.669	-5.723	-2.684	-0.606	0.183	5.697	11.017	10.386	7.995	6.514	406.250
-13.093	-8.011	-9.072	-5.894	-2.614	-3.220	5.980	7.826	9.464	7.043	7.086	6.444	6.352	0.880	-11.679	-7.701	-6.215	-7.817	-4.797	-6.005	-2.823	-0.678	0.091	6.157	10.761	10.772	8.878	7.696	410.156
-13.195	-8.359	-9.467	-6.246	-2.835	-3.532	6.227	7.394	9.393	7.785	8.278	7.810	6.866	1.057	-11.908	-8.000	-6.400	-7.950	-4.995	-6.300	-3.013	-0.802	-0.050	6.615	10.499	11.264	9.821	9.052	414.062
-13.282	-8.679	-9.795	-6.550	-3.035	-3.796	6.434	7.014	9.371	8.454	9.413	9.143	7.291	1.193	-12.023	-8.248	-6.573	-8.064	-5.206	-6.540	-3.211	-0.943	-0.210	6.996	10.191	11.695	10.660	10.335	417.969
-13.264	-8.870	-9.959	-6.729	-3.172	-3.959	6.538	6.668	9.297	8.903	10.250	10.215	7.567	1.281	-11.913	-8.372	-6.667	-8.079	-5.368	-6.663	-3.373	-1.058	-0.350	7.233	9.802	11.902	11.241	11.300	421.875
-13.067	-8.849	-9.886	-6.722	-3.211	-3.984	6.486	6.326	9.077	9.012	10.588	10.833	7.648	1.325	-11.497	-8.309	-6.619	-7.926	-5.417	-6.616	-3.454	-1.105	-0.436	7.282	9.308	11.761	11.449	11.755	425.781
-12.646	-8.566	-9.542	-6.492	-3.131	-3.853	6.244	5.956	8.634	8.709	10.300	10.874	7.515	1.334	-10.741	-8.024	-6.382	-7.560	-5.305	-6.371	-3.420	-1.047	-0.437	7.131	8.704	11.208	11.224	11.591	429.688
-11.992	-8.011	-8.938	-6.035	-2.926	-3.572	5.810	5.528	7.927	7.987	9.356	10.296	7.182	1.321	-9.668	-7.509	-5.935	-6.970	-5.005	-5.927	-3.253	-0.864	-0.336	6.797	8.006	10.253	10.577	10.797	433.594
-11.144	-7.223	-8.126	-5.381	-2.609	-3.166	5.213	5.026	6.963	6.903	7.826	9.152	6.691	1.306	-8.352	-6.793	-5.284	-6.186	-4.517	-5.310	-2.952	-0.551	-0.128	6.326	7.251	8.976	9.581	9.463	437.500
-10.174	-6.279	-7.192	-4.588	-2.203	-2.677	4.509	4.451	5.794	5.575	5.875	7.577	6.110	1.307	-6.909	-5.932	-4.468	-5.272	-3.873	-4.572	-2.539	-0.124	0.175	5.784	6.483	7.509	8.361	7.760	441.406
-9.184	-5.283	-6.236	-3.735	-1.743	-2.153	3.780	3.825	4.521	4.163	3.739	5.766	5.516	1.340	-5.479	-5.009	-3.550	-4.317	-3.129	-3.782	-2.050	0.379	0.542	5.242	5.751	6.014	7.071	5.905	445.312
-8.280	-4.346	-5.359	-2.908	-1.265	-1.647	3.115	3.191	3.269	2.841	1.684	3.942	4.991	1.414	-4.200	-4.113	-2.617	-3.425	-2.359	-3.015	-1.535	0.907	0.932	4.766	5.098	4.649	5.865	4.128	449.219
-7.561	-3.572	-4.643	-2.187	-0.807	-1.203	2.597	2.606	2.180	1.773	-0.032	2.322	4.600	1.530	-3.189	-3.332	-1.762	-2.694	-1.644	-2.345	-1.046	1.403	1.296	4.404	4.551	3.544	4.873	2.630	453.125
-7.093	-3.033	-4.143	-1.631	-0.396	-0.853	2.289	2.132	1.378	1.083	-1.203	1.085	4.383	1.678	-2.526	-2.735	-1.071	-2.202	-1.058	-1.829	-0.630	1.810	1.583	4.179	4.120	2.781	4.179	1.554	457.031
-6.910	-2.764	-3.880	-1.276	-0.055	-0.612	2.227	1.825	0.957	0.841	-1.704	0.344	4.353	1.841	-2.246	-2.365	-0.608	-1.990	-0.655	-1.500	-0.321	2.087	1.754	4.089	3.798	2.383	3.816	0.969	460.938
-7.001	-2.761	-3.844	-1.127	0.208	-0.482	2.407	1.724	0.958	1.047	-1.509	0.134	4.491	2.001	-2.331	-2.230	-0.407	-2.060	-0.463	-1.364	-0.137	2.210	1.785	4.109	3.568	2.319	3.766	0.865	464.844
-7.318	-2.982	-4.001	-1.164	0.392	-0.449	2.795	1.837	1.364	1.642	-0.691	0.419	4.756	2.139	-2.726	-2.308	-0.465	-2.376	-0.476	-1.404	-0.074	2.180	1.672	4.198	3.403	2.517	3.970	1.169	468.750
-7.788	-3.363	-4.299	-1.348	0.505	-0.491	3.323	2.144	2.103	2.514	0.594	1.095	5.090	2.245	-3.338	-2.550	-0.745	-2.871	-0.662	-1.579	-0.113	2.018	1.432	4.311	3.279	2.881	4.345	1.766	472.656
-8.323	-3.828	-4.679	-1.629	0.555	-0.582	3.910	2.592	3.056	3.520	2.141	2.024	5.436	2.314	-4.061	-2.894	-1.182	-3.461	-0.967	-1.841	-0.222	1.762	1.101	4.411	3.178	3.317	4.800	2.522	476.562
-8.841	-4.304	-5.082	-1.959	0.552	-0.701	4.466	3.108	4.085	4.516	3.728	3.055	5.740	2.349	-4.786	-3.272	-1.698	-4.067	-1.330	-2.138	-0.367	1.456	0.723	4.470	3.092	3.745	5.261	3.314	480.469
-9.271	-4.732	-5.460	-2.292	0.504	-0.833	4.915	3.611	5.049	5.370	5.154	4.051	5.965	2.357	-5.418	-3.629	-2.216	-4.621	-1.693	-2.428	-0.520	1.147	0.345	4.481	3.028	4.121	5.673	4.048	484.375
-9.572	-5.075	-5.775	-2.600	0.410	-0.971	5.199	4.027	5.834	5.991	6.270	4.912	6.092	2.344	-5.894	-3.928	-2.674	-5.079	-2.016	-2.686	-0.661	0.870	0.010	4.452	3.005	4.434	6.014	4.671	488.281
-9.736	-5.321	-6.011	-2.867	0.272	-1.116	5.295	4.303	6.366	6.335	7.000	5.584	6.124	2.315	-6.186	-4.156	-3.040	-5.427	-2.278	-2.902	-0.782	0.650	-0.251	4.409	3.054	4.710	6.293	5.178	492.188
-9.781	-5.481	-6.168	-3.092	0.086	-1.276	5.207	4.414	6.622	6.412	7.340	6.066	6.082	2.275	-6.308	-4.322	-3.310	-5.673	-2.481	-3.083	-0.889	0.494	-0.423	4.385	3.205	5.001	6.542	5.604	496.094
-9.751	-5.583	-6.265	-3.288	-0.145	-1.460	4.975	4.366	6.627	6.275	7.354	6.394	6.000	2.230	-6.311	-4.454	-3.510	-5.849	-2.647	-3.247	-0.988	0.397	-0.506	4.414	3.487	5.368	6.803	6.005	500.000
-9.701	-5.666	-6.331	-3.472	-0.414	-1.676	4.655	4.192	6.444	6.007	7.151	6.631	5.919	2.186	-6.263	-4.584	-3.681	-5.994	-2.806	-3.414	-1.087	0.342	-0.511	4.522	3.911	5.863	7.121	6.445	503.906
-9.678	-5.766	-6.404	-3.660	-0.706	-1.925	4.317	3.944	6.157	5.707	6.860	6.846	5.878	2.153	-6.240	-4.741	-3.870	-6.149	-2.986	-3.597	-1.190	0.310	-0.462	4.723	4.471	6.514	7.525	6.974	507.812
-9.718	-5.906	-6.514	-3.865	-1.002	-2.201	4.024	3.677	5.854	5.463	6.602	7.095	5.904	2.146	-6.306	-4.939	-4.110	-6.345	-3.204	-3.799	-1.290	0.282	-0.384	5.012	5.133	7.311	8.020	7.609	511.719
-9.832	-6.091	-6.682	-4.088	-1.276	-2.492	3.828	3.443	5.605	5.341	6.468	7.406	6.014	2.176	-6.495	-5.173	-4.412	-6.599	-3.459	-4.010	-1.377	0.246	-0.304	5.369	5.841	8.202	8.586	8.330	515.625
-10.005	-6.304	-6.908	-4.318	-1.503	-2.776	3.755	3.276	5.457	5.373	6.503	7.774	6.202	2.252	-6.805	-5.416	-4.757	-6.908	-3.732	-4.205	-1.433	0.198	-0.241	5.755	6.521	9.101	9.176	9.080	519.531
-10.204	-6.508	-7.172	-4.533	-1.662	-3.028	3.807	3.194	5.425	5.550	6.706	8.164	6.447	2.377	-7.199	-5.626	-5.102	-7.249	-3.986	-4.352	-1.445	0.144	-0.207	6.121	7.089	9.901	9.725	9.774	523.438
-10.379	-6.655	-7.436	-4.701	-1.735	-3.219	3.962	3.194	5.495	5.832	7.029	8.516	6.711	2.541	-7.611	-5.754	-5.385	-7.585	-4.175	-4.418	-1.400	0.095	-0.204	6.417	7.467	10.488	10.158	10.313	527.344
-10.479	-6.692	-7.650	-4.786	-1.710	-3.324	4.178	3.257	5.628	6.153	7.396	8.757	6.951	2.726	-7.961	-5.755	-5.539	-7.866	-4.255	-4.377	-1.293	0.067	-0.227	6.595	7.593	10.766	10.405	10.606	531.250
-10.459	-6.578	-7.764	-4.757	-1.586	-3.321	4.402	3.350	5.771	6.437	7.716	8.823	7.120	2.911	-8.171	-5.595	-5.507	-8.040	-4.192	-4.210	-1.127	0.075	-0.263	6.619	7.432	10.672	10.412	10.586	535.156
-10.287	-6.287	-7.738	-4.589	-1.367	-3.200	4.578	3.438	5.867	6.608	7.900	8.665	7.180	3.068	-8.179	-5.259	-5.251	-8.062	-3.968	-3.916	-0.909	0.129	-0.293	6.473	6.983	10.187	10.152	10.219	539.062
-9.948	-5.815	-7.550	-4.273	-1.070	-2.964	4.657	3.483	5.861	6.603	7.875	8.261	7.105	3.179	-7.947	-4.753	-4.764	-7.898	-3.585	-3.507	-0.654	0.235	-0.299	6.162	6.282	9.340	9.628	9.516	542.969
-9.446	-5.181	-7.199	-3.818	-0.714	-2.627	4.602	3.448	5.708	6.384	7.595	7.617	6.887	3.232	-7.468	-4.101	-4.064	-7.534	-3.062	-3.003	-0.375	0.393	-0.260	5.711	5.391	8.200	8.875	8.525	546.875
-8.799	-4.419	-6.702	-3.247	-0.328	-2.217	4.396	3.305	5.378	5.934	7.042	6.769	6.537	3.226	-6.762	-3.340	-3.197	-6.979	-2.433	-2.435	-0.086	0.597	-0.162	5.164	4.393	6.867	7.954	7.325	550.781
-8.034	-3.577	-6.092	-2.595	0.063	-1.768	4.040	3.035	4.861	5.268	6.230	5.771	6.082	3.172	-5.868	-2.515	-2.222	-6.264	-1.739	-1.831	0.204	0.838	0.003	4.571	3.374	5.448	6.940	6.013	554.688
-7.184	-2.702	-5.406	-1.903	0.434	-1.316	3.558	2.630	4.163	4.422	5.203	4.689	5.560	3.089	-4.841	-1.672	-1.205	-5.438	-1.022	-1.219	0.491	1.102	0.237	3.985	2.409	4.045	5.913	4.684	558.594
-6.282	-1.841	-4.686	-1.211	0.766	-0.890	2.987	2.098	3.313	3.456	4.025	3.591	5.015	3.000	-3.744	-0.851	-0.208	-4.561	-0.318	-0.621	0.776	1.377	0.531	3.450	1.554	2.733	4.939	3.422	562.500
-5.359	-1.031	-3.968	-0.555	1.046	-0.513	2.378	1.464	2.354	2.443	2.780	2.543	4.491	2.927	-2.640	-0.085	0.720	-3.698	0.342	-0.054	1.060	1.651	0.868	2.995	0.833	1.558	4.071	2.286	566.406
-4.443	-0.301	-3.285	0.039	1.271	-0.193	1.788	0.770	1.350	1.462	1.558	1.596	4.023	2.883	-1.589	0.600	1.544	-2.908	0.938	0.469	1.342	1.912	1.227	2.634	0.244	0.534	3.333	1.310	570.312
-3.565	0.332	-2.660	0.552	1.445	0.070	1.271	0.071	0.370	0.591	0.452	0.792	3.637	2.875	-0.645	1.185	2.244	-2.236	1.455	0.934	1.617	2.147	1.582	2.364	-0.238	-0.351	2.732	0.503	574.219
-2.755	0.854	-2.112	0.976	1.578	0.285	0.873	-0.572	-0.509	-0.103	-0.457	0.155	3.345	2.897	0.145	1.658	2.809	-1.712	1.886	1.330	1.874	2.349	1.911	2.172	-0.645	-1.116	2.258	-0.141	578.125
-2.047	1.260	-1.652	1.305	1.684	0.463	0.627	-1.098	-1.219	-0.572	-1.109	-0.301	3.149	2.936	0.750	2.009	3.236	-1.345	2.224	1.641	2.095	2.508	2.192	2.037	-1.006	-1.784	1.893	-0.638	582.031
-1.475	1.548	-1.287	1.542	1.774	0.616	0.549	-1.458	-1.707	-0.794	-1.469	-0.578	3.042	2.976	1.147	2.234	3.525	-1.128	2.465	1.857	2.261	2.619	2.412	1.943	-1.335	-2.359	1.622	-1.002	585.938
-1.070	1.718	-1.022	1.686	1.860	0.749	0.633	-1.621	-1.942	-0.771	-1.536	-0.686	3.010	3.001	1.327	2.329	3.676	-1.045	2.606	1.966	2.355	2.681	2.566	1.879	-1.627	-2.832	1.437	-1.243	589.844
-0.855	1.774	-0.861	1.741	1.943	0.861	0.859	-1.584	-1.921	-0.530	-1.339	-0.645	3.042	3.004	1.296	2.297	3.693	-1.072	2.644	1.966	2.368	2.694	2.657	1.845	-1.852	-3.175	1.338	-1.363	593.750
-0.837	1.719	-0.808	1.710	2.018	0.943	1.192	-1.366	-1.669	-0.118	-0.929	-0.476	3.126	2.983	1.067	2.147	3.582	-1.186	2.583	1.858	2.296	2.665	2.695	1.849	-1.971	-3.353	1.336	-1.357	597.656
-1.009	1.558	-0.865	1.594	2.073	0.982	1.590	-1.007	-1.231	0.412	-0.373	-0.204	3.258	2.946	0.666	1.891	3.353	-1.368	2.427	1.651	2.147	2.605	2.697	1.908	-1.940	-3.329	1.445	-1.220	601.562
-1.346	1.300	-1.029	1.400	2.093	0.965	2.011	-0.560	-0.669	1.001	0.261	0.146	3.437	2.907	0.130	1.546	3.020	-1.604	2.189	1.361	1.934	2.525	2.681	2.038	-1.730	-3.086	1.675	-0.950	605.469
-1.811	0.957	-1.293	1.135	2.065	0.883	2.419	-0.081	-0.047	1.597	0.908	0.552	3.663	2.882	-0.500	1.136	2.600	-1.882	1.884	1.007	1.680	2.439	2.664	2.250	-1.330	-2.626	2.032	-0.554	609.375
-2.357	0.547	-1.641	0.813	1.981	0.735	2.787	0.378	0.571	2.158	1.516	0.992	3.941	2.888	-1.174	0.687	2.117	-2.192	1.533	0.613	1.409	2.356	2.655	2.548	-0.761	-1.984	2.504	-0.052	613.281
-2.935	0.093	-2.051	0.452	1.845	0.532	3.094	0.775	1.134	2.653	2.047	1.442	4.268	2.940	-1.846	0.231	1.600	-2.522	1.163	0.208	1.152	2.287	2.662	2.920	-0.071	-1.223	3.069	0.525	617.188
-3.491	-0.374	-2.496	0.079	1.667	0.293	3.330	1.083	1.601	3.062	2.477	1.881	4.641	3.049	-2.468	-0.199	1.081	-2.857	0.800	-0.176	0.936	2.239	2.682	3.345	0.669	-0.424	3.689	1.133	621.094
-3.978	-0.821	-2.946	-0.280	1.471	0.045	3.491	1.284	1.944	3.372	2.792	2.284	5.045	3.220	-3.002	-0.568	0.596	-3.176	0.475	-0.506	0.791	2.216	2.709	3.790	1.378	0.320	4.316	1.721	625.000
-4.352	-1.213	-3.370	-0.593	1.280	-0.184	3.576	1.375	2.150	3.576	2.987	2.627	5.460	3.452	-3.418	-0.846	0.179	-3.455	0.214	-0.748	0.739	2.219	2.733	4.217	1.978	0.923	4.898	2.236	628.906
-4.580	-1.517	-3.738	-0.835	1.121	-0.365	3.585	1.356	2.214	3.670	3.061	2.888	5.861	3.735	-3.694	-1.007	-0.139	-3.669	0.037	-0.878	0.794	2.248	2.744	4.587	2.404	1.316	5.383	2.626	632.812
-4.636	-1.702	-4.021	-0.983	1.012	-0.478	3.521	1.235	2.140	3.653	3.018	3.048	6.215	4.050	-3.821	-1.032	-0.337	-3.794	-0.041	-0.878	0.956	2.299	2.736	4.860	2.615	1.455	5.725	2.852	636.719
-4.505	-1.747	-4.194	-1.022	0.966	-0.511	3.388	1.026	1.939	3.528	2.860	3.095	6.493	4.372	-3.795	-0.918	-0.404	-3.813	-0.017	-0.744	1.215	2.368	2.705	5.006	2.596	1.327	5.888	2.885	640.625
-4.189	-1.639	-4.238	-0.947	0.985	-0.460	3.189	0.744	1.627	3.300	2.595	3.023	6.665	4.669	-3.620	-0.671	-0.341	-3.718	0.104	-0.485	1.546	2.446	2.655	5.005	2.359	0.945	5.850	2.714	644.531
-3.699	-1.380	-4.140	-0.762	1.060	-0.333	2.932	0.408	1.226	2.977	2.232	2.834	6.711	4.911	-3.305	-0.309	-0.160	-3.507	0.307	-0.123	1.918	2.521	2.592	4.849	1.934	0.347	5.605	2.343	648.438
-3.066	-0.984	-3.897	-0.480	1.178	-0.144	2.628	0.041	0.766	2.572	1.789	2.539	6.621	5.067	-2.861	0.140	0.119	-3.191	0.575	0.313	2.295	2.585	2.527	4.542	1.364	-0.419	5.162	1.789	652.344
-2.327	-0.476	-3.516	-0.122	1.323	0.088	2.287	-0.332	0.275	2.102	1.288	2.155	6.393	5.122	-2.308	0.643	0.472	-2.787	0.885	0.788	2.644	2.629	2.472	4.102	0.696	-1.302	4.546	1.084	656.250
-1.531	0.108	-3.020	0.287	1.479	0.342	1.925	-0.685	-0.213	1.586	0.757	1.703	6.042	5.066	-1.668	1.168	0.877	-2.317	1.218	1.269	2.940	2.649	2.437	3.557	-0.027	-2.250	3.791	0.266	660.156
-0.726	0.730	-2.439	0.721	1.633	0.600	1.556	-0.995	-0.668	1.048	0.228	1.205	5.590	4.909	-0.970	1.683	1.310	-1.806	1.557	1.725	3.166	2.644	2.428	2.938	-0.770	-3.226	2.941	-0.622	664.062
0.047	1.353	-1.814	1.155	1.776	0.848	1.198	-1.242	-1.065	0.513	-0.272	0.687	5.069	4.670	-0.245	2.166	1.755	-1.277	1.891	2.137	3.323	2.622	2.451	2.283	-1.509	-4.201	2.044	-1.536	667.969
0.751	1.946	-1.184	1.569	1.904	1.079	0.863	-1.418	-1.391	0.003	-0.721	0.165	4.513	4.377	0.476	2.603	2.198	-0.750	2.214	2.494	3.418	2.596	2.502	1.627	-2.232	-5.156	1.147	-2.438	671.875
1.369	2.490	-0.589	1.950	2.017	1.290	0.561	-1.524	-1.645	-0.465	-1.110	-0.345	3.957	4.065	1.167	2.991	2.627	-0.240	2.526	2.798	3.472	2.583	2.578	1.002	-2.932	-6.082	0.292	-3.296	675.781
1.891	2.974	-0.058	2.294	2.118	1.483	0.296	-1.572	-1.843	-0.877	-1.441	-0.836	3.431	3.767	1.810	3.334	3.035	0.245	2.831	3.057	3.510	2.601	2.671	0.433	-3.611	-6.974	-0.488	-4.088	679.688
2.325	3.396	0.393	2.601	2.208	1.663	0.068	-1.585	-2.008	-1.230	-1.725	-1.309	2.954	3.511	2.395	3.642	3.413	0.698	3.135	3.287	3.558	2.663	2.774	-0.063	-4.266	-7.829	-1.173	-4.803	683.594
2.684	3.762	0.757	2.876	2.290	1.836	-0.127	-1.588	-2.169	-1.524	-1.980	-1.763	2.541	3.316	2.919	3.924	3.757	1.117	3.439	3.501	3.635	2.775	2.877	-0.474	-4.892	-8.638	-1.752	-5.434	687.500
2.984	4.077	1.041	3.126	2.368	2.007	-0.292	-1.607	-2.352	-1.765	-2.221	-2.197	2.197	3.189	3.383	4.186	4.058	1.499	3.741	3.711	3.752	2.935	2.973	-0.796	-5.478	-9.385	-2.220	-5.978	691.406
3.241	4.344	1.257	3.351	2.441	2.177	-0.431	-1.663	-2.572	-1.954	-2.457	-2.603	1.923	3.128	3.786	4.426	4.308	1.838	4.034	3.917	3.908	3.128	3.054	-1.026	-6.002	-10.048	-2.578	-6.432	695.312
3.460	4.562	1.421	3.547	2.508	2.345	-0.542	-1.765	-2.831	-2.091	-2.683	-2.964	1.718	3.120	4.125	4.633	4.498	2.126	4.300	4.114	4.087	3.333	3.118	-1.165	-6.436	-10.593	-2.823	-6.783	699.219
3.636	4.722	1.541	3.703	2.563	2.502	-0.619	-1.912	-3.114	-2.170	-2.886	-3.254	1.583	3.148	4.389	4.792	4.621	2.350	4.521	4.282	4.263	3.527	3.164	-1.213	-6.749	-10.983	-2.947	-7.014	703.125
3.752	4.809	1.619	3.801	2.599	2.635	-0.652	-2.093	-3.393	-2.177	-3.041	-3.442	1.523	3.194	4.563	4.878	4.668	2.497	4.676	4.400	4.405	3.685	3.193	-1.170	-6.909	-11.182	-2.940	-7.103	707.031
3.780	4.805	1.647	3.817	2.604	2.729	-0.630	-2.291	-3.634	-2.100	-3.122	-3.497	1.546	3.245	4.627	4.872	4.636	2.552	4.746	4.443	4.483	3.792	3.211	-1.033	-6.889	-11.157	-2.787	-7.028	710.938
3.693	4.695	1.610	3.732	2.566	2.765	-0.545	-2.483	-3.805	-1.927	-3.107	-3.400	1.660	3.292	4.562	4.758	4.525	2.507	4.720	4.391	4.474	3.841	3.224	-0.803	-6.673	-10.889	-2.480	-6.774	714.844
3.467	4.468	1.491	3.534	2.474	2.729	-0.393	-2.651	-3.882	-1.658	-2.983	-3.145	1.871	3.334	4.356	4.532	4.341	2.362	4.598	4.237	4.370	3.836	3.240	-0.481	-6.260	-10.376	-2.017	-6.338	718.750
3.090	4.124	1.277	3.220	2.320	2.611	-0.182	-2.779	-3.856	-1.300	-2.755	-2.744	2.177	3.376	4.005	4.202	4.094	2.126	4.388	3.982	4.176	3.788	3.265	-0.073	-5.663	-9.634	-1.408	-5.732	722.656
2.569	3.679	0.958	2.805	2.105	2.411	0.076	-2.860	-3.731	-0.876	-2.438	-2.227	2.569	3.428	3.518	3.787	3.797	1.815	4.106	3.644	3.913	3.715	3.304	0.407	-4.911	-8.699	-0.681	-4.987	726.562
1.927	3.159	0.542	2.314	1.837	2.139	0.359	-2.891	-3.525	-0.417	-2.059	-1.634	3.027	3.499	2.919	3.317	3.468	1.453	3.774	3.249	3.611	3.631	3.356	0.940	-4.044	-7.619	0.124	-4.146	730.469
1.205	2.603	0.044	1.786	1.534	1.813	0.644	-2.877	-3.263	0.042	-1.648	-1.010	3.523	3.594	2.241	2.824	3.118	1.064	3.416	2.827	3.301	3.547	3.415	1.498	-3.110	-6.455	0.958	-3.260	734.375
0.457	2.051	-0.503	1.261	1.219	1.457	0.908	-2.824	-2.973	0.465	-1.238	-0.398	4.021	3.714	1.528	2.339	2.761	0.670	3.049	2.411	3.014	3.468	3.468	2.049	-2.160	-5.271	1.767	-2.382	738.281
-0.262	1.543	-1.062	0.777	0.919	1.101	1.133	-2.738	-2.678	0.823	-0.854	0.165	4.489	3.852	0.825	1.890	2.405	0.289	2.691	2.024	2.771	3.392	3.502	2.560	-1.242	-4.133	2.501	-1.561	742.188
-0.895	1.105	-1.591	0.363	0.657	0.772	1.308	-2.626	-2.397	1.097	-0.515	0.651	4.893	3.999	0.173	1.494	2.056	-0.064	2.350	1.684	2.584	3.313	3.503	3.000	-0.397	-3.095	3.120	-0.840	746.094
-1.400	0.754	-2.051	0.039	0.451	0.495	1.429	-2.496	-2.143	1.280	-0.233	1.046	5.213	4.141	-0.393	1.161	1.723	-0.379	2.034	1.396	2.455	3.225	3.462	3.346	0.342	-2.205	3.596	-0.249	750.000
-1.747	0.490	-2.414	-0.191	0.309	0.289	1.501	-2.353	-1.921	1.374	-0.013	1.340	5.433	4.268	-0.852	0.894	1.413	-0.650	1.748	1.162	2.375	3.122	3.378	3.584	0.957	-1.493	3.915	0.194	753.906
-1.930	0.306	-2.666	-0.333	0.232	0.163	1.528	-2.203	-1.733	1.389	0.145	1.533	5.549	4.369	-1.197	0.690	1.139	-0.870	1.496	0.975	2.334	3.005	3.258	3.712	1.436	-0.973	4.076	0.483	757.812
-1.960	0.186	-2.807	-0.399	0.214	0.118	1.521	-2.054	-1.579	1.339	0.245	1.632	5.565	4.438	-1.434	0.545	0.912	-1.034	1.284	0.832	2.317	2.878	3.114	3.736	1.782	-0.639	4.091	0.627	761.719
-1.865	0.121	-2.847	-0.407	0.245	0.146	1.482	-1.912	-1.456	1.237	0.293	1.643	5.487	4.468	-1.577	0.456	0.745	-1.139	1.117	0.728	2.311	2.748	2.964	3.672	2.002	-0.472	3.978	0.641	765.625
-1.682	0.103	-2.804	-0.369	0.311	0.229	1.414	-1.782	-1.362	1.095	0.294	1.577	5.325	4.453	-1.645	0.425	0.644	-1.184	1.001	0.665	2.309	2.625	2.821	3.536	2.110	-0.437	3.760	0.552	769.531
-1.448	0.133	-2.700	-0.298	0.401	0.344	1.311	-1.671	-1.295	0.921	0.255	1.442	5.087	4.388	-1.657	0.454	0.614	-1.167	0.938	0.647	2.305	2.517	2.699	3.345	2.123	-0.495	3.461	0.387	773.438
-1.195	0.216	-2.551	-0.199	0.504	0.466	1.167	-1.582	-1.253	0.715	0.179	1.250	4.781	4.265	-1.628	0.548	0.650	-1.089	0.929	0.682	2.296	2.428	2.603	3.113	2.060	-0.604	3.105	0.176	777.344
-0.944	0.359	-2.369	-0.078	0.611	0.571	0.976	-1.516	-1.233	0.480	0.072	1.010	4.411	4.081	-1.570	0.709	0.744	-0.953	0.968	0.774	2.286	2.361	2.532	2.850	1.938	-0.726	2.712	-0.055	781.250
-0.709	0.565	-2.164	0.063	0.718	0.644	0.733	-1.471	-1.231	0.215	-0.061	0.733	3.986	3.834	-1.491	0.935	0.879	-0.762	1.048	0.926	2.274	2.312	2.481	2.563	1.776	-0.834	2.298	-0.287	785.156
-0.493	0.827	-1.942	0.219	0.820	0.678	0.442	-1.441	-1.240	-0.077	-0.214	0.429	3.515	3.531	-1.399	1.218	1.039	-0.527	1.157	1.130	2.265	2.277	2.443	2.260	1.590	-0.911	1.875	-0.507	789.062
-0.294	1.133	-1.710	0.387	0.920	0.677	0.114	-1.420	-1.254	-0.391	-0.379	0.110	3.012	3.187	-1.302	1.541	1.209	-0.260	1.283	1.374	2.257	2.249	2.411	1.945	1.395	-0.954	1.449	-0.711	792.969
-0.107	1.463	-1.478	0.560	1.015	0.653	-0.236	-1.401	-1.270	-0.717	-0.549	-0.214	2.493	2.822	-1.205	1.883	1.378	0.020	1.412	1.638	2.252	2.224	2.379	1.627	1.203	-0.967	1.025	-0.899	796.875
