FP1	F3	F7	FC3	C3	C5	P3	P7	PO7	PO3	O1	Oz	Pz	CPz	FP2	Fz	F4	F8	FC4	FCz	Cz	C4	C6	P4	P8	PO8	PO4	O2	time
-4.950	-3.379	-3.428	-2.586	-1.099	-0.935	1.955	3.163	3.233	2.422	3.007	2.238	1.394	0.737	-3.520	-2.342	-2.831	-2.435	-1.897	-1.986	-0.553	-0.065	-0.340	1.792	2.609	3.414	2.652	2.923	-199.219
-4.156	-3.064	-3.154	-2.401	-1.023	-0.977	1.704	2.345	2.536	2.156	2.566	2.050	1.585	1.008	-3.171	-1.974	-2.311	-2.135	-1.454	-1.579	-0.135	0.318	0.021	2.024	2.234	2.895	2.525	2.500	-195.312
-3.387	-2.743	-2.882	-2.195	-0.924	-1.006	1.456	1.556	1.858	1.886	2.141	1.859	1.750	1.270	-2.815	-1.593	-1.800	-1.826	-1.017	-1.163	0.282	0.673	0.343	2.208	1.834	2.371	2.372	2.080	-191.406
-2.660	-2.403	-2.606	-1.950	-0.788	-1.006	1.209	0.825	1.213	1.601	1.740	1.655	1.858	1.508	-2.436	-1.188	-1.299	-1.497	-0.585	-0.730	0.695	0.977	0.597	2.298	1.383	1.834	2.162	1.656	-187.500
-1.986	-2.040	-2.316	-1.654	-0.603	-0.963	0.960	0.174	0.615	1.292	1.364	1.429	1.884	1.708	-2.022	-0.755	-0.807	-1.144	-0.162	-0.279	1.091	1.212	0.760	2.259	0.866	1.277	1.870	1.226	-183.594
-1.366	-1.649	-2.001	-1.306	-0.369	-0.867	0.702	-0.380	0.074	0.950	1.006	1.173	1.813	1.855	-1.562	-0.298	-0.328	-0.766	0.246	0.184	1.456	1.365	0.823	2.070	0.281	0.701	1.487	0.787	-179.688
-0.796	-1.232	-1.650	-0.911	-0.095	-0.712	0.433	-0.829	-0.404	0.573	0.655	0.883	1.639	1.939	-1.053	0.171	0.138	-0.369	0.633	0.645	1.772	1.434	0.790	1.731	-0.362	0.109	1.013	0.340	-175.781
-0.268	-0.793	-1.260	-0.484	0.204	-0.502	0.148	-1.172	-0.817	0.160	0.296	0.557	1.366	1.949	-0.503	0.635	0.594	0.041	0.993	1.087	2.022	1.427	0.679	1.260	-1.038	-0.486	0.463	-0.113	-171.875
0.222	-0.340	-0.835	-0.044	0.503	-0.246	-0.154	-1.419	-1.170	-0.286	-0.084	0.193	1.008	1.884	0.074	1.080	1.042	0.456	1.324	1.489	2.192	1.360	0.516	0.694	-1.710	-1.070	-0.139	-0.567	-167.969
0.675	0.114	-0.388	0.387	0.774	0.033	-0.470	-1.584	-1.472	-0.757	-0.494	-0.203	0.589	1.747	0.653	1.488	1.483	0.871	1.623	1.834	2.278	1.255	0.338	0.083	-2.337	-1.622	-0.759	-1.014	-164.062
1.087	0.555	0.061	0.783	0.991	0.308	-0.793	-1.690	-1.733	-1.235	-0.936	-0.624	0.140	1.551	1.203	1.846	1.916	1.277	1.889	2.107	2.283	1.141	0.180	-0.513	-2.876	-2.121	-1.355	-1.445	-160.156
1.447	0.962	0.484	1.123	1.132	0.549	-1.107	-1.757	-1.965	-1.700	-1.398	-1.055	-0.304	1.314	1.691	2.142	2.332	1.664	2.119	2.298	2.219	1.041	0.077	-1.034	-3.284	-2.541	-1.883	-1.841	-156.250
1.740	1.317	0.856	1.391	1.185	0.729	-1.395	-1.806	-2.176	-2.123	-1.859	-1.472	-0.704	1.062	2.084	2.364	2.710	2.015	2.307	2.401	2.103	0.977	0.053	-1.426	-3.527	-2.857	-2.299	-2.180	-152.344
1.949	1.599	1.149	1.574	1.150	0.829	-1.632	-1.848	-2.367	-2.473	-2.292	-1.849	-1.024	0.821	2.354	2.499	3.023	2.312	2.438	2.416	1.954	0.957	0.118	-1.652	-3.580	-3.043	-2.564	-2.436	-148.438
2.056	1.791	1.341	1.670	1.040	0.842	-1.796	-1.888	-2.532	-2.719	-2.661	-2.154	-1.232	0.614	2.478	2.536	3.234	2.532	2.498	2.346	1.786	0.979	0.267	-1.691	-3.431	-3.074	-2.649	-2.581	-144.531
2.050	1.880	1.417	1.681	0.875	0.775	-1.866	-1.919	-2.656	-2.832	-2.932	-2.357	-1.309	0.455	2.446	2.465	3.308	2.652	2.466	2.194	1.608	1.030	0.482	-1.547	-3.082	-2.932	-2.538	-2.589	-140.625
1.921	1.859	1.372	1.612	0.684	0.643	-1.830	-1.927	-2.721	-2.796	-3.074	-2.433	-1.249	0.350	2.254	2.279	3.215	2.656	2.329	1.968	1.420	1.086	0.730	-1.244	-2.552	-2.606	-2.234	-2.443	-136.719
1.669	1.725	1.208	1.471	0.489	0.470	-1.683	-1.890	-2.703	-2.603	-3.066	-2.366	-1.059	0.292	1.912	1.976	2.941	2.532	2.077	1.672	1.213	1.119	0.977	-0.819	-1.868	-2.100	-1.755	-2.139	-132.812
1.301	1.482	0.935	1.266	0.312	0.280	-1.434	-1.786	-2.581	-2.260	-2.895	-2.153	-0.761	0.268	1.437	1.562	2.485	2.276	1.709	1.311	0.975	1.103	1.187	-0.317	-1.066	-1.429	-1.137	-1.683	-128.906
0.828	1.141	0.571	1.004	0.162	0.093	-1.101	-1.596	-2.340	-1.787	-2.566	-1.801	-0.387	0.258	0.854	1.048	1.870	1.897	1.237	0.888	0.695	1.020	1.334	0.215	-0.189	-0.622	-0.425	-1.098	-125.000
0.273	0.716	0.138	0.693	0.041	-0.077	-0.707	-1.310	-1.974	-1.215	-2.093	-1.331	0.028	0.245	0.195	0.452	1.133	1.412	0.682	0.410	0.365	0.863	1.402	0.739	0.720	0.277	0.333	-0.417	-121.094
-0.333	0.231	-0.337	0.344	-0.059	-0.223	-0.283	-0.929	-1.488	-0.581	-1.505	-0.774	0.449	0.213	-0.506	-0.200	0.324	0.846	0.071	-0.114	-0.013	0.638	1.386	1.220	1.621	1.215	1.086	0.321	-117.188
-0.953	-0.285	-0.826	-0.030	-0.146	-0.345	0.144	-0.467	-0.903	0.073	-0.840	-0.166	0.844	0.158	-1.212	-0.875	-0.502	0.230	-0.561	-0.667	-0.427	0.360	1.290	1.638	2.470	2.133	1.791	1.068	-113.281
-1.545	-0.797	-1.299	-0.411	-0.230	-0.442	0.548	0.047	-0.249	0.706	-0.142	0.450	1.192	0.082	-1.883	-1.535	-1.288	-0.404	-1.178	-1.223	-0.852	0.052	1.127	1.978	3.228	2.972	2.411	1.778	-109.375
-2.067	-1.266	-1.729	-0.774	-0.313	-0.518	0.910	0.579	0.432	1.281	0.541	1.033	1.478	-0.003	-2.478	-2.136	-1.987	-1.021	-1.744	-1.750	-1.255	-0.258	0.911	2.231	3.858	3.675	2.916	2.406	-105.469
-2.480	-1.657	-2.086	-1.094	-0.393	-0.569	1.216	1.089	1.092	1.767	1.161	1.542	1.697	-0.083	-2.957	-2.636	-2.562	-1.590	-2.229	-2.209	-1.600	-0.545	0.657	2.396	4.328	4.196	3.288	2.913	-101.562
-2.754	-1.935	-2.345	-1.347	-0.457	-0.593	1.458	1.539	1.684	2.139	1.676	1.945	1.847	-0.143	-3.286	-3.003	-2.994	-2.084	-2.609	-2.564	-1.854	-0.786	0.385	2.471	4.616	4.506	3.515	3.270	-97.656
-2.871	-2.081	-2.485	-1.512	-0.492	-0.582	1.633	1.895	2.168	2.385	2.051	2.214	1.932	-0.171	-3.441	-3.210	-3.277	-2.478	-2.869	-2.784	-1.994	-0.966	0.110	2.461	4.710	4.592	3.595	3.456	-93.750
-2.829	-2.083	-2.492	-1.577	-0.480	-0.528	1.743	2.137	2.510	2.500	2.262	2.335	1.956	-0.163	-3.414	-3.251	-3.422	-2.755	-3.004	-2.855	-2.012	-1.075	-0.148	2.370	4.610	4.461	3.529	3.464	-89.844
-2.636	-1.946	-2.362	-1.537	-0.410	-0.427	1.791	2.253	2.692	2.487	2.300	2.300	1.923	-0.122	-3.211	-3.133	-3.447	-2.900	-3.018	-2.774	-1.912	-1.112	-0.372	2.208	4.335	4.137	3.330	3.299	-85.938
-2.317	-1.686	-2.105	-1.397	-0.277	-0.278	1.782	2.244	2.711	2.358	2.172	2.114	1.835	-0.060	-2.855	-2.875	-3.374	-2.908	-2.923	-2.556	-1.715	-1.085	-0.548	1.982	3.912	3.658	3.010	2.977	-82.031
-1.902	-1.325	-1.744	-1.169	-0.087	-0.086	1.721	2.124	2.580	2.127	1.897	1.794	1.692	0.006	-2.380	-2.507	-3.223	-2.782	-2.735	-2.226	-1.450	-1.004	-0.666	1.703	3.379	3.067	2.589	2.524	-78.125
-1.427	-0.891	-1.313	-0.871	0.143	0.134	1.615	1.917	2.327	1.818	1.511	1.364	1.492	0.054	-1.826	-2.062	-3.008	-2.541	-2.470	-1.818	-1.151	-0.886	-0.724	1.378	2.777	2.408	2.090	1.973	-74.219
-0.930	-0.418	-0.851	-0.529	0.385	0.363	1.466	1.653	1.990	1.453	1.059	0.862	1.234	0.066	-1.235	-1.576	-2.734	-2.209	-2.146	-1.367	-0.855	-0.753	-0.728	1.015	2.143	1.720	1.533	1.364	-70.312
-0.444	0.061	-0.393	-0.170	0.607	0.575	1.282	1.369	1.615	1.061	0.594	0.330	0.918	0.027	-0.647	-1.080	-2.402	-1.819	-1.779	-0.910	-0.592	-0.624	-0.696	0.618	1.510	1.037	0.941	0.735	-66.406
0.001	0.512	0.032	0.172	0.775	0.749	1.067	1.100	1.249	0.670	0.168	-0.183	0.548	-0.072	-0.094	-0.601	-2.011	-1.406	-1.385	-0.480	-0.389	-0.523	-0.650	0.194	0.901	0.384	0.337	0.126	-62.500
0.388	0.901	0.408	0.469	0.861	0.867	0.831	0.875	0.934	0.307	-0.171	-0.631	0.133	-0.233	0.400	-0.163	-1.567	-0.999	-0.980	-0.104	-0.262	-0.465	-0.616	-0.253	0.330	-0.221	-0.259	-0.426	-58.594
0.708	1.200	0.733	0.695	0.848	0.919	0.580	0.714	0.698	-0.004	-0.392	-0.973	-0.317	-0.449	0.820	0.218	-1.082	-0.618	-0.583	0.198	-0.217	-0.464	-0.613	-0.713	-0.199	-0.765	-0.827	-0.896	-54.688
0.966	1.392	1.021	0.839	0.733	0.908	0.323	0.619	0.552	-0.249	-0.481	-1.184	-0.782	-0.710	1.162	0.530	-0.574	-0.273	-0.208	0.416	-0.250	-0.522	-0.653	-1.176	-0.684	-1.242	-1.351	-1.267	-50.781
1.176	1.476	1.290	0.900	0.531	0.842	0.064	0.578	0.487	-0.424	-0.445	-1.258	-1.244	-0.997	1.434	0.773	-0.068	0.034	0.130	0.551	-0.346	-0.633	-0.738	-1.626	-1.130	-1.650	-1.816	-1.534	-46.875
1.360	1.467	1.560	0.893	0.269	0.738	-0.192	0.563	0.477	-0.537	-0.314	-1.208	-1.681	-1.290	1.652	0.952	0.411	0.312	0.421	0.615	-0.481	-0.781	-0.855	-2.051	-1.539	-1.991	-2.212	-1.708	-42.969
1.542	1.392	1.847	0.845	-0.017	0.614	-0.445	0.537	0.482	-0.605	-0.132	-1.066	-2.073	-1.566	1.834	1.081	0.846	0.567	0.662	0.628	-0.625	-0.941	-0.983	-2.433	-1.912	-2.270	-2.534	-1.805	-39.062
1.737	1.291	2.152	0.785	-0.289	0.485	-0.691	0.465	0.461	-0.649	0.053	-0.874	-2.400	-1.803	1.999	1.178	1.223	0.807	0.856	0.613	-0.750	-1.088	-1.099	-2.756	-2.245	-2.492	-2.778	-1.846	-35.156
1.952	1.200	2.461	0.738	-0.517	0.358	-0.927	0.317	0.376	-0.689	0.197	-0.674	-2.644	-1.981	2.157	1.257	1.536	1.035	1.010	0.593	-0.834	-1.194	-1.178	-3.002	-2.528	-2.660	-2.940	-1.849	-31.250
2.175	1.145	2.748	0.719	-0.681	0.233	-1.144	0.083	0.206	-0.736	0.274	-0.499	-2.791	-2.085	2.308	1.327	1.783	1.245	1.129	0.583	-0.865	-1.241	-1.205	-3.154	-2.744	-2.772	-3.011	-1.823	-27.344
2.382	1.134	2.976	0.729	-0.777	0.102	-1.331	-0.231	-0.051	-0.789	0.277	-0.368	-2.829	-2.109	2.440	1.386	1.961	1.428	1.216	0.583	-0.847	-1.219	-1.174	-3.197	-2.873	-2.818	-2.983	-1.766	-23.438
2.538	1.159	3.110	0.755	-0.814	-0.044	-1.471	-0.597	-0.375	-0.838	0.217	-0.278	-2.756	-2.056	2.533	1.421	2.064	1.572	1.268	0.584	-0.798	-1.133	-1.091	-3.119	-2.894	-2.782	-2.842	-1.663	-19.531
2.605	1.193	3.120	0.775	-0.810	-0.212	-1.547	-0.972	-0.727	-0.862	0.125	-0.212	-2.574	-1.939	2.561	1.409	2.085	1.660	1.272	0.564	-0.747	-0.999	-0.973	-2.918	-2.788	-2.643	-2.579	-1.495	-15.625
2.551	1.202	2.993	0.764	-0.788	-0.402	-1.546	-1.307	-1.058	-0.838	0.035	-0.141	-2.296	-1.783	2.502	1.327	2.012	1.678	1.215	0.500	-0.728	-0.844	-0.845	-2.600	-2.544	-2.384	-2.191	-1.237	-11.719
2.357	1.150	2.734	0.701	-0.766	-0.605	-1.456	-1.549	-1.314	-0.745	-0.016	-0.036	-1.943	-1.619	2.341	1.151	1.839	1.614	1.081	0.367	-0.770	-0.698	-0.730	-2.186	-2.163	-1.993	-1.683	-0.873	-7.812
2.022	1.011	2.365	0.572	-0.760	-0.804	-1.278	-1.659	-1.448	-0.574	-0.001	0.130	-1.542	-1.479	2.076	0.871	1.562	1.462	0.856	0.152	-0.895	-0.591	-0.651	-1.704	-1.656	-1.473	-1.074	-0.397	-3.906
1.560	0.774	1.924	0.377	-0.773	-0.976	-1.018	-1.609	-1.428	-0.324	0.095	0.369	-1.125	-1.390	1.715	0.487	1.187	1.222	0.538	-0.150	-1.109	-0.546	-0.620	-1.192	-1.049	-0.840	-0.397	0.183	0.000
1.003	0.442	1.453	0.125	-0.801	-1.102	-0.688	-1.394	-1.240	-0.005	0.274	0.679	-0.720	-1.371	1.279	0.014	0.727	0.898	0.132	-0.526	-1.402	-0.574	-0.641	-0.688	-0.374	-0.124	0.310	0.841	3.906
0.388	0.037	0.996	-0.164	-0.832	-1.163	-0.307	-1.028	-0.893	0.363	0.527	1.044	-0.351	-1.422	0.796	-0.520	0.200	0.503	-0.343	-0.956	-1.750	-0.677	-0.709	-0.230	0.326	0.633	1.001	1.540	7.812
-0.242	-0.410	0.586	-0.464	-0.851	-1.152	0.105	-0.540	-0.416	0.756	0.835	1.436	-0.032	-1.532	0.296	-1.078	-0.366	0.053	-0.860	-1.408	-2.118	-0.843	-0.813	0.155	1.009	1.381	1.635	2.231	11.719
-0.848	-0.857	0.242	-0.748	-0.841	-1.068	0.529	0.025	0.148	1.148	1.173	1.822	0.230	-1.674	-0.192	-1.618	-0.942	-0.432	-1.385	-1.846	-2.465	-1.052	-0.937	0.449	1.633	2.072	2.173	2.863	15.625
-1.397	-1.264	-0.028	-0.989	-0.790	-0.921	0.947	0.618	0.748	1.516	1.514	2.165	0.439	-1.815	-0.641	-2.099	-1.497	-0.928	-1.879	-2.236	-2.754	-1.276	-1.067	0.647	2.161	2.657	2.587	3.385	19.531
-1.865	-1.596	-0.229	-1.166	-0.691	-0.727	1.343	1.188	1.330	1.838	1.832	2.431	0.601	-1.921	-1.031	-2.485	-2.000	-1.408	-2.305	-2.547	-2.950	-1.488	-1.186	0.756	2.565	3.098	2.856	3.754	23.438
-2.233	-1.829	-0.375	-1.265	-0.546	-0.506	1.703	1.692	1.843	2.098	2.099	2.594	0.726	-1.963	-1.346	-2.748	-2.421	-1.843	-2.633	-2.752	-3.034	-1.661	-1.285	0.788	2.825	3.363	2.973	3.938	27.344
-2.491	-1.951	-0.479	-1.281	-0.362	-0.276	2.012	2.095	2.249	2.282	2.288	2.632	0.822	-1.923	-1.575	-2.870	-2.732	-2.209	-2.839	-2.835	-2.995	-1.775	-1.351	0.765	2.933	3.434	2.938	3.918	31.250
-2.632	-1.960	-0.551	-1.215	-0.152	-0.053	2.258	2.376	2.517	2.379	2.373	2.532	0.894	-1.795	-1.712	-2.845	-2.911	-2.483	-2.910	-2.786	-2.834	-1.815	-1.378	0.706	2.896	3.303	2.758	3.687	35.156
-2.655	-1.868	-0.598	-1.073	0.069	0.156	2.428	2.528	2.632	2.380	2.331	2.286	0.942	-1.587	-1.755	-2.677	-2.945	-2.652	-2.843	-2.608	-2.564	-1.775	-1.361	0.629	2.729	2.980	2.450	3.253	39.062
-2.560	-1.690	-0.615	-0.867	0.286	0.347	2.510	2.557	2.596	2.278	2.143	1.892	0.959	-1.321	-1.707	-2.382	-2.831	-2.707	-2.648	-2.310	-2.207	-1.657	-1.294	0.546	2.460	2.487	2.029	2.631	42.969
-2.351	-1.448	-0.592	-0.611	0.484	0.522	2.496	2.482	2.422	2.068	1.801	1.355	0.932	-1.030	-1.576	-1.983	-2.583	-2.654	-2.348	-1.915	-1.792	-1.472	-1.180	0.459	2.125	1.860	1.514	1.850	46.875
-2.036	-1.162	-0.512	-0.322	0.653	0.683	2.380	2.329	2.141	1.752	1.308	0.691	0.845	-0.754	-1.374	-1.515	-2.225	-2.503	-1.970	-1.452	-1.356	-1.238	-1.023	0.362	1.764	1.148	0.924	0.946	50.781
-1.629	-0.852	-0.359	-0.019	0.782	0.829	2.160	2.132	1.795	1.336	0.690	-0.074	0.675	-0.539	-1.116	-1.015	-1.796	-2.273	-1.551	-0.961	-0.939	-0.981	-0.833	0.238	1.420	0.413	0.280	-0.033	54.688
-1.154	-0.535	-0.122	0.279	0.862	0.957	1.840	1.925	1.433	0.834	-0.012	-0.899	0.399	-0.429	-0.823	-0.523	-1.340	-1.985	-1.130	-0.484	-0.583	-0.730	-0.626	0.070	1.131	-0.279	-0.394	-1.030	58.594
-0.642	-0.225	0.201	0.552	0.885	1.059	1.430	1.744	1.112	0.269	-0.741	-1.734	-0.001	-0.463	-0.516	-0.079	-0.902	-1.662	-0.743	-0.067	-0.330	-0.515	-0.423	-0.162	0.928	-0.863	-1.075	-1.983	62.500
-0.130	0.066	0.597	0.787	0.848	1.128	0.946	1.625	0.887	-0.330	-1.431	-2.522	-0.539	-0.668	-0.219	0.285	-0.518	-1.322	-0.422	0.251	-0.212	-0.365	-0.247	-0.474	0.827	-1.286	-1.739	-2.831	66.406
0.349	0.331	1.038	0.972	0.749	1.158	0.412	1.597	0.804	-0.932	-2.019	-3.208	-1.215	-1.054	0.047	0.545	-0.218	-0.983	-0.190	0.440	-0.251	-0.301	-0.121	-0.873	0.830	-1.514	-2.366	-3.523	70.312
0.765	0.566	1.489	1.106	0.594	1.153	-0.142	1.683	0.894	-1.503	-2.458	-3.751	-2.016	-1.609	0.265	0.692	-0.015	-0.658	-0.060	0.484	-0.451	-0.336	-0.064	-1.355	0.921	-1.540	-2.943	-4.027	74.219
1.105	0.769	1.911	1.191	0.395	1.119	-0.684	1.892	1.167	-2.015	-2.719	-4.123	-2.910	-2.300	0.427	0.727	0.093	-0.361	-0.031	0.385	-0.799	-0.471	-0.089	-1.905	1.069	-1.386	-3.460	-4.332	78.125
1.365	0.937	2.265	1.234	0.169	1.067	-1.179	2.221	1.608	-2.446	-2.797	-4.318	-3.854	-3.080	0.531	0.661	0.117	-0.104	-0.094	0.157	-1.264	-0.693	-0.196	-2.494	1.236	-1.098	-3.911	-4.447	82.031
1.553	1.064	2.524	1.239	-0.069	1.007	-1.598	2.652	2.182	-2.776	-2.706	-4.340	-4.790	-3.890	0.583	0.514	0.074	0.101	-0.234	-0.176	-1.806	-0.981	-0.375	-3.081	1.389	-0.729	-4.288	-4.393	85.938
1.676	1.139	2.674	1.206	-0.303	0.944	-1.913	3.154	2.838	-2.992	-2.468	-4.203	-5.657	-4.671	0.588	0.302	-0.021	0.238	-0.434	-0.586	-2.382	-1.307	-0.606	-3.619	1.505	-0.323	-4.572	-4.189	89.844
1.737	1.143	2.712	1.128	-0.522	0.876	-2.105	3.686	3.521	-3.081	-2.107	-3.920	-6.394	-5.373	0.547	0.036	-0.160	0.296	-0.680	-1.047	-2.957	-1.644	-0.864	-4.060	1.584	0.091	-4.738	-3.850	93.750
1.730	1.049	2.647	0.989	-0.721	0.798	-2.163	4.208	4.179	-3.033	-1.641	-3.499	-6.946	-5.959	0.454	-0.279	-0.346	0.260	-0.967	-1.541	-3.505	-1.969	-1.125	-4.356	1.647	0.515	-4.752	-3.372	97.656
1.636	0.835	2.491	0.774	-0.901	0.701	-2.081	4.685	4.775	-2.837	-1.082	-2.942	-7.275	-6.407	0.295	-0.649	-0.594	0.119	-1.298	-2.053	-4.014	-2.269	-1.369	-4.475	1.733	0.973	-4.576	-2.748	101.562
1.431	0.483	2.258	0.469	-1.062	0.578	-1.862	5.095	5.292	-2.489	-0.431	-2.253	-7.360	-6.711	0.048	-1.078	-0.924	-0.133	-1.676	-2.574	-4.477	-2.538	-1.585	-4.397	1.886	1.504	-4.186	-1.963	105.469
1.092	-0.008	1.952	0.070	-1.204	0.427	-1.520	5.428	5.727	-1.990	0.307	-1.439	-7.200	-6.871	-0.308	-1.571	-1.351	-0.498	-2.106	-3.094	-4.891	-2.777	-1.769	-4.125	2.145	2.145	-3.570	-1.014	109.375
0.606	-0.620	1.573	-0.410	-1.325	0.253	-1.072	5.684	6.091	-1.354	1.122	-0.521	-6.812	-6.895	-0.788	-2.118	-1.883	-0.971	-2.586	-3.600	-5.250	-2.988	-1.925	-3.679	2.532	2.919	-2.743	0.083	113.281
-0.024	-1.313	1.116	-0.947	-1.421	0.063	-0.545	5.874	6.402	-0.605	1.994	0.466	-6.230	-6.789	-1.392	-2.701	-2.507	-1.538	-3.102	-4.073	-5.541	-3.173	-2.059	-3.097	3.043	3.822	-1.748	1.289	117.188
-0.773	-2.035	0.575	-1.499	-1.486	-0.131	0.028	6.009	6.677	0.219	2.891	1.473	-5.498	-6.560	-2.106	-3.290	-3.194	-2.179	-3.628	-4.490	-5.746	-3.330	-2.177	-2.428	3.650	4.822	-0.646	2.544	121.094
-1.599	-2.724	-0.046	-2.023	-1.515	-0.319	0.615	6.100	6.927	1.072	3.775	2.442	-4.668	-6.216	-2.897	-3.847	-3.900	-2.863	-4.131	-4.826	-5.846	-3.452	-2.279	-1.724	4.306	5.864	0.485	3.772	125.000
-2.447	-3.323	-0.731	-2.475	-1.506	-0.493	1.179	6.154	7.159	1.906	4.603	3.317	-3.794	-5.767	-3.720	-4.334	-4.572	-3.558	-4.574	-5.060	-5.823	-3.529	-2.362	-1.037	4.948	6.880	1.564	4.896	128.906
-3.259	-3.788	-1.445	-2.823	-1.463	-0.650	1.691	6.173	7.374	2.673	5.339	4.049	-2.926	-5.229	-4.522	-4.721	-5.163	-4.226	-4.925	-5.176	-5.671	-3.550	-2.419	-0.413	5.513	7.801	2.518	5.847	132.812
-3.981	-4.095	-2.144	-3.051	-1.392	-0.789	2.124	6.159	7.570	3.333	5.959	4.608	-2.111	-4.628	-5.251	-4.990	-5.637	-4.832	-5.163	-5.170	-5.395	-3.508	-2.443	0.114	5.950	8.568	3.289	6.577	136.719
-4.573	-4.242	-2.773	-3.160	-1.304	-0.915	2.461	6.112	7.749	3.861	6.457	4.986	-1.389	-3.995	-5.865	-5.137	-5.976	-5.345	-5.281	-5.049	-5.013	-3.403	-2.430	0.522	6.221	9.144	3.844	7.066	140.625
-5.013	-4.248	-3.286	-3.168	-1.210	-1.030	2.697	6.038	7.914	4.246	6.841	5.193	-0.786	-3.367	-6.336	-5.171	-6.183	-5.746	-5.290	-4.830	-4.557	-3.241	-2.382	0.801	6.313	9.512	4.172	7.319	144.531
-5.295	-4.145	-3.648	-3.099	-1.118	-1.132	2.834	5.945	8.073	4.489	7.134	5.257	-0.320	-2.780	-6.655	-5.113	-6.275	-6.025	-5.211	-4.539	-4.065	-3.038	-2.306	0.951	6.230	9.682	4.287	7.367	148.438
-5.431	-3.966	-3.847	-2.983	-1.034	-1.218	2.887	5.848	8.239	4.609	7.366	5.218	0.006	-2.269	-6.829	-4.985	-6.282	-6.187	-5.074	-4.202	-3.578	-2.816	-2.219	0.981	5.996	9.678	4.217	7.257	152.344
-5.445	-3.746	-3.896	-2.841	-0.958	-1.275	2.874	5.764	8.425	4.627	7.566	5.116	0.197	-1.860	-6.881	-4.814	-6.235	-6.252	-4.911	-3.851	-3.134	-2.602	-2.138	0.905	5.646	9.539	4.004	7.044	156.250
-5.368	-3.511	-3.827	-2.688	-0.888	-1.294	2.817	5.710	8.641	4.575	7.763	4.990	0.267	-1.569	-6.842	-4.621	-6.162	-6.244	-4.750	-3.511	-2.761	-2.421	-2.085	0.740	5.220	9.309	3.694	6.781	160.156
-5.233	-3.277	-3.682	-2.530	-0.820	-1.265	2.736	5.701	8.894	4.481	7.973	4.872	0.236	-1.404	-6.743	-4.424	-6.081	-6.193	-4.611	-3.208	-2.481	-2.297	-2.076	0.503	4.760	9.032	3.332	6.514	164.062
-5.072	-3.053	-3.506	-2.366	-0.755	-1.185	2.645	5.745	9.184	4.370	8.205	4.782	0.124	-1.362	-6.617	-4.236	-6.002	-6.128	-4.504	-2.958	-2.302	-2.245	-2.122	0.215	4.304	8.748	2.956	6.279	167.969
-4.909	-2.844	-3.336	-2.195	-0.696	-1.065	2.556	5.846	9.504	4.265	8.458	4.732	-0.052	-1.435	-6.487	-4.066	-5.928	-6.068	-4.432	-2.773	-2.222	-2.269	-2.224	-0.107	3.882	8.489	2.597	6.094	171.875
-4.760	-2.652	-3.191	-2.017	-0.650	-0.919	2.471	5.997	9.842	4.180	8.726	4.725	-0.276	-1.607	-6.370	-3.918	-5.855	-6.027	-4.389	-2.659	-2.232	-2.367	-2.376	-0.445	3.518	8.275	2.272	5.967	175.781
-4.632	-2.481	-3.075	-1.836	-0.624	-0.774	2.392	6.187	10.185	4.123	9.000	4.754	-0.537	-1.857	-6.272	-3.794	-5.779	-6.009	-4.365	-2.611	-2.312	-2.524	-2.563	-0.785	3.224	8.114	1.989	5.888	179.688
-4.525	-2.335	-2.977	-1.661	-0.625	-0.655	2.320	6.402	10.515	4.098	9.267	4.805	-0.823	-2.160	-6.195	-3.695	-5.698	-6.016	-4.350	-2.619	-2.442	-2.720	-2.763	-1.113	3.002	8.002	1.746	5.840	183.594
-4.439	-2.218	-2.880	-1.504	-0.652	-0.581	2.255	6.628	10.819	4.104	9.515	4.862	-1.123	-2.487	-6.137	-3.619	-5.612	-6.048	-4.332	-2.670	-2.596	-2.929	-2.956	-1.415	2.852	7.928	1.534	5.800	187.500
-4.372	-2.135	-2.770	-1.375	-0.701	-0.564	2.200	6.851	11.085	4.137	9.731	4.908	-1.420	-2.810	-6.098	-3.567	-5.527	-6.104	-4.304	-2.747	-2.755	-3.124	-3.118	-1.679	2.769	7.878	1.348	5.745	191.406
-4.323	-2.084	-2.649	-1.285	-0.762	-0.603	2.162	7.061	11.306	4.193	9.905	4.927	-1.699	-3.104	-6.080	-3.539	-5.450	-6.186	-4.266	-2.836	-2.900	-3.282	-3.231	-1.891	2.750	7.843	1.181	5.661	195.312
-4.295	-2.065	-2.531	-1.240	-0.824	-0.686	2.148	7.256	11.481	4.267	10.024	4.909	-1.939	-3.349	-6.094	-3.538	-5.391	-6.297	-4.221	-2.927	-3.024	-3.387	-3.284	-2.040	2.796	7.821	1.038	5.544	199.219
-4.292	-2.074	-2.445	-1.245	-0.875	-0.792	2.165	7.433	11.611	4.355	10.081	4.852	-2.124	-3.534	-6.153	-3.567	-5.361	-6.439	-4.177	-3.017	-3.126	-3.432	-3.272	-2.112	2.913	7.823	0.929	5.402	203.125
-4.321	-2.112	-2.421	-1.300	-0.908	-0.900	2.219	7.595	11.703	4.456	10.070	4.760	-2.239	-3.656	-6.270	-3.632	-5.373	-6.614	-4.146	-3.112	-3.214	-3.426	-3.199	-2.101	3.111	7.865	0.869	5.254	207.031
-4.385	-2.183	-2.485	-1.404	-0.923	-0.987	2.312	7.748	11.765	4.567	9.989	4.643	-2.275	-3.724	-6.455	-3.740	-5.434	-6.818	-4.139	-3.220	-3.305	-3.384	-3.077	-2.005	3.397	7.971	0.874	5.126	210.938
-4.491	-2.295	-2.648	-1.557	-0.923	-1.038	2.444	7.896	11.806	4.687	9.839	4.514	-2.231	-3.751	-6.706	-3.894	-5.548	-7.042	-4.168	-3.355	-3.413	-3.331	-2.922	-1.827	3.776	8.158	0.960	5.042	214.844
-4.639	-2.458	-2.906	-1.753	-0.918	-1.045	2.611	8.045	11.835	4.815	9.631	4.388	-2.112	-3.751	-7.011	-4.098	-5.717	-7.271	-4.241	-3.530	-3.555	-3.290	-2.754	-1.581	4.244	8.437	1.132	5.022	218.750
-4.830	-2.680	-3.240	-1.988	-0.919	-1.012	2.810	8.200	11.861	4.949	9.377	4.279	-1.927	-3.741	-7.350	-4.352	-5.937	-7.489	-4.365	-3.755	-3.740	-3.283	-2.590	-1.284	4.786	8.806	1.389	5.073	222.656
-5.059	-2.968	-3.622	-2.254	-0.935	-0.950	3.032	8.362	11.890	5.084	9.096	4.197	-1.691	-3.729	-7.697	-4.654	-6.199	-7.676	-4.541	-4.035	-3.971	-3.320	-2.445	-0.952	5.382	9.251	1.719	5.195	226.562
-5.319	-3.319	-4.023	-2.542	-0.975	-0.877	3.271	8.533	11.926	5.217	8.810	4.149	-1.419	-3.722	-8.025	-4.996	-6.495	-7.818	-4.767	-4.366	-4.242	-3.402	-2.325	-0.604	6.009	9.749	2.104	5.376	230.469
-5.599	-3.722	-4.418	-2.842	-1.042	-0.819	3.516	8.707	11.969	5.338	8.535	4.135	-1.127	-3.718	-8.313	-5.370	-6.814	-7.909	-5.036	-4.737	-4.539	-3.518	-2.228	-0.251	6.641	10.271	2.520	5.597	234.375
-5.884	-4.155	-4.785	-3.141	-1.138	-0.798	3.750	8.872	12.011	5.437	8.285	4.149	-0.829	-3.710	-8.543	-5.760	-7.143	-7.947	-5.336	-5.129	-4.843	-3.648	-2.149	0.100	7.257	10.786	2.941	5.835	238.281
-6.154	-4.590	-5.108	-3.426	-1.257	-0.835	3.956	9.013	12.039	5.499	8.064	4.179	-0.537	-3.691	-8.707	-6.150	-7.466	-7.942	-5.647	-5.520	-5.133	-3.768	-2.073	0.446	7.837	11.264	3.342	6.064	242.188
-6.387	-4.995	-5.377	-3.683	-1.397	-0.942	4.113	9.113	12.038	5.511	7.865	4.207	-0.263	-3.649	-8.802	-6.521	-7.765	-7.905	-5.947	-5.881	-5.388	-3.854	-1.989	0.784	8.363	11.676	3.697	6.257	246.094
-6.562	-5.338	-5.583	-3.903	-1.549	-1.122	4.203	9.155	11.993	5.460	7.678	4.215	-0.015	-3.576	-8.831	-6.854	-8.023	-7.850	-6.209	-6.191	-5.591	-3.889	-1.885	1.112	8.823	12.001	3.989	6.393	250.000
-6.660	-5.599	-5.716	-4.079	-1.707	-1.367	4.214	9.127	11.891	5.339	7.486	4.185	0.200	-3.469	-8.801	-7.133	-8.221	-7.783	-6.410	-6.429	-5.733	-3.863	-1.758	1.423	9.201	12.223	4.201	6.454	253.906
-6.671	-5.765	-5.771	-4.209	-1.863	-1.660	4.143	9.028	11.727	5.149	7.276	4.107	0.380	-3.327	-8.724	-7.347	-8.344	-7.709	-6.533	-6.585	-5.810	-3.777	-1.610	1.708	9.488	12.332	4.327	6.431	257.812
-6.594	-5.836	-5.741	-4.296	-2.008	-1.972	3.999	8.864	11.502	4.900	7.039	3.977	0.524	-3.154	-8.613	-7.491	-8.382	-7.624	-6.566	-6.661	-5.822	-3.642	-1.450	1.952	9.674	12.327	4.366	6.325	261.719
-6.437	-5.822	-5.626	-4.344	-2.133	-2.275	3.798	8.647	11.229	4.612	6.773	3.803	0.632	-2.961	-8.482	-7.570	-8.337	-7.518	-6.513	-6.666	-5.779	-3.480	-1.292	2.143	9.755	12.220	4.328	6.148	265.625
-6.219	-5.739	-5.434	-4.362	-2.231	-2.538	3.566	8.400	10.923	4.310	6.488	3.602	0.710	-2.758	-8.347	-7.590	-8.219	-7.385	-6.384	-6.616	-5.693	-3.313	-1.156	2.271	9.734	12.027	4.228	5.924	269.531
-5.971	-5.607	-5.179	-4.357	-2.294	-2.741	3.330	8.145	10.607	4.025	6.201	3.395	0.765	-2.557	-8.218	-7.564	-8.049	-7.221	-6.204	-6.533	-5.579	-3.166	-1.060	2.333	9.621	11.779	4.090	5.682	273.438
-5.724	-5.444	-4.889	-4.336	-2.318	-2.872	3.118	7.903	10.305	3.788	5.938	3.212	0.808	-2.368	-8.109	-7.508	-7.855	-7.030	-6.002	-6.436	-5.452	-3.059	-1.018	2.334	9.434	11.511	3.946	5.460	277.344
-5.514	-5.270	-4.599	-4.307	-2.304	-2.936	2.952	7.693	10.037	3.625	5.727	3.081	0.853	-2.198	-8.027	-7.436	-7.671	-6.829	-5.810	-6.344	-5.325	-3.004	-1.038	2.291	9.202	11.261	3.828	5.294	281.250
-5.371	-5.102	-4.347	-4.278	-2.255	-2.948	2.851	7.527	9.823	3.556	5.597	3.029	0.915	-2.049	-7.978	-7.365	-7.529	-6.645	-5.659	-6.270	-5.209	-3.002	-1.122	2.227	8.955	11.069	3.767	5.217	285.156
-5.322	-4.959	-4.169	-4.258	-2.182	-2.934	2.826	7.412	9.677	3.594	5.572	3.074	1.011	-1.919	-7.968	-7.308	-7.453	-6.510	-5.569	-6.220	-5.109	-3.046	-1.260	2.173	8.723	10.966	3.792	5.255	289.062
-5.380	-4.855	-4.094	-4.255	-2.095	-2.919	2.881	7.349	9.607	3.741	5.666	3.228	1.154	-1.802	-7.999	-7.276	-7.456	-6.455	-5.549	-6.196	-5.028	-3.117	-1.436	2.159	8.531	10.971	3.919	5.417	292.969
-5.548	-4.806	-4.136	-4.277	-2.007	-2.925	3.016	7.334	9.612	3.989	5.884	3.487	1.354	-1.689	-8.075	-7.273	-7.537	-6.499	-5.597	-6.191	-4.959	-3.194	-1.627	2.209	8.394	11.087	4.155	5.698	296.875
-5.817	-4.824	-4.296	-4.330	-1.927	-2.968	3.222	7.359	9.685	4.321	6.212	3.838	1.613	-1.573	-8.197	-7.300	-7.682	-6.646	-5.694	-6.196	-4.895	-3.254	-1.812	2.338	8.315	11.301	4.489	6.081	300.781
-6.164	-4.913	-4.559	-4.416	-1.864	-3.055	3.485	7.412	9.812	4.714	6.625	4.260	1.930	-1.446	-8.365	-7.351	-7.864	-6.881	-5.817	-6.197	-4.824	-3.279	-1.967	2.550	8.288	11.590	4.902	6.535	304.688
-6.562	-5.071	-4.900	-4.532	-1.823	-3.185	3.787	7.480	9.973	5.138	7.087	4.722	2.293	-1.302	-8.576	-7.418	-8.053	-7.174	-5.936	-6.183	-4.735	-3.258	-2.077	2.832	8.302	11.919	5.363	7.024	308.594
-6.980	-5.286	-5.288	-4.675	-1.805	-3.349	4.108	7.548	10.143	5.564	7.558	5.196	2.689	-1.141	-8.825	-7.487	-8.221	-7.489	-6.028	-6.144	-4.619	-3.185	-2.130	3.165	8.343	12.255	5.843	7.514	312.500
-7.394	-5.540	-5.696	-4.835	-1.812	-3.535	4.427	7.602	10.298	5.964	8.000	5.657	3.100	-0.964	-9.104	-7.550	-8.346	-7.791	-6.076	-6.074	-4.475	-3.065	-2.126	3.521	8.402	12.574	6.314	7.979	316.406
-7.787	-5.815	-6.101	-5.006	-1.841	-3.729	4.725	7.632	10.419	6.318	8.382	6.089	3.510	-0.773	-9.403	-7.600	-8.417	-8.055	-6.074	-5.976	-4.305	-2.908	-2.070	3.874	8.474	12.857	6.757	8.404	320.312
-8.153	-6.093	-6.486	-5.181	-1.887	-3.915	4.987	7.633	10.499	6.613	8.690	6.484	3.905	-0.573	-9.711	-7.637	-8.437	-8.269	-6.031	-5.858	-4.120	-2.728	-1.977	4.202	8.558	13.103	7.163	8.786	324.219
-8.498	-6.365	-6.845	-5.358	-1.945	-4.080	5.208	7.609	10.540	6.850	8.925	6.850	4.276	-0.370	-10.021	-7.666	-8.419	-8.434	-5.961	-5.735	-3.938	-2.542	-1.864	4.491	8.658	13.316	7.534	9.136	328.125
-8.834	-6.629	-7.173	-5.536	-2.012	-4.217	5.386	7.571	10.558	7.039	9.105	7.198	4.616	-0.169	-10.323	-7.701	-8.382	-8.562	-5.888	-5.625	-3.776	-2.367	-1.750	4.736	8.776	13.508	7.874	9.468	332.031
-9.177	-6.890	-7.471	-5.718	-2.081	-4.322	5.528	7.538	10.580	7.197	9.259	7.544	4.922	0.022	-10.612	-7.754	-8.348	-8.673	-5.833	-5.546	-3.656	-2.218	-1.654	4.939	8.912	13.690	8.187	9.796	335.938
-9.541	-7.153	-7.737	-5.902	-2.148	-4.394	5.645	7.534	10.638	7.346	9.421	7.901	5.190	0.193	-10.886	-7.837	-8.337	-8.783	-5.814	-5.511	-3.592	-2.108	-1.588	5.102	9.062	13.871	8.474	10.128	339.844
-9.932	-7.422	-7.971	-6.084	-2.208	-4.435	5.751	7.582	10.758	7.501	9.616	8.273	5.415	0.332	-11.140	-7.955	-8.360	-8.907	-5.839	-5.528	-3.592	-2.042	-1.557	5.231	9.216	14.047	8.724	10.457	343.750
-10.341	-7.692	-8.167	-6.253	-2.256	-4.446	5.856	7.702	10.961	7.670	9.854	8.647	5.588	0.425	-11.374	-8.106	-8.419	-9.050	-5.905	-5.593	-3.656	-2.024	-1.561	5.323	9.363	14.207	8.917	10.757	347.656
-10.747	-7.947	-8.316	-6.392	-2.287	-4.427	5.964	7.902	11.246	7.847	10.119	8.990	5.695	0.461	-11.579	-8.277	-8.508	-9.205	-6.000	-5.694	-3.771	-2.050	-1.588	5.374	9.490	14.323	9.023	10.988	351.562
-11.116	-8.160	-8.409	-6.479	-2.292	-4.373	6.068	8.180	11.593	8.007	10.370	9.252	5.720	0.429	-11.743	-8.444	-8.608	-9.358	-6.097	-5.809	-3.919	-2.108	-1.624	5.374	9.584	14.361	9.005	11.093	355.469
-11.405	-8.296	-8.432	-6.490	-2.266	-4.279	6.155	8.517	11.959	8.112	10.536	9.367	5.647	0.324	-11.845	-8.577	-8.691	-9.482	-6.167	-5.910	-4.073	-2.181	-1.648	5.311	9.637	14.276	8.828	11.006	359.375
-11.574	-8.322	-8.375	-6.404	-2.199	-4.138	6.203	8.880	12.286	8.115	10.532	9.265	5.465	0.150	-11.859	-8.645	-8.726	-9.545	-6.177	-5.967	-4.207	-2.249	-1.638	5.180	9.642	14.029	8.467	10.670	363.281
-11.592	-8.207	-8.226	-6.210	-2.089	-3.944	6.191	9.230	12.504	7.971	10.277	8.886	5.176	-0.080	-11.756	-8.621	-8.683	-9.514	-6.101	-5.953	-4.298	-2.287	-1.577	4.980	9.598	13.590	7.914	10.044	367.188
-11.448	-7.939	-7.983	-5.908	-1.932	-3.697	6.101	9.518	12.549	7.651	9.711	8.202	4.795	-0.343	-11.515	-8.488	-8.539	-9.362	-5.921	-5.850	-4.327	-2.273	-1.449	4.725	9.505	12.949	7.191	9.122	371.094
-11.156	-7.527	-7.651	-5.516	-1.735	-3.406	5.930	9.701	12.373	7.155	8.824	7.226	4.359	-0.607	-11.134	-8.250	-8.287	-9.081	-5.637	-5.656	-4.286	-2.190	-1.250	4.439	9.371	12.129	6.350	7.951	375.000
-10.756	-7.005	-7.250	-5.065	-1.510	-3.088	5.693	9.745	11.962	6.518	7.673	6.032	3.918	-0.837	-10.636	-7.925	-7.940	-8.682	-5.269	-5.386	-4.180	-2.033	-0.985	4.162	9.207	11.188	5.474	6.629	378.906
-10.313	-6.429	-6.816	-4.605	-1.277	-2.773	5.423	9.633	11.336	5.815	6.377	4.747	3.534	-1.002	-10.072	-7.554	-7.530	-8.201	-4.851	-5.072	-4.022	-1.809	-0.672	3.936	9.028	10.215	4.669	5.302	382.812
-9.905	-5.870	-6.398	-4.190	-1.062	-2.493	5.167	9.368	10.552	5.146	5.108	3.538	3.269	-1.079	-9.515	-7.188	-7.105	-7.697	-4.432	-4.761	-3.838	-1.539	-0.339	3.804	8.852	9.317	4.048	4.143	386.719
-9.610	-5.398	-6.050	-3.872	-0.893	-2.283	4.975	8.974	9.697	4.621	4.057	2.582	3.172	-1.063	-9.042	-6.884	-6.719	-7.235	-4.065	-4.505	-3.662	-1.253	-0.017	3.803	8.697	8.603	3.709	3.322	390.625
-9.490	-5.072	-5.823	-3.692	-0.795	-2.170	4.891	8.490	8.867	4.332	3.392	2.032	3.268	-0.963	-8.721	-6.691	-6.422	-6.878	-3.794	-4.353	-3.530	-0.984	0.263	3.948	8.578	8.159	3.720	2.970	394.531
-9.577	-4.925	-5.747	-3.669	-0.786	-2.167	4.939	7.964	8.154	4.337	3.222	1.981	3.551	-0.803	-8.589	-6.641	-6.248	-6.670	-3.651	-4.339	-3.475	-0.762	0.476	4.237	8.503	8.033	4.098	3.151	398.438
-9.864	-4.954	-5.829	-3.796	-0.868	-2.273	5.118	7.445	7.624	4.638	3.568	2.443	3.987	-0.619	-8.643	-6.741	-6.209	-6.626	-3.644	-4.474	-3.518	-0.612	0.609	4.643	8.469	8.217	4.806	3.846	402.344
-10.303	-5.127	-6.043	-4.041	-1.032	-2.468	5.402	6.973	7.305	5.185	4.360	3.346	4.516	-0.448	-8.841	-6.971	-6.289	-6.727	-3.759	-4.744	-3.667	-0.543	0.658	5.121	8.463	8.653	5.751	4.948	406.250
-10.817	-5.385	-6.335	-4.355	-1.253	-2.719	5.741	6.575	7.185	5.875	5.441	4.540	5.066	-0.319	-9.108	-7.287	-6.452	-6.922	-3.962	-5.107	-3.908	-0.551	0.632	5.610	8.461	9.235	6.804	6.283	410.156
-11.305	-5.654	-6.635	-4.673	-1.496	-2.985	6.070	6.256	7.209	6.580	6.604	5.831	5.564	-0.246	-9.353	-7.625	-6.645	-7.139	-4.202	-5.505	-4.210	-0.620	0.548	6.050	8.432	9.833	7.815	7.637	414.062
-11.670	-5.863	-6.870	-4.936	-1.721	-3.220	6.325	6.006	7.294	7.163	7.620	7.006	5.949	-0.229	-9.482	-7.918	-6.808	-7.297	-4.424	-5.866	-4.526	-0.723	0.428	6.385	8.344	10.312	8.642	8.795	417.969
-11.828	-5.951	-6.975	-5.092	-1.887	-3.383	6.454	5.797	7.343	7.506	8.286	7.877	6.184	-0.248	-9.419	-8.100	-6.887	-7.325	-4.573	-6.122	-4.801	-0.827	0.299	6.577	8.173	10.560	9.174	9.576	421.875
-11.728	-5.882	-6.911	-5.107	-1.961	-3.445	6.423	5.591	7.261	7.531	8.453	8.308	6.258	-0.271	-9.118	-8.124	-6.840	-7.177	-4.607	-6.219	-4.978	-0.900	0.184	6.609	7.901	10.506	9.346	9.864	425.781
-11.358	-5.644	-6.665	-4.967	-1.921	-3.388	6.229	5.347	6.975	7.212	8.055	8.236	6.187	-0.262	-8.569	-7.961	-6.646	-6.834	-4.497	-6.121	-5.012	-0.914	0.100	6.490	7.527	10.133	9.150	9.627	429.688
-10.748	-5.247	-6.254	-4.679	-1.759	-3.210	5.891	5.029	6.445	6.576	7.112	7.676	6.011	-0.188	-7.801	-7.610	-6.303	-6.316	-4.239	-5.821	-4.872	-0.853	0.058	6.245	7.061	9.475	8.633	8.911	433.594
-9.966	-4.721	-5.715	-4.265	-1.480	-2.926	5.454	4.617	5.674	5.702	5.735	6.716	5.779	-0.028	-6.874	-7.094	-5.833	-5.670	-3.844	-5.335	-4.552	-0.712	0.060	5.916	6.525	8.610	7.883	7.835	437.500
-9.099	-4.110	-5.103	-3.762	-1.105	-2.564	4.979	4.109	4.712	4.700	4.101	5.497	5.544	0.220	-5.873	-6.455	-5.273	-4.967	-3.346	-4.705	-4.073	-0.502	0.095	5.546	5.942	7.639	7.010	6.559	441.406
-8.243	-3.463	-4.475	-3.215	-0.667	-2.158	4.528	3.527	3.647	3.701	2.428	4.190	5.349	0.542	-4.891	-5.752	-4.672	-4.288	-2.790	-3.992	-3.476	-0.245	0.148	5.171	5.335	6.667	6.127	5.257	445.312
-7.484	-2.828	-3.886	-2.670	-0.203	-1.750	4.164	2.918	2.596	2.833	0.940	2.967	5.221	0.905	-4.017	-5.046	-4.082	-3.708	-2.231	-3.264	-2.823	0.028	0.196	4.819	4.719	5.782	5.325	4.082	449.219
-6.888	-2.252	-3.378	-2.173	0.245	-1.373	3.933	2.346	1.689	2.202	-0.164	1.975	5.169	1.267	-3.324	-4.402	-3.552	-3.287	-1.722	-2.593	-2.180	0.282	0.217	4.501	4.102	5.038	4.665	3.148	453.125
-6.492	-1.770	-2.978	-1.758	0.640	-1.054	3.865	1.882	1.045	1.878	-0.744	1.318	5.183	1.583	-2.860	-3.872	-3.125	-3.057	-1.313	-2.039	-1.615	0.486	0.191	4.216	3.485	4.455	4.171	2.510	457.031
-6.305	-1.411	-2.697	-1.450	0.955	-0.806	3.964	1.590	0.751	1.889	-0.738	1.045	5.238	1.816	-2.640	-3.498	-2.829	-3.022	-1.037	-1.649	-1.179	0.614	0.109	3.955	2.869	4.020	3.830	2.170	460.938
-6.310	-1.187	-2.531	-1.260	1.175	-0.629	4.215	1.516	0.851	2.216	-0.167	1.148	5.307	1.941	-2.647	-3.301	-2.682	-3.154	-0.917	-1.448	-0.903	0.651	-0.031	3.702	2.256	3.695	3.608	2.083	464.844
-6.472	-1.097	-2.462	-1.183	1.303	-0.510	4.580	1.677	1.330	2.798	0.870	1.571	5.360	1.950	-2.840	-3.285	-2.686	-3.409	-0.954	-1.437	-0.798	0.597	-0.219	3.448	1.654	3.434	3.459	2.176	468.750
-6.746	-1.123	-2.465	-1.203	1.351	-0.430	5.011	2.056	2.124	3.547	2.216	2.221	5.375	1.850	-3.156	-3.435	-2.828	-3.725	-1.137	-1.598	-0.849	0.462	-0.437	3.185	1.082	3.196	3.340	2.366	472.656
-7.078	-1.240	-2.507	-1.296	1.340	-0.369	5.451	2.602	3.123	4.358	3.684	2.989	5.340	1.660	-3.524	-3.722	-3.083	-4.041	-1.436	-1.896	-1.030	0.266	-0.660	2.919	0.564	2.954	3.219	2.581	476.562
-7.422	-1.414	-2.560	-1.435	1.289	-0.310	5.845	3.237	4.190	5.126	5.086	3.767	5.252	1.405	-3.874	-4.108	-3.417	-4.300	-1.815	-2.287	-1.302	0.037	-0.863	2.660	0.133	2.703	3.088	2.768	480.469
-7.734	-1.614	-2.598	-1.597	1.215	-0.248	6.143	3.873	5.187	5.760	6.258	4.464	5.116	1.110	-4.152	-4.550	-3.787	-4.457	-2.229	-2.728	-1.630	-0.194	-1.017	2.427	-0.179	2.460	2.955	2.905	484.375
-7.987	-1.814	-2.605	-1.767	1.126	-0.187	6.312	4.421	5.989	6.194	7.085	5.012	4.941	0.798	-4.322	-5.008	-4.152	-4.486	-2.635	-3.177	-1.983	-0.399	-1.102	2.243	-0.341	2.258	2.846	2.993	488.281
-8.165	-2.000	-2.577	-1.938	1.022	-0.140	6.334	4.809	6.509	6.395	7.513	5.380	4.743	0.486	-4.376	-5.449	-4.475	-4.378	-2.993	-3.606	-2.340	-0.555	-1.103	2.129	-0.329	2.143	2.797	3.059	492.188
-8.275	-2.168	-2.523	-2.111	0.894	-0.124	6.213	4.992	6.706	6.364	7.549	5.563	4.534	0.183	-4.331	-5.848	-4.730	-4.149	-3.276	-3.997	-2.688	-0.647	-1.014	2.106	-0.126	2.161	2.841	3.141	496.094
-8.335	-2.326	-2.461	-2.294	0.734	-0.159	5.970	4.961	6.592	6.138	7.257	5.590	4.327	-0.103	-4.228	-6.194	-4.906	-3.832	-3.470	-4.346	-3.025	-0.671	-0.839	2.186	0.271	2.349	3.007	3.278	500.000
-8.375	-2.483	-2.417	-2.495	0.532	-0.258	5.642	4.742	6.224	5.778	6.744	5.504	4.136	-0.369	-4.121	-6.483	-5.006	-3.473	-3.575	-4.654	-3.351	-0.633	-0.594	2.373	0.849	2.728	3.307	3.503	503.906
-8.428	-2.651	-2.418	-2.720	0.285	-0.426	5.276	4.387	5.696	5.360	6.137	5.360	3.972	-0.612	-4.069	-6.717	-5.044	-3.122	-3.604	-4.931	-3.669	-0.546	-0.300	2.661	1.578	3.296	3.734	3.834	507.812
-8.523	-2.836	-2.491	-2.969	-0.001	-0.659	4.923	3.966	5.119	4.964	5.566	5.210	3.847	-0.826	-4.123	-6.904	-5.041	-2.828	-3.581	-5.181	-3.976	-0.426	0.017	3.035	2.413	4.023	4.266	4.268	511.719
-8.678	-3.038	-2.654	-3.237	-0.313	-0.943	4.630	3.554	4.600	4.661	5.138	5.098	3.771	-1.005	-4.316	-7.051	-5.017	-2.627	-3.530	-5.408	-4.265	-0.293	0.330	3.470	3.295	4.858	4.864	4.784	515.625
-8.896	-3.249	-2.911	-3.512	-0.633	-1.257	4.432	3.212	4.225	4.502	4.926	5.049	3.753	-1.138	-4.657	-7.163	-4.988	-2.538	-3.476	-5.606	-4.523	-0.161	0.615	3.939	4.153	5.730	5.481	5.339	519.531
-9.164	-3.455	-3.254	-3.777	-0.934	-1.576	4.350	2.983	4.045	4.510	4.959	5.069	3.800	-1.213	-5.125	-7.240	-4.962	-2.562	-3.434	-5.764	-4.730	-0.040	0.853	4.411	4.919	6.558	6.068	5.880	523.438
-9.457	-3.636	-3.661	-4.011	-1.190	-1.873	4.384	2.882	4.067	4.677	5.216	5.145	3.914	-1.217	-5.677	-7.279	-4.938	-2.684	-3.412	-5.866	-4.862	0.065	1.029	4.857	5.531	7.263	6.582	6.349	527.344
-9.736	-3.771	-4.094	-4.194	-1.376	-2.122	4.515	2.897	4.262	4.968	5.638	5.251	4.092	-1.136	-6.247	-7.270	-4.913	-2.876	-3.407	-5.891	-4.895	0.153	1.138	5.254	5.941	7.776	6.985	6.693	531.250
-9.959	-3.838	-4.509	-4.304	-1.472	-2.302	4.709	2.992	4.563	5.325	6.135	5.350	4.324	-0.962	-6.761	-7.202	-4.878	-3.103	-3.408	-5.822	-4.810	0.229	1.181	5.582	6.123	8.048	7.252	6.872	535.156
-10.084	-3.815	-4.859	-4.323	-1.468	-2.394	4.918	3.114	4.886	5.675	6.602	5.406	4.592	-0.690	-7.142	-7.062	-4.825	-3.327	-3.400	-5.647	-4.594	0.300	1.163	5.827	6.074	8.057	7.370	6.861	539.062
-10.074	-3.687	-5.099	-4.237	-1.360	-2.392	5.091	3.204	5.142	5.943	6.938	5.386	4.872	-0.326	-7.328	-6.840	-4.744	-3.513	-3.362	-5.358	-4.244	0.373	1.097	5.980	5.810	7.805	7.332	6.657	542.969
-9.903	-3.440	-5.194	-4.040	-1.155	-2.294	5.180	3.206	5.249	6.059	7.056	5.266	5.136	0.117	-7.277	-6.527	-4.624	-3.631	-3.271	-4.956	-3.770	0.460	1.001	6.036	5.366	7.316	7.142	6.270	546.875
-9.555	-3.068	-5.123	-3.731	-0.869	-2.108	5.145	3.072	5.147	5.972	6.901	5.030	5.352	0.614	-6.972	-6.121	-4.453	-3.656	-3.108	-4.447	-3.188	0.571	0.896	5.993	4.784	6.633	6.807	5.725	550.781
-9.029	-2.573	-4.881	-3.318	-0.518	-1.847	4.965	2.775	4.805	5.657	6.449	4.675	5.491	1.136	-6.426	-5.622	-4.217	-3.571	-2.856	-3.847	-2.528	0.716	0.802	5.852	4.108	5.801	6.336	5.054	554.688
-8.340	-1.962	-4.479	-2.816	-0.122	-1.527	4.641	2.308	4.222	5.113	5.715	4.206	5.531	1.648	-5.675	-5.038	-3.904	-3.368	-2.503	-3.174	-1.820	0.898	0.740	5.613	3.374	4.867	5.741	4.287	558.594
-7.510	-1.251	-3.938	-2.245	0.302	-1.166	4.195	1.691	3.430	4.372	4.748	3.639	5.460	2.118	-4.772	-4.379	-3.506	-3.048	-2.052	-2.453	-1.097	1.119	0.723	5.281	2.606	3.866	5.036	3.452	562.500
-6.575	-0.460	-3.294	-1.626	0.742	-0.778	3.667	0.961	2.485	3.489	3.623	2.995	5.278	2.520	-3.780	-3.666	-3.026	-2.624	-1.516	-1.711	-0.390	1.371	0.755	4.860	1.818	2.822	4.234	2.572	566.406
-5.577	0.387	-2.585	-0.984	1.187	-0.375	3.112	0.177	1.460	2.535	2.427	2.302	4.998	2.835	-2.761	-2.919	-2.477	-2.115	-0.920	-0.974	0.275	1.642	0.835	4.359	1.013	1.749	3.358	1.665	570.312
-4.564	1.259	-1.854	-0.341	1.631	0.035	2.586	-0.597	0.435	1.588	1.254	1.593	4.644	3.057	-1.769	-2.168	-1.889	-1.548	-0.302	-0.272	0.875	1.912	0.950	3.792	0.191	0.654	2.431	0.748	574.219
-3.585	2.124	-1.139	0.282	2.065	0.441	2.139	-1.296	-0.516	0.722	0.184	0.905	4.247	3.185	-0.848	-1.443	-1.299	-0.948	0.295	0.368	1.391	2.160	1.083	3.178	-0.646	-0.453	1.487	-0.159	578.125
-2.687	2.945	-0.473	0.862	2.477	0.837	1.806	-1.863	-1.327	-0.005	-0.716	0.273	3.838	3.224	-0.026	-0.779	-0.751	-0.345	0.826	0.917	1.805	2.364	1.216	2.539	-1.486	-1.553	0.564	-1.033	582.031
-1.904	3.685	0.121	1.382	2.853	1.210	1.603	-2.256	-1.956	-0.555	-1.406	-0.271	3.442	3.179	0.677	-0.211	-0.289	0.236	1.253	1.351	2.101	2.505	1.329	1.902	-2.304	-2.617	-0.299	-1.843	585.938
-1.258	4.307	0.632	1.825	3.175	1.549	1.523	-2.455	-2.379	-0.912	-1.869	-0.701	3.076	3.054	1.252	0.235	0.055	0.776	1.548	1.648	2.262	2.570	1.412	1.296	-3.064	-3.601	-1.062	-2.559	589.844
-0.757	4.782	1.057	2.176	3.423	1.843	1.545	-2.458	-2.595	-1.086	-2.110	-1.001	2.744	2.849	1.698	0.538	0.259	1.254	1.698	1.797	2.279	2.553	1.460	0.749	-3.723	-4.456	-1.689	-3.148	593.750
-0.393	5.092	1.397	2.429	3.580	2.082	1.635	-2.285	-2.621	-1.100	-2.155	-1.166	2.446	2.567	2.018	0.690	0.320	1.658	1.708	1.791	2.150	2.455	1.474	0.283	-4.240	-5.132	-2.155	-3.581	597.656
-0.154	5.230	1.655	2.579	3.635	2.258	1.758	-1.965	-2.484	-0.990	-2.038	-1.201	2.172	2.215	2.216	0.695	0.252	1.977	1.596	1.638	1.883	2.289	1.465	-0.081	-4.581	-5.589	-2.444	-3.841	601.562
-0.024	5.206	1.831	2.632	3.586	2.369	1.882	-1.539	-2.217	-0.794	-1.798	-1.122	1.916	1.808	2.299	0.572	0.082	2.203	1.390	1.358	1.501	2.071	1.445	-0.333	-4.729	-5.806	-2.556	-3.920	605.469
0.013	5.042	1.923	2.597	3.440	2.416	1.990	-1.051	-1.855	-0.546	-1.476	-0.949	1.676	1.368	2.276	0.348	-0.156	2.334	1.125	0.979	1.039	1.823	1.426	-0.471	-4.687	-5.785	-2.504	-3.829	609.375
-0.032	4.774	1.927	2.489	3.213	2.405	2.073	-0.541	-1.430	-0.273	-1.107	-0.710	1.457	0.926	2.160	0.058	-0.422	2.374	0.837	0.540	0.540	1.568	1.419	-0.502	-4.480	-5.555	-2.313	-3.592	613.281
-0.145	4.443	1.841	2.329	2.927	2.343	2.135	-0.051	-0.973	0.006	-0.722	-0.430	1.273	0.518	1.967	-0.259	-0.679	2.331	0.556	0.083	0.050	1.328	1.430	-0.440	-4.150	-5.167	-2.017	-3.248	617.188
-0.313	4.090	1.669	2.137	2.607	2.240	2.186	0.387	-0.513	0.280	-0.348	-0.135	1.139	0.177	1.718	-0.565	-0.893	2.224	0.310	-0.348	-0.387	1.122	1.461	-0.304	-3.750	-4.689	-1.654	-2.842	621.094
-0.518	3.753	1.423	1.932	2.280	2.104	2.237	0.746	-0.079	0.539	-0.009	0.153	1.074	-0.071	1.438	-0.827	-1.043	2.073	0.119	-0.715	-0.733	0.966	1.512	-0.115	-3.334	-4.195	-1.263	-2.424	625.000
-0.737	3.460	1.120	1.732	1.970	1.940	2.297	1.008	0.301	0.775	0.272	0.417	1.091	-0.208	1.152	-1.018	-1.115	1.902	-0.003	-0.988	-0.967	0.871	1.581	0.106	-2.951	-3.753	-0.877	-2.040	628.906
-0.946	3.228	0.786	1.549	1.701	1.758	2.367	1.164	0.600	0.978	0.478	0.643	1.196	-0.230	0.886	-1.122	-1.108	1.731	-0.052	-1.149	-1.077	0.844	1.667	0.342	-2.638	-3.420	-0.526	-1.726	632.812
-1.122	3.063	0.448	1.392	1.489	1.565	2.442	1.216	0.796	1.136	0.592	0.821	1.386	-0.141	0.662	-1.136	-1.031	1.575	-0.031	-1.191	-1.068	0.886	1.767	0.577	-2.415	-3.231	-0.230	-1.510	636.719
-1.245	2.966	0.133	1.267	1.351	1.374	2.512	1.170	0.872	1.236	0.607	0.943	1.648	0.043	0.498	-1.066	-0.899	1.446	0.051	-1.120	-0.951	0.994	1.879	0.801	-2.288	-3.201	-0.005	-1.406	640.625
-1.301	2.932	-0.132	1.181	1.296	1.202	2.565	1.039	0.821	1.266	0.520	1.002	1.963	0.306	0.402	-0.925	-0.734	1.349	0.178	-0.953	-0.745	1.159	1.997	1.006	-2.254	-3.325	0.138	-1.419	644.531
-1.284	2.957	-0.326	1.139	1.330	1.065	2.588	0.838	0.645	1.218	0.335	0.989	2.306	0.629	0.381	-0.732	-0.555	1.288	0.332	-0.711	-0.471	1.366	2.115	1.185	-2.300	-3.585	0.192	-1.549	648.438
-1.194	3.038	-0.427	1.148	1.451	0.980	2.572	0.580	0.355	1.091	0.061	0.893	2.652	0.992	0.433	-0.506	-0.379	1.267	0.497	-0.416	-0.147	1.598	2.225	1.333	-2.416	-3.955	0.155	-1.788	652.344
-1.037	3.176	-0.423	1.216	1.650	0.959	2.511	0.272	-0.036	0.886	-0.290	0.705	2.980	1.380	0.557	-0.259	-0.212	1.290	0.660	-0.090	0.208	1.840	2.318	1.446	-2.590	-4.409	0.028	-2.130	656.250
-0.824	3.372	-0.309	1.349	1.909	1.006	2.403	-0.081	-0.506	0.614	-0.707	0.421	3.268	1.778	0.748	-0.000	-0.053	1.362	0.817	0.254	0.583	2.076	2.388	1.523	-2.812	-4.917	-0.182	-2.560	660.156
-0.565	3.625	-0.089	1.545	2.199	1.116	2.248	-0.477	-1.034	0.284	-1.179	0.040	3.503	2.170	1.001	0.269	0.106	1.486	0.970	0.604	0.969	2.298	2.432	1.564	-3.072	-5.454	-0.464	-3.062	664.062
-0.268	3.929	0.221	1.801	2.488	1.272	2.050	-0.917	-1.601	-0.087	-1.695	-0.429	3.674	2.541	1.309	0.554	0.278	1.663	1.127	0.959	1.359	2.503	2.450	1.571	-3.358	-5.996	-0.797	-3.615	667.969
0.061	4.273	0.594	2.101	2.740	1.454	1.814	-1.398	-2.186	-0.487	-2.247	-0.969	3.773	2.878	1.664	0.862	0.477	1.890	1.300	1.319	1.748	2.696	2.452	1.548	-3.658	-6.521	-1.162	-4.195	671.875
0.418	4.639	0.995	2.428	2.928	1.637	1.548	-1.914	-2.773	-0.904	-2.826	-1.557	3.801	3.172	2.054	1.200	0.714	2.160	1.502	1.687	2.136	2.883	2.447	1.497	-3.961	-7.011	-1.538	-4.778	675.781
0.803	5.012	1.388	2.762	3.036	1.799	1.259	-2.454	-3.349	-1.329	-3.421	-2.165	3.762	3.419	2.466	1.574	0.998	2.459	1.743	2.068	2.521	3.074	2.449	1.421	-4.259	-7.456	-1.908	-5.341	679.688
1.212	5.377	1.743	3.090	3.063	1.925	0.958	-3.006	-3.903	-1.755	-4.020	-2.767	3.667	3.624	2.885	1.985	1.331	2.774	2.033	2.469	2.905	3.281	2.471	1.320	-4.550	-7.859	-2.262	-5.873	683.594
1.640	5.730	2.037	3.403	3.030	2.013	0.655	-3.553	-4.432	-2.176	-4.609	-3.342	3.532	3.797	3.300	2.429	1.708	3.086	2.373	2.893	3.294	3.510	2.521	1.193	-4.839	-8.229	-2.596	-6.367	687.500
2.074	6.072	2.261	3.700	2.969	2.066	0.361	-4.080	-4.932	-2.588	-5.171	-3.871	3.375	3.956	3.700	2.895	2.121	3.375	2.760	3.341	3.691	3.764	2.605	1.037	-5.136	-8.585	-2.916	-6.825	691.406
2.498	6.409	2.421	3.985	2.920	2.100	0.086	-4.574	-5.400	-2.985	-5.692	-4.344	3.216	4.117	4.080	3.367	2.551	3.622	3.179	3.806	4.099	4.039	2.720	0.854	-5.447	-8.943	-3.226	-7.251	695.312
2.895	6.747	2.531	4.264	2.919	2.131	-0.158	-5.016	-5.833	-3.356	-6.152	-4.750	3.073	4.291	4.434	3.823	2.974	3.808	3.611	4.275	4.514	4.322	2.858	0.644	-5.775	-9.314	-3.531	-7.646	699.219
3.244	7.082	2.608	4.534	2.991	2.174	-0.357	-5.392	-6.219	-3.686	-6.532	-5.081	2.960	4.481	4.753	4.233	3.360	3.920	4.026	4.725	4.925	4.598	3.008	0.414	-6.113	-9.695	-3.826	-8.002	703.125
3.528	7.398	2.667	4.786	3.137	2.237	-0.501	-5.680	-6.538	-3.957	-6.811	-5.326	2.881	4.682	5.024	4.565	3.676	3.949	4.390	5.127	5.314	4.843	3.156	0.173	-6.441	-10.065	-4.101	-8.301	707.031
3.733	7.665	2.715	4.999	3.341	2.319	-0.579	-5.863	-6.767	-4.147	-6.969	-5.472	2.836	4.877	5.229	4.788	3.891	3.895	4.667	5.446	5.658	5.037	3.286	-0.064	-6.733	-10.390	-4.338	-8.517	710.938
3.847	7.848	2.753	5.149	3.568	2.410	-0.586	-5.922	-6.876	-4.237	-6.986	-5.507	2.820	5.042	5.345	4.875	3.983	3.768	4.829	5.651	5.929	5.160	3.383	-0.282	-6.954	-10.628	-4.514	-8.623	714.844
3.861	7.911	2.770	5.213	3.776	2.494	-0.520	-5.847	-6.841	-4.211	-6.853	-5.422	2.821	5.150	5.352	4.809	3.941	3.581	4.857	5.719	6.099	5.198	3.437	-0.467	-7.073	-10.735	-4.610	-8.593	718.750
3.773	7.829	2.753	5.175	3.924	2.553	-0.386	-5.636	-6.647	-4.062	-6.566	-5.215	2.824	5.177	5.236	4.591	3.765	3.354	4.747	5.639	6.148	5.145	3.439	-0.606	-7.066	-10.677	-4.612	-8.416	722.656
3.585	7.596	2.688	5.031	3.981	2.572	-0.194	-5.301	-6.295	-3.794	-6.137	-4.895	2.816	5.105	4.994	4.234	3.473	3.102	4.508	5.415	6.061	5.002	3.388	-0.696	-6.922	-10.438	-4.518	-8.092	726.562
3.307	7.229	2.564	4.790	3.936	2.540	0.043	-4.862	-5.800	-3.423	-5.590	-4.477	2.786	4.925	4.636	3.767	3.088	2.839	4.164	5.063	5.836	4.780	3.286	-0.736	-6.643	-10.016	-4.332	-7.639	730.469
2.954	6.760	2.377	4.477	3.794	2.455	0.305	-4.353	-5.196	-2.972	-4.956	-3.985	2.726	4.643	4.182	3.229	2.642	2.573	3.745	4.613	5.483	4.495	3.145	-0.730	-6.242	-9.433	-4.071	-7.086	734.375
2.545	6.235	2.130	4.120	3.575	2.321	0.574	-3.808	-4.527	-2.474	-4.276	-3.447	2.635	4.279	3.661	2.661	2.166	2.306	3.286	4.099	5.022	4.166	2.975	-0.687	-5.743	-8.719	-3.751	-6.467	738.281
2.100	5.698	1.833	3.748	3.308	2.148	0.831	-3.266	-3.841	-1.963	-3.589	-2.888	2.521	3.862	3.106	2.099	1.689	2.037	2.817	3.559	4.483	3.814	2.795	-0.613	-5.171	-7.916	-3.391	-5.817	742.188
1.635	5.186	1.503	3.386	3.024	1.949	1.060	-2.756	-3.185	-1.471	-2.931	-2.331	2.392	3.427	2.545	1.570	1.232	1.765	2.364	3.022	3.899	3.458	2.619	-0.511	-4.552	-7.063	-3.007	-5.164	746.094
1.166	4.721	1.157	3.049	2.747	1.734	1.250	-2.303	-2.593	-1.026	-2.329	-1.789	2.262	3.010	2.003	1.091	0.808	1.487	1.943	2.511	3.306	3.116	2.462	-0.386	-3.906	-6.197	-2.610	-4.529	750.000
0.702	4.310	0.817	2.743	2.489	1.514	1.392	-1.917	-2.089	-0.645	-1.801	-1.272	2.143	2.640	1.497	0.663	0.423	1.207	1.562	2.040	2.736	2.800	2.334	-0.240	-3.253	-5.347	-2.208	-3.924	753.906
0.251	3.948	0.497	2.464	2.252	1.296	1.482	-1.600	-1.678	-0.339	-1.352	-0.783	2.044	2.332	1.040	0.282	0.075	0.930	1.223	1.615	2.211	2.518	2.240	-0.076	-2.605	-4.537	-1.807	-3.353	757.812
-0.184	3.626	0.208	2.203	2.030	1.087	1.524	-1.346	-1.354	-0.107	-0.982	-0.324	1.968	2.090	0.638	-0.061	-0.238	0.666	0.926	1.234	1.747	2.274	2.180	0.100	-1.977	-3.784	-1.412	-2.818	761.719
-0.594	3.329	-0.048	1.948	1.808	0.888	1.522	-1.143	-1.098	0.057	-0.680	0.105	1.914	1.905	0.295	-0.378	-0.522	0.427	0.667	0.893	1.348	2.069	2.148	0.280	-1.386	-3.101	-1.028	-2.319	765.625
-0.971	3.048	-0.278	1.688	1.573	0.700	1.490	-0.976	-0.888	0.166	-0.432	0.500	1.877	1.761	0.007	-0.674	-0.780	0.226	0.441	0.583	1.010	1.900	2.136	0.454	-0.847	-2.499	-0.664	-1.857	769.531
-1.303	2.778	-0.492	1.410	1.313	0.521	1.440	-0.833	-0.700	0.238	-0.223	0.860	1.850	1.638	-0.232	-0.952	-1.012	0.073	0.243	0.299	0.722	1.761	2.133	0.614	-0.379	-1.985	-0.323	-1.436	773.438
-1.579	2.516	-0.705	1.109	1.023	0.345	1.389	-0.702	-0.510	0.290	-0.036	1.180	1.828	1.516	-0.430	-1.211	-1.221	-0.023	0.068	0.032	0.473	1.645	2.129	0.755	0.004	-1.563	-0.012	-1.055	777.344
-1.790	2.262	-0.933	0.779	0.700	0.167	1.351	-0.573	-0.303	0.336	0.144	1.462	1.807	1.384	-0.600	-1.449	-1.405	-0.061	-0.091	-0.226	0.247	1.543	2.113	0.873	0.293	-1.230	0.271	-0.716	781.250
-1.936	2.014	-1.186	0.419	0.349	-0.020	1.335	-0.440	-0.067	0.390	0.330	1.708	1.785	1.233	-0.756	-1.665	-1.569	-0.045	-0.241	-0.482	0.033	1.447	2.080	0.971	0.491	-0.976	0.528	-0.411	785.156
-2.024	1.771	-1.473	0.030	-0.026	-0.219	1.345	-0.299	0.200	0.460	0.529	1.927	1.759	1.062	-0.909	-1.862	-1.718	0.016	-0.390	-0.742	-0.180	1.350	2.026	1.055	0.613	-0.784	0.768	-0.133	789.062
-2.073	1.530	-1.791	-0.382	-0.418	-0.433	1.379	-0.147	0.497	0.546	0.746	2.131	1.731	0.872	-1.069	-2.046	-1.858	0.106	-0.542	-1.009	-0.401	1.247	1.954	1.129	0.683	-0.628	0.999	0.131	792.969
-2.105	1.288	-2.132	-0.809	-0.819	-0.657	1.427	0.013	0.815	0.648	0.979	2.332	1.700	0.667	-1.239	-2.226	-1.998	0.207	-0.700	-1.286	-0.635	1.136	1.871	1.202	0.733	-0.481	1.230	0.395	796.875
