FP1	F3	F7	FC3	C3	C5	P3	P7	PO7	PO3	O1	Oz	Pz	CPz	FP2	Fz	F4	F8	FC4	FCz	Cz	C4	C6	P4	P8	PO8	PO4	O2	time
0.730	0.465	0.084	0.657	0.804	0.331	-0.455	-0.887	-0.315	-0.309	-0.298	0.134	-0.311	0.466	-0.449	0.849	0.292	-0.687	0.346	1.725	1.340	0.324	0.079	-0.235	-0.524	-0.057	0.164	0.344	-199.219
0.480	0.328	0.001	0.452	0.553	0.232	-0.385	-0.769	-0.243	-0.122	-0.033	0.301	-0.221	0.399	-0.413	0.537	-0.001	-0.501	0.145	1.314	1.083	0.272	0.159	-0.113	-0.338	-0.009	0.207	0.381	-195.312
0.242	0.183	-0.094	0.247	0.313	0.139	-0.311	-0.642	-0.169	0.054	0.198	0.450	-0.130	0.339	-0.384	0.233	-0.271	-0.329	-0.032	0.920	0.839	0.235	0.252	0.011	-0.156	0.033	0.255	0.408	-191.406
0.027	0.025	-0.207	0.044	0.093	0.060	-0.232	-0.497	-0.097	0.208	0.363	0.564	-0.032	0.291	-0.366	-0.052	-0.500	-0.181	-0.167	0.557	0.616	0.227	0.365	0.141	0.016	0.064	0.313	0.416	-187.500
-0.162	-0.146	-0.337	-0.153	-0.099	-0.003	-0.145	-0.329	-0.027	0.334	0.447	0.635	0.077	0.262	-0.362	-0.312	-0.678	-0.067	-0.253	0.238	0.425	0.252	0.498	0.279	0.175	0.082	0.386	0.402	-183.594
-0.330	-0.329	-0.479	-0.336	-0.255	-0.046	-0.048	-0.141	0.034	0.429	0.449	0.663	0.205	0.260	-0.375	-0.542	-0.804	0.003	-0.289	-0.026	0.275	0.309	0.643	0.427	0.316	0.090	0.480	0.370	-179.688
-0.480	-0.519	-0.620	-0.500	-0.368	-0.071	0.060	0.062	0.084	0.492	0.385	0.654	0.356	0.290	-0.406	-0.740	-0.883	0.025	-0.283	-0.231	0.172	0.391	0.782	0.586	0.438	0.096	0.596	0.328	-175.781
-0.619	-0.705	-0.743	-0.635	-0.433	-0.079	0.180	0.267	0.117	0.529	0.275	0.618	0.533	0.355	-0.451	-0.902	-0.927	-0.002	-0.250	-0.373	0.117	0.485	0.900	0.756	0.539	0.105	0.735	0.286	-171.875
-0.745	-0.874	-0.832	-0.735	-0.446	-0.075	0.306	0.459	0.126	0.543	0.144	0.564	0.733	0.454	-0.505	-1.027	-0.947	-0.072	-0.207	-0.454	0.112	0.578	0.981	0.931	0.617	0.120	0.891	0.252	-167.969
-0.854	-1.011	-0.874	-0.794	-0.409	-0.058	0.435	0.622	0.106	0.538	0.011	0.498	0.947	0.581	-0.561	-1.109	-0.951	-0.173	-0.167	-0.476	0.153	0.658	1.017	1.103	0.673	0.141	1.054	0.227	-164.062
-0.937	-1.101	-0.864	-0.807	-0.324	-0.032	0.558	0.737	0.054	0.517	-0.113	0.419	1.161	0.726	-0.608	-1.142	-0.945	-0.284	-0.138	-0.445	0.233	0.718	1.010	1.258	0.704	0.162	1.208	0.204	-160.156
-0.981	-1.135	-0.806	-0.775	-0.196	0.005	0.670	0.792	-0.031	0.481	-0.225	0.322	1.358	0.880	-0.636	-1.121	-0.928	-0.386	-0.123	-0.369	0.347	0.756	0.969	1.384	0.709	0.173	1.337	0.174	-156.250
-0.980	-1.106	-0.709	-0.699	-0.033	0.054	0.763	0.777	-0.146	0.431	-0.327	0.200	1.521	1.031	-0.639	-1.043	-0.894	-0.460	-0.114	-0.254	0.484	0.775	0.909	1.468	0.688	0.164	1.422	0.122	-152.344
-0.933	-1.019	-0.590	-0.586	0.154	0.115	0.834	0.688	-0.284	0.368	-0.422	0.047	1.637	1.170	-0.612	-0.908	-0.836	-0.493	-0.102	-0.110	0.636	0.781	0.845	1.501	0.642	0.129	1.450	0.038	-148.438
-0.846	-0.884	-0.464	-0.445	0.355	0.188	0.881	0.532	-0.432	0.294	-0.510	-0.137	1.698	1.289	-0.556	-0.723	-0.751	-0.480	-0.073	0.054	0.795	0.782	0.792	1.481	0.575	0.066	1.412	-0.083	-144.531
-0.733	-0.717	-0.346	-0.286	0.557	0.269	0.903	0.321	-0.580	0.211	-0.587	-0.345	1.702	1.384	-0.476	-0.502	-0.635	-0.426	-0.019	0.229	0.954	0.785	0.757	1.410	0.491	-0.021	1.309	-0.235	-140.625
-0.609	-0.537	-0.248	-0.120	0.749	0.354	0.903	0.074	-0.714	0.125	-0.646	-0.562	1.651	1.452	-0.384	-0.265	-0.492	-0.344	0.065	0.407	1.105	0.793	0.739	1.297	0.398	-0.122	1.147	-0.405	-136.719
-0.491	-0.360	-0.172	0.043	0.917	0.434	0.881	-0.184	-0.823	0.039	-0.676	-0.768	1.553	1.491	-0.291	-0.031	-0.331	-0.251	0.175	0.578	1.239	0.805	0.733	1.151	0.306	-0.222	0.941	-0.573	-132.812
-0.389	-0.199	-0.118	0.196	1.051	0.503	0.838	-0.428	-0.900	-0.042	-0.672	-0.940	1.414	1.498	-0.210	0.179	-0.162	-0.165	0.302	0.735	1.350	0.818	0.725	0.986	0.220	-0.306	0.712	-0.716	-128.906
-0.305	-0.057	-0.077	0.333	1.143	0.552	0.773	-0.635	-0.938	-0.116	-0.630	-1.059	1.244	1.470	-0.151	0.351	-0.001	-0.101	0.431	0.869	1.429	0.824	0.700	0.813	0.145	-0.362	0.479	-0.813	-125.000
-0.233	0.066	-0.038	0.453	1.187	0.573	0.686	-0.789	-0.936	-0.180	-0.551	-1.111	1.049	1.402	-0.119	0.476	0.140	-0.071	0.544	0.975	1.468	0.813	0.643	0.639	0.081	-0.383	0.261	-0.852	-121.094
-0.165	0.178	0.010	0.555	1.182	0.564	0.576	-0.879	-0.893	-0.230	-0.441	-1.089	0.836	1.291	-0.113	0.556	0.249	-0.079	0.627	1.047	1.459	0.777	0.543	0.470	0.023	-0.369	0.073	-0.826	-117.188
-0.091	0.286	0.072	0.639	1.130	0.521	0.445	-0.904	-0.812	-0.265	-0.310	-0.992	0.613	1.135	-0.128	0.598	0.321	-0.123	0.668	1.083	1.399	0.709	0.396	0.309	-0.033	-0.324	-0.075	-0.738	-113.281
-0.007	0.394	0.149	0.705	1.035	0.444	0.297	-0.872	-0.696	-0.282	-0.168	-0.826	0.388	0.939	-0.156	0.613	0.355	-0.200	0.660	1.079	1.287	0.607	0.207	0.159	-0.089	-0.252	-0.173	-0.593	-109.375
0.085	0.501	0.230	0.749	0.901	0.333	0.139	-0.793	-0.552	-0.277	-0.024	-0.605	0.171	0.710	-0.189	0.613	0.355	-0.300	0.603	1.036	1.127	0.472	-0.012	0.023	-0.146	-0.158	-0.216	-0.402	-105.469
0.172	0.596	0.299	0.765	0.737	0.191	-0.018	-0.684	-0.388	-0.250	0.113	-0.342	-0.027	0.465	-0.222	0.605	0.324	-0.415	0.504	0.954	0.925	0.312	-0.244	-0.092	-0.194	-0.043	-0.201	-0.175	-101.562
0.237	0.664	0.337	0.746	0.547	0.022	-0.164	-0.559	-0.213	-0.199	0.237	-0.052	-0.195	0.221	-0.253	0.590	0.269	-0.534	0.369	0.833	0.694	0.136	-0.468	-0.177	-0.222	0.096	-0.125	0.079	-97.656
0.263	0.689	0.325	0.684	0.339	-0.168	-0.287	-0.434	-0.039	-0.126	0.342	0.247	-0.324	-0.003	-0.284	0.566	0.193	-0.647	0.208	0.676	0.447	-0.045	-0.664	-0.224	-0.218	0.263	0.008	0.351	-93.750
0.238	0.655	0.254	0.576	0.119	-0.370	-0.378	-0.318	0.125	-0.034	0.426	0.540	-0.407	-0.191	-0.317	0.524	0.101	-0.743	0.034	0.487	0.196	-0.218	-0.817	-0.227	-0.169	0.457	0.187	0.631	-89.844
0.156	0.557	0.125	0.426	-0.102	-0.573	-0.430	-0.217	0.269	0.071	0.487	0.812	-0.443	-0.334	-0.354	0.457	-0.005	-0.810	-0.144	0.273	-0.045	-0.374	-0.916	-0.186	-0.074	0.674	0.395	0.906	-85.938
0.025	0.399	-0.049	0.241	-0.316	-0.761	-0.443	-0.133	0.389	0.181	0.526	1.046	-0.439	-0.431	-0.394	0.360	-0.118	-0.840	-0.314	0.042	-0.270	-0.505	-0.959	-0.107	0.060	0.898	0.605	1.161	-82.031
-0.136	0.197	-0.243	0.037	-0.511	-0.920	-0.421	-0.064	0.483	0.288	0.542	1.230	-0.405	-0.489	-0.433	0.235	-0.231	-0.824	-0.466	-0.194	-0.471	-0.607	-0.947	-0.006	0.216	1.104	0.788	1.375	-78.125
-0.299	-0.026	-0.429	-0.165	-0.675	-1.034	-0.371	-0.006	0.550	0.382	0.538	1.350	-0.357	-0.521	-0.462	0.090	-0.333	-0.759	-0.591	-0.423	-0.649	-0.679	-0.892	0.099	0.368	1.264	0.910	1.527	-74.219
-0.434	-0.238	-0.576	-0.345	-0.799	-1.090	-0.306	0.048	0.594	0.453	0.517	1.395	-0.313	-0.545	-0.468	-0.060	-0.410	-0.646	-0.681	-0.635	-0.806	-0.724	-0.807	0.183	0.487	1.348	0.946	1.598	-70.312
-0.512	-0.412	-0.658	-0.486	-0.874	-1.080	-0.237	0.103	0.620	0.493	0.482	1.360	-0.290	-0.575	-0.439	-0.197	-0.451	-0.489	-0.730	-0.817	-0.943	-0.747	-0.709	0.224	0.545	1.332	0.878	1.573	-66.406
-0.514	-0.525	-0.660	-0.576	-0.899	-1.003	-0.174	0.164	0.631	0.498	0.437	1.247	-0.298	-0.625	-0.363	-0.303	-0.441	-0.298	-0.735	-0.961	-1.064	-0.756	-0.612	0.206	0.524	1.203	0.703	1.446	-62.500
-0.431	-0.564	-0.578	-0.613	-0.878	-0.868	-0.126	0.236	0.634	0.465	0.388	1.061	-0.342	-0.699	-0.234	-0.364	-0.372	-0.085	-0.695	-1.059	-1.169	-0.757	-0.532	0.116	0.414	0.961	0.427	1.219	-58.594
-0.267	-0.527	-0.419	-0.598	-0.820	-0.687	-0.098	0.317	0.632	0.397	0.339	0.817	-0.422	-0.796	-0.051	-0.373	-0.244	0.138	-0.615	-1.109	-1.254	-0.756	-0.479	-0.045	0.220	0.623	0.072	0.906	-54.688
-0.041	-0.421	-0.201	-0.543	-0.736	-0.480	-0.091	0.406	0.629	0.298	0.293	0.532	-0.530	-0.907	0.177	-0.330	-0.060	0.360	-0.504	-1.111	-1.318	-0.756	-0.456	-0.268	-0.039	0.219	-0.336	0.529	-50.781
0.224	-0.264	0.051	-0.459	-0.639	-0.267	-0.104	0.494	0.623	0.175	0.250	0.227	-0.655	-1.021	0.438	-0.242	0.167	0.571	-0.371	-1.069	-1.355	-0.759	-0.462	-0.539	-0.334	-0.211	-0.764	0.117	-46.875
0.497	-0.074	0.313	-0.356	-0.541	-0.065	-0.135	0.574	0.613	0.035	0.208	-0.077	-0.789	-1.127	0.710	-0.123	0.419	0.763	-0.229	-0.990	-1.365	-0.764	-0.489	-0.834	-0.631	-0.624	-1.183	-0.298	-42.969
0.753	0.131	0.562	-0.242	-0.451	0.112	-0.184	0.634	0.594	-0.114	0.159	-0.364	-0.924	-1.217	0.971	0.012	0.673	0.931	-0.089	-0.885	-1.349	-0.767	-0.527	-1.129	-0.894	-0.979	-1.563	-0.683	-39.062
0.972	0.335	0.783	-0.121	-0.375	0.258	-0.250	0.663	0.560	-0.269	0.097	-0.620	-1.056	-1.287	1.199	0.148	0.910	1.071	0.039	-0.765	-1.311	-0.766	-0.564	-1.400	-1.091	-1.244	-1.880	-1.012	-35.156
1.141	0.526	0.966	0.004	-0.318	0.369	-0.334	0.653	0.507	-0.425	0.016	-0.834	-1.184	-1.342	1.375	0.273	1.112	1.177	0.150	-0.643	-1.261	-0.758	-0.588	-1.628	-1.200	-1.396	-2.119	-1.263	-31.250
1.255	0.697	1.107	0.131	-0.284	0.448	-0.435	0.601	0.432	-0.579	-0.085	-1.001	-1.310	-1.385	1.485	0.380	1.266	1.250	0.243	-0.530	-1.208	-0.740	-0.591	-1.795	-1.210	-1.427	-2.269	-1.421	-27.344
1.314	0.841	1.204	0.256	-0.273	0.495	-0.552	0.509	0.337	-0.726	-0.203	-1.118	-1.433	-1.425	1.524	0.466	1.367	1.288	0.319	-0.435	-1.165	-0.713	-0.569	-1.894	-1.124	-1.342	-2.325	-1.480	-23.438
1.319	0.952	1.254	0.370	-0.289	0.512	-0.679	0.386	0.231	-0.860	-0.326	-1.184	-1.549	-1.467	1.495	0.529	1.417	1.295	0.381	-0.367	-1.141	-0.677	-0.523	-1.922	-0.954	-1.154	-2.290	-1.441	-19.531
1.273	1.026	1.255	0.461	-0.331	0.500	-0.807	0.249	0.127	-0.971	-0.441	-1.199	-1.655	-1.516	1.404	0.570	1.424	1.275	0.435	-0.328	-1.143	-0.635	-0.459	-1.886	-0.722	-0.885	-2.174	-1.314	-15.625
1.177	1.056	1.204	0.515	-0.398	0.459	-0.921	0.117	0.043	-1.050	-0.529	-1.163	-1.740	-1.569	1.268	0.591	1.396	1.232	0.481	-0.322	-1.173	-0.592	-0.387	-1.797	-0.455	-0.560	-1.989	-1.111	-11.719
1.035	1.036	1.099	0.519	-0.486	0.388	-1.006	0.009	-0.004	-1.084	-0.575	-1.078	-1.795	-1.620	1.101	0.593	1.346	1.171	0.519	-0.344	-1.229	-0.555	-0.320	-1.668	-0.180	-0.202	-1.752	-0.849	-7.812
0.852	0.964	0.940	0.466	-0.589	0.291	-1.046	-0.060	-0.001	-1.067	-0.569	-0.949	-1.813	-1.662	0.919	0.576	1.281	1.093	0.547	-0.391	-1.303	-0.528	-0.272	-1.514	0.081	0.167	-1.482	-0.547	-3.906
0.634	0.841	0.733	0.353	-0.697	0.169	-1.035	-0.086	0.057	-0.997	-0.509	-0.779	-1.788	-1.684	0.736	0.540	1.210	1.002	0.559	-0.456	-1.386	-0.516	-0.249	-1.350	0.310	0.530	-1.194	-0.221	0.000
0.395	0.674	0.485	0.185	-0.802	0.029	-0.974	-0.074	0.163	-0.879	-0.400	-0.578	-1.721	-1.681	0.566	0.486	1.137	0.900	0.552	-0.531	-1.464	-0.519	-0.255	-1.185	0.500	0.874	-0.904	0.113	3.906
0.148	0.475	0.213	-0.022	-0.897	-0.121	-0.873	-0.042	0.297	-0.730	-0.256	-0.356	-1.620	-1.648	0.419	0.418	1.068	0.792	0.525	-0.608	-1.529	-0.534	-0.288	-1.029	0.648	1.188	-0.627	0.438	7.812
-0.084	0.263	-0.064	-0.246	-0.976	-0.274	-0.756	-0.014	0.432	-0.572	-0.098	-0.128	-1.501	-1.590	0.307	0.340	1.007	0.689	0.480	-0.678	-1.572	-0.559	-0.342	-0.888	0.757	1.461	-0.378	0.739	11.719
-0.281	0.062	-0.322	-0.463	-1.036	-0.422	-0.648	-0.017	0.538	-0.433	0.051	0.090	-1.382	-1.514	0.238	0.262	0.964	0.603	0.425	-0.732	-1.593	-0.591	-0.406	-0.771	0.829	1.682	-0.171	0.999	15.625
-0.419	-0.104	-0.536	-0.645	-1.077	-0.557	-0.575	-0.071	0.588	-0.337	0.171	0.282	-1.284	-1.432	0.218	0.195	0.944	0.549	0.365	-0.765	-1.593	-0.626	-0.475	-0.688	0.867	1.839	-0.019	1.205	19.531
-0.483	-0.213	-0.684	-0.773	-1.103	-0.671	-0.558	-0.188	0.565	-0.303	0.246	0.438	-1.222	-1.358	0.248	0.149	0.951	0.537	0.306	-0.774	-1.581	-0.665	-0.544	-0.646	0.876	1.925	0.068	1.345	23.438
-0.465	-0.252	-0.750	-0.836	-1.118	-0.761	-0.603	-0.366	0.466	-0.338	0.271	0.549	-1.206	-1.303	0.322	0.132	0.983	0.573	0.253	-0.762	-1.567	-0.709	-0.612	-0.652	0.858	1.938	0.084	1.417	27.344
-0.371	-0.217	-0.729	-0.834	-1.127	-0.827	-0.705	-0.588	0.303	-0.436	0.253	0.616	-1.232	-1.274	0.429	0.144	1.029	0.651	0.203	-0.735	-1.563	-0.764	-0.682	-0.703	0.821	1.884	0.036	1.424	31.250
-0.217	-0.118	-0.626	-0.781	-1.135	-0.869	-0.846	-0.826	0.102	-0.579	0.207	0.640	-1.289	-1.274	0.548	0.180	1.072	0.758	0.151	-0.705	-1.579	-0.831	-0.756	-0.792	0.777	1.782	-0.063	1.379	35.156
-0.033	0.026	-0.461	-0.698	-1.145	-0.891	-0.998	-1.045	-0.101	-0.739	0.152	0.624	-1.356	-1.298	0.655	0.224	1.091	0.871	0.087	-0.688	-1.623	-0.915	-0.837	-0.902	0.740	1.655	-0.188	1.299	39.062
0.150	0.184	-0.261	-0.610	-1.159	-0.898	-1.130	-1.208	-0.269	-0.885	0.106	0.571	-1.412	-1.335	0.726	0.258	1.066	0.965	0.001	-0.698	-1.697	-1.016	-0.927	-1.009	0.729	1.535	-0.311	1.206	42.969
0.295	0.327	-0.058	-0.541	-1.177	-0.896	-1.213	-1.284	-0.364	-0.985	0.084	0.480	-1.436	-1.373	0.739	0.260	0.980	1.014	-0.113	-0.753	-1.801	-1.132	-1.024	-1.093	0.761	1.458	-0.403	1.122	46.875
0.374	0.420	0.116	-0.514	-1.200	-0.889	-1.227	-1.249	-0.357	-1.018	0.094	0.354	-1.415	-1.402	0.679	0.205	0.825	0.997	-0.262	-0.863	-1.933	-1.262	-1.124	-1.134	0.853	1.457	-0.437	1.070	50.781
0.364	0.438	0.233	-0.545	-1.231	-0.882	-1.161	-1.094	-0.226	-0.965	0.146	0.201	-1.347	-1.416	0.535	0.074	0.601	0.903	-0.446	-1.041	-2.090	-1.404	-1.223	-1.121	1.015	1.563	-0.392	1.073	54.688
0.253	0.360	0.274	-0.644	-1.277	-0.881	-1.018	-0.824	0.038	-0.822	0.249	0.042	-1.241	-1.418	0.307	-0.151	0.310	0.730	-0.668	-1.294	-2.273	-1.556	-1.321	-1.052	1.253	1.800	-0.255	1.159	58.594
0.038	0.173	0.227	-0.818	-1.345	-0.895	-0.812	-0.456	0.434	-0.590	0.425	-0.087	-1.114	-1.421	-0.004	-0.481	-0.038	0.489	-0.926	-1.629	-2.485	-1.720	-1.416	-0.933	1.566	2.183	-0.020	1.356	62.500
-0.279	-0.126	0.087	-1.070	-1.449	-0.935	-0.569	-0.023	0.951	-0.278	0.700	-0.132	-0.992	-1.444	-0.391	-0.921	-0.434	0.196	-1.221	-2.050	-2.733	-1.899	-1.511	-0.777	1.949	2.719	0.312	1.700	66.406
-0.691	-0.533	-0.147	-1.399	-1.602	-1.014	-0.320	0.435	1.567	0.100	1.109	-0.033	-0.899	-1.508	-0.846	-1.465	-0.868	-0.130	-1.551	-2.555	-3.024	-2.093	-1.610	-0.597	2.394	3.408	0.737	2.221	70.312
-1.186	-1.037	-0.473	-1.802	-1.817	-1.150	-0.097	0.876	2.254	0.523	1.676	0.267	-0.856	-1.636	-1.358	-2.098	-1.329	-0.468	-1.912	-3.138	-3.366	-2.300	-1.714	-0.401	2.896	4.242	1.250	2.943	74.219
-1.754	-1.622	-0.887	-2.273	-2.105	-1.357	0.071	1.260	2.979	0.966	2.415	0.804	-0.874	-1.840	-1.915	-2.798	-1.806	-0.799	-2.296	-3.784	-3.763	-2.515	-1.823	-0.191	3.452	5.207	1.844	3.876	78.125
-2.382	-2.265	-1.383	-2.803	-2.469	-1.645	0.162	1.562	3.706	1.402	3.311	1.585	-0.952	-2.125	-2.503	-3.533	-2.286	-1.112	-2.692	-4.472	-4.209	-2.727	-1.935	0.040	4.059	6.283	2.509	5.003	82.031
-3.056	-2.942	-1.951	-3.373	-2.904	-2.016	0.167	1.768	4.403	1.805	4.323	2.580	-1.077	-2.479	-3.107	-4.268	-2.754	-1.402	-3.083	-5.170	-4.692	-2.922	-2.040	0.301	4.719	7.443	3.233	6.282	85.938
-3.756	-3.624	-2.574	-3.963	-3.395	-2.459	0.091	1.883	5.043	2.154	5.383	3.720	-1.227	-2.881	-3.709	-4.965	-3.194	-1.667	-3.451	-5.843	-5.191	-3.086	-2.132	0.602	5.426	8.646	4.000	7.643	89.844
-4.459	-4.282	-3.228	-4.546	-3.919	-2.954	-0.050	1.922	5.601	2.431	6.404	4.910	-1.374	-3.297	-4.287	-5.589	-3.587	-1.905	-3.776	-6.453	-5.675	-3.208	-2.197	0.948	6.167	9.837	4.782	8.994	93.750
-5.134	-4.886	-3.881	-5.091	-4.446	-3.470	-0.227	1.910	6.058	2.632	7.298	6.038	-1.494	-3.691	-4.815	-6.109	-3.914	-2.112	-4.038	-6.965	-6.113	-3.277	-2.227	1.331	6.913	10.950	5.546	10.231	97.656
-5.743	-5.405	-4.494	-5.568	-4.941	-3.969	-0.410	1.867	6.398	2.758	7.986	6.997	-1.565	-4.028	-5.264	-6.501	-4.160	-2.281	-4.225	-7.349	-6.474	-3.292	-2.213	1.733	7.623	11.908	6.251	11.254	101.562
-6.243	-5.813	-5.024	-5.948	-5.375	-4.416	-0.572	1.807	6.607	2.816	8.416	7.704	-1.578	-4.283	-5.605	-6.751	-4.312	-2.398	-4.329	-7.586	-6.732	-3.254	-2.150	2.122	8.245	12.632	6.854	11.979	105.469
-6.592	-6.085	-5.429	-6.210	-5.720	-4.779	-0.692	1.732	6.673	2.819	8.568	8.112	-1.532	-4.438	-5.809	-6.855	-4.365	-2.449	-4.347	-7.669	-6.873	-3.169	-2.038	2.463	8.719	13.058	7.316	12.354	109.375
-6.756	-6.206	-5.674	-6.340	-5.959	-5.036	-0.762	1.632	6.585	2.779	8.454	8.215	-1.437	-4.491	-5.854	-6.816	-4.320	-2.419	-4.283	-7.603	-6.890	-3.048	-1.880	2.720	8.989	13.141	7.610	12.368	113.281
-6.712	-6.166	-5.736	-6.330	-6.082	-5.177	-0.785	1.486	6.340	2.707	8.118	8.050	-1.308	-4.448	-5.729	-6.645	-4.182	-2.301	-4.145	-7.400	-6.787	-2.899	-1.687	2.867	9.009	12.871	7.723	12.050	117.188
-6.459	-5.968	-5.608	-6.184	-6.090	-5.202	-0.773	1.270	5.942	2.609	7.624	7.684	-1.163	-4.324	-5.436	-6.356	-3.960	-2.095	-3.940	-7.078	-6.575	-2.734	-1.474	2.888	8.751	12.271	7.664	11.465	121.094
-6.014	-5.622	-5.300	-5.912	-5.988	-5.124	-0.746	0.963	5.403	2.492	7.044	7.205	-1.018	-4.137	-4.992	-5.964	-3.664	-1.811	-3.679	-6.654	-6.266	-2.560	-1.259	2.786	8.216	11.399	7.456	10.704	125.000
-5.412	-5.148	-4.839	-5.530	-5.792	-4.964	-0.722	0.551	4.751	2.359	6.447	6.701	-0.887	-3.904	-4.430	-5.483	-3.309	-1.473	-3.374	-6.145	-5.876	-2.387	-1.068	2.579	7.429	10.342	7.137	9.866	128.906
-4.708	-4.576	-4.270	-5.062	-5.519	-4.747	-0.716	0.039	4.024	2.213	5.894	6.249	-0.776	-3.642	-3.800	-4.930	-2.910	-1.115	-3.041	-5.571	-5.424	-2.225	-0.924	2.297	6.446	9.203	6.757	9.050	132.812
-3.967	-3.944	-3.646	-4.538	-5.193	-4.501	-0.735	-0.552	3.271	2.063	5.428	5.906	-0.684	-3.364	-3.158	-4.327	-2.491	-0.778	-2.701	-4.951	-4.928	-2.085	-0.852	1.981	5.347	8.097	6.370	8.343	136.719
-3.261	-3.298	-3.027	-3.993	-4.839	-4.254	-0.775	-1.185	2.550	1.920	5.076	5.707	-0.608	-3.081	-2.567	-3.706	-2.083	-0.505	-2.378	-4.315	-4.413	-1.979	-0.871	1.673	4.233	7.134	6.028	7.810	140.625
-2.659	-2.688	-2.475	-3.470	-4.481	-4.034	-0.823	-1.805	1.921	1.801	4.851	5.663	-0.536	-2.802	-2.089	-3.106	-1.724	-0.337	-2.102	-3.697	-3.908	-1.922	-0.992	1.414	3.207	6.409	5.779	7.495	144.531
-2.227	-2.166	-2.049	-3.012	-4.147	-3.863	-0.858	-2.352	1.444	1.729	4.755	5.769	-0.455	-2.533	-1.777	-2.581	-1.460	-0.306	-1.904	-3.143	-3.444	-1.927	-1.213	1.238	2.374	5.994	5.665	7.421	148.438
-2.012	-1.785	-1.795	-2.665	-3.861	-3.758	-0.856	-2.764	1.167	1.725	4.784	6.008	-0.351	-2.284	-1.671	-2.185	-1.337	-0.435	-1.815	-2.703	-3.055	-2.001	-1.524	1.167	1.817	5.934	5.715	7.592	152.344
-2.043	-1.586	-1.744	-2.467	-3.648	-3.731	-0.794	-2.989	1.126	1.813	4.933	6.361	-0.215	-2.065	-1.792	-1.974	-1.396	-0.733	-1.860	-2.426	-2.777	-2.150	-1.904	1.215	1.597	6.244	5.942	7.999	156.250
-2.322	-1.603	-1.906	-2.448	-3.527	-3.787	-0.655	-2.993	1.341	2.013	5.200	6.813	-0.040	-1.887	-2.142	-1.994	-1.666	-1.193	-2.056	-2.356	-2.636	-2.375	-2.325	1.379	1.738	6.906	6.350	8.621	160.156
-2.830	-1.848	-2.266	-2.624	-3.517	-3.923	-0.429	-2.760	1.814	2.337	5.582	7.347	0.173	-1.763	-2.704	-2.271	-2.158	-1.800	-2.410	-2.523	-2.655	-2.673	-2.758	1.647	2.229	7.879	6.925	9.426	164.062
-3.526	-2.318	-2.791	-2.993	-3.625	-4.130	-0.115	-2.298	2.528	2.790	6.080	7.951	0.417	-1.701	-3.443	-2.812	-2.864	-2.527	-2.917	-2.938	-2.843	-3.036	-3.179	1.999	3.025	9.096	7.641	10.377	167.969
-4.354	-2.987	-3.435	-3.537	-3.850	-4.395	0.280	-1.635	3.453	3.366	6.688	8.613	0.682	-1.709	-4.315	-3.596	-3.753	-3.339	-3.558	-3.591	-3.195	-3.454	-3.569	2.407	4.057	10.482	8.460	11.432	171.875
-5.254	-3.814	-4.146	-4.223	-4.182	-4.700	0.742	-0.816	4.547	4.053	7.397	9.317	0.954	-1.786	-5.267	-4.583	-4.778	-4.198	-4.304	-4.451	-3.695	-3.912	-3.916	2.843	5.239	11.954	9.339	12.542	175.781
-6.168	-4.749	-4.875	-5.008	-4.601	-5.023	1.248	0.107	5.759	4.825	8.191	10.044	1.220	-1.928	-6.247	-5.715	-5.881	-5.064	-5.117	-5.468	-4.316	-4.391	-4.216	3.280	6.482	13.435	10.235	13.660	179.688
-7.048	-5.735	-5.583	-5.846	-5.078	-5.346	1.776	1.077	7.034	5.654	9.048	10.773	1.465	-2.122	-7.206	-6.926	-6.996	-5.899	-5.954	-6.582	-5.020	-4.871	-4.471	3.696	7.703	14.855	11.106	14.741	183.594
-7.857	-6.720	-6.244	-6.693	-5.583	-5.654	2.297	2.043	8.320	6.505	9.940	11.481	1.682	-2.355	-8.102	-8.148	-8.066	-6.670	-6.770	-7.728	-5.766	-5.328	-4.684	4.075	8.836	16.160	11.918	15.745	187.500
-8.574	-7.659	-6.842	-7.508	-6.086	-5.936	2.785	2.960	9.566	7.341	10.835	12.144	1.864	-2.605	-8.902	-9.318	-9.038	-7.348	-7.526	-8.843	-6.511	-5.743	-4.861	4.408	9.835	17.313	12.648	16.643	191.406
-9.190	-8.519	-7.373	-8.263	-6.563	-6.186	3.213	3.793	10.732	8.125	11.701	12.745	2.008	-2.855	-9.584	-10.385	-9.877	-7.915	-8.190	-9.873	-7.215	-6.096	-5.007	4.689	10.673	18.289	13.278	17.413	195.312
-9.703	-9.276	-7.839	-8.936	-6.992	-6.402	3.562	4.519	11.782	8.826	12.505	13.267	2.114	-3.083	-10.134	-11.312	-10.561	-8.360	-8.740	-10.777	-7.845	-6.375	-5.124	4.919	11.346	19.079	13.803	18.044	199.219
-10.116	-9.919	-8.242	-9.514	-7.360	-6.585	3.821	5.125	12.693	9.417	13.220	13.699	2.186	-3.271	-10.549	-12.077	-11.086	-8.684	-9.168	-11.527	-8.372	-6.576	-5.213	5.099	11.861	19.679	14.217	18.532	203.125
-10.433	-10.441	-8.585	-9.989	-7.659	-6.732	3.987	5.608	13.449	9.880	13.821	14.034	2.229	-3.405	-10.833	-12.673	-11.460	-8.899	-9.475	-12.110	-8.779	-6.698	-5.272	5.234	12.232	20.093	14.521	18.877	207.031
-10.654	-10.843	-8.866	-10.357	-7.883	-6.844	4.069	5.974	14.042	10.207	14.291	14.268	2.251	-3.473	-10.999	-13.105	-11.700	-9.023	-9.671	-12.528	-9.055	-6.747	-5.301	5.330	12.477	20.325	14.716	19.081	210.938
-10.778	-11.123	-9.082	-10.617	-8.032	-6.916	4.081	6.234	14.469	10.404	14.621	14.399	2.265	-3.466	-11.060	-13.384	-11.830	-9.079	-9.769	-12.786	-9.195	-6.733	-5.300	5.393	12.610	20.382	14.804	19.150	214.844
-10.803	-11.285	-9.228	-10.769	-8.105	-6.944	4.048	6.404	14.736	10.481	14.809	14.426	2.281	-3.380	-11.036	-13.529	-11.872	-9.089	-9.784	-12.898	-9.202	-6.665	-5.271	5.432	12.640	20.272	14.789	19.086	218.750
-10.729	-11.332	-9.300	-10.813	-8.103	-6.927	3.994	6.498	14.851	10.461	14.859	14.354	2.315	-3.213	-10.945	-13.556	-11.843	-9.073	-9.727	-12.875	-9.079	-6.551	-5.215	5.453	12.573	20.005	14.677	18.895	222.656
-10.563	-11.269	-9.298	-10.754	-8.028	-6.864	3.940	6.528	14.825	10.368	14.780	14.188	2.378	-2.968	-10.804	-13.483	-11.757	-9.043	-9.605	-12.728	-8.833	-6.394	-5.138	5.463	12.408	19.594	14.475	18.583	226.562
-10.318	-11.105	-9.222	-10.598	-7.883	-6.758	3.906	6.502	14.673	10.225	14.587	13.936	2.480	-2.648	-10.629	-13.321	-11.619	-9.003	-9.421	-12.468	-8.473	-6.198	-5.042	5.471	12.147	19.059	14.197	18.159	230.469
-10.015	-10.854	-9.076	-10.355	-7.672	-6.613	3.898	6.426	14.412	10.056	14.296	13.611	2.628	-2.263	-10.433	-13.081	-11.430	-8.952	-9.176	-12.102	-8.011	-5.962	-4.931	5.482	11.794	18.425	13.858	17.639	234.375
-9.682	-10.531	-8.871	-10.042	-7.401	-6.439	3.920	6.299	14.060	9.874	13.925	13.228	2.823	-1.820	-10.229	-12.771	-11.188	-8.882	-8.868	-11.639	-7.461	-5.686	-4.809	5.503	11.358	17.724	13.477	17.040	238.281
-9.346	-10.158	-8.618	-9.675	-7.080	-6.245	3.962	6.121	13.635	9.690	13.495	12.804	3.063	-1.333	-10.025	-12.397	-10.890	-8.787	-8.497	-11.089	-6.837	-5.369	-4.674	5.538	10.856	16.991	13.078	16.386	242.188
-9.036	-9.757	-8.336	-9.273	-6.720	-6.040	4.014	5.890	13.155	9.505	13.024	12.355	3.338	-0.815	-9.828	-11.967	-10.535	-8.661	-8.068	-10.465	-6.160	-5.013	-4.527	5.592	10.310	16.261	12.683	15.707	246.094
-8.776	-9.348	-8.049	-8.855	-6.333	-5.835	4.060	5.605	12.637	9.319	12.533	11.902	3.639	-0.281	-9.647	-11.493	-10.126	-8.500	-7.589	-9.785	-5.449	-4.624	-4.365	5.669	9.746	15.568	12.318	15.032	250.000
-8.582	-8.951	-7.782	-8.439	-5.935	-5.640	4.087	5.270	12.097	9.127	12.039	11.459	3.952	0.254	-9.486	-10.989	-9.671	-8.309	-7.071	-9.070	-4.725	-4.208	-4.188	5.770	9.193	14.942	12.003	14.392	253.906
-8.463	-8.581	-7.563	-8.037	-5.538	-5.464	4.086	4.893	11.552	8.929	11.559	11.043	4.266	0.775	-9.353	-10.475	-9.184	-8.095	-6.531	-8.347	-4.011	-3.774	-3.994	5.897	8.679	14.404	11.756	13.817	257.812
-8.419	-8.251	-7.413	-7.659	-5.157	-5.316	4.053	4.483	11.021	8.724	11.112	10.666	4.568	1.266	-9.255	-9.971	-8.683	-7.869	-5.985	-7.641	-3.327	-3.334	-3.787	6.049	8.226	13.969	11.586	13.329	261.719
-8.445	-7.968	-7.346	-7.313	-4.804	-5.206	3.993	4.056	10.519	8.518	10.710	10.335	4.851	1.717	-9.199	-9.500	-8.185	-7.646	-5.446	-6.977	-2.689	-2.895	-3.569	6.222	7.854	13.642	11.497	12.944	265.625
-8.534	-7.732	-7.366	-6.999	-4.488	-5.141	3.912	3.627	10.063	8.316	10.364	10.053	5.107	2.118	-9.190	-9.080	-7.707	-7.437	-4.927	-6.376	-2.111	-2.467	-3.347	6.414	7.572	13.418	11.483	12.666	269.531
-8.675	-7.543	-7.469	-6.718	-4.212	-5.125	3.821	3.211	9.662	8.126	10.077	9.818	5.334	2.465	-9.234	-8.723	-7.260	-7.250	-4.434	-5.847	-1.599	-2.055	-3.125	6.619	7.385	13.286	11.533	12.490	273.438
-8.860	-7.397	-7.638	-6.466	-3.977	-5.157	3.731	2.816	9.321	7.957	9.848	9.627	5.534	2.759	-9.329	-8.433	-6.848	-7.086	-3.966	-5.393	-1.150	-1.660	-2.908	6.830	7.285	13.227	11.629	12.400	277.344
-9.081	-7.286	-7.857	-6.241	-3.779	-5.234	3.650	2.450	9.039	7.812	9.668	9.471	5.708	3.008	-9.471	-8.206	-6.469	-6.941	-3.522	-5.006	-0.757	-1.282	-2.700	7.043	7.263	13.219	11.752	12.374	281.250
-9.330	-7.204	-8.106	-6.037	-3.613	-5.348	3.585	2.113	8.807	7.696	9.526	9.343	5.867	3.222	-9.651	-8.032	-6.118	-6.807	-3.096	-4.673	-0.407	-0.921	-2.504	7.251	7.298	13.241	11.886	12.387	285.156
-9.601	-7.143	-8.366	-5.853	-3.467	-5.486	3.541	1.803	8.614	7.608	9.405	9.236	6.019	3.417	-9.857	-7.898	-5.789	-6.676	-2.684	-4.379	-0.087	-0.573	-2.319	7.451	7.373	13.272	12.016	12.415	289.062
-9.889	-7.098	-8.624	-5.684	-3.334	-5.634	3.524	1.517	8.448	7.549	9.289	9.144	6.178	3.609	-10.074	-7.789	-5.477	-6.541	-2.283	-4.107	0.218	-0.239	-2.146	7.643	7.467	13.300	12.134	12.436	292.969
-10.188	-7.065	-8.868	-5.528	-3.202	-5.779	3.537	1.252	8.298	7.519	9.165	9.060	6.358	3.816	-10.287	-7.694	-5.182	-6.402	-1.897	-3.851	0.516	0.080	-1.983	7.829	7.565	13.315	12.237	12.436	296.875
-10.495	-7.042	-9.091	-5.386	-3.063	-5.905	3.582	1.009	8.156	7.517	9.024	8.979	6.571	4.050	-10.486	-7.606	-4.907	-6.264	-1.532	-3.604	0.813	0.385	-1.827	8.011	7.654	13.315	12.328	12.407	300.781
-10.803	-7.026	-9.290	-5.256	-2.911	-6.001	3.662	0.792	8.021	7.544	8.862	8.896	6.825	4.321	-10.661	-7.519	-4.658	-6.137	-1.196	-3.367	1.110	0.673	-1.675	8.195	7.730	13.301	12.411	12.347	304.688
-11.105	-7.016	-9.465	-5.138	-2.740	-6.058	3.774	0.606	7.890	7.598	8.682	8.804	7.124	4.633	-10.808	-7.429	-4.444	-6.036	-0.899	-3.143	1.405	0.945	-1.524	8.387	7.790	13.275	12.489	12.258	308.594
-11.394	-7.009	-9.618	-5.031	-2.551	-6.069	3.917	0.458	7.765	7.676	8.490	8.697	7.462	4.985	-10.928	-7.337	-4.271	-5.972	-0.650	-2.934	1.696	1.199	-1.374	8.587	7.836	13.238	12.562	12.141	312.500
-11.658	-6.999	-9.753	-4.932	-2.344	-6.030	4.084	0.357	7.650	7.772	8.294	8.571	7.827	5.367	-11.021	-7.238	-4.144	-5.952	-0.455	-2.742	1.978	1.435	-1.223	8.794	7.868	13.188	12.628	12.000	316.406
-11.890	-6.981	-9.873	-4.836	-2.125	-5.941	4.269	0.305	7.546	7.878	8.102	8.426	8.201	5.767	-11.091	-7.133	-4.062	-5.979	-0.316	-2.565	2.246	1.652	-1.076	9.001	7.887	13.122	12.678	11.838	320.312
-12.079	-6.950	-9.978	-4.738	-1.900	-5.806	4.462	0.305	7.455	7.983	7.921	8.264	8.559	6.167	-11.143	-7.020	-4.022	-6.047	-0.231	-2.401	2.494	1.846	-0.937	9.197	7.891	13.031	12.704	11.657	324.219
-12.220	-6.902	-10.068	-4.635	-1.679	-5.630	4.654	0.351	7.378	8.074	7.759	8.095	8.878	6.544	-11.182	-6.900	-4.018	-6.147	-0.195	-2.248	2.715	2.013	-0.812	9.365	7.878	12.909	12.696	11.460	328.125
-12.314	-6.838	-10.137	-4.524	-1.469	-5.423	4.832	0.438	7.314	8.142	7.623	7.933	9.134	6.878	-11.212	-6.776	-4.041	-6.267	-0.202	-2.107	2.904	2.149	-0.707	9.490	7.845	12.752	12.649	11.250	332.031
-12.364	-6.759	-10.179	-4.407	-1.280	-5.196	4.985	0.554	7.261	8.177	7.519	7.797	9.311	7.146	-11.239	-6.655	-4.084	-6.393	-0.244	-1.981	3.052	2.250	-0.623	9.561	7.795	12.558	12.565	11.037	335.938
-12.379	-6.675	-10.186	-4.287	-1.118	-4.964	5.103	0.692	7.217	8.173	7.452	7.701	9.399	7.331	-11.269	-6.545	-4.142	-6.515	-0.314	-1.877	3.153	2.313	-0.560	9.570	7.732	12.335	12.447	10.827	339.844
-12.373	-6.596	-10.153	-4.173	-0.988	-4.738	5.179	0.841	7.184	8.131	7.423	7.658	9.395	7.424	-11.309	-6.457	-4.211	-6.624	-0.404	-1.802	3.203	2.339	-0.513	9.519	7.666	12.093	12.307	10.632	343.750
-12.363	-6.533	-10.081	-4.075	-0.891	-4.532	5.212	0.998	7.162	8.055	7.435	7.675	9.308	7.423	-11.363	-6.400	-4.291	-6.715	-0.510	-1.763	3.200	2.329	-0.478	9.418	7.611	11.850	12.156	10.460	347.656
-12.362	-6.497	-9.975	-4.003	-0.825	-4.353	5.205	1.159	7.158	7.956	7.484	7.749	9.155	7.335	-11.438	-6.383	-4.384	-6.790	-0.629	-1.764	3.146	2.286	-0.448	9.285	7.583	11.627	12.008	10.322	351.562
-12.382	-6.495	-9.846	-3.966	-0.787	-4.208	5.169	1.324	7.178	7.849	7.566	7.870	8.957	7.179	-11.535	-6.411	-4.493	-6.856	-0.760	-1.805	3.046	2.215	-0.421	9.143	7.596	11.444	11.877	10.226	355.469
-12.432	-6.534	-9.710	-3.969	-0.770	-4.098	5.117	1.492	7.225	7.752	7.671	8.025	8.744	6.980	-11.657	-6.487	-4.624	-6.928	-0.903	-1.885	2.910	2.121	-0.396	9.018	7.662	11.325	11.780	10.178	359.375
-12.513	-6.613	-9.585	-4.015	-0.770	-4.023	5.066	1.659	7.302	7.683	7.792	8.199	8.546	6.769	-11.803	-6.612	-4.785	-7.022	-1.063	-1.998	2.751	2.006	-0.374	8.935	7.787	11.289	11.729	10.189	363.281
-12.624	-6.735	-9.493	-4.106	-0.783	-3.982	5.029	1.819	7.406	7.656	7.919	8.378	8.390	6.576	-11.970	-6.782	-4.980	-7.151	-1.240	-2.141	2.585	1.878	-0.358	8.916	7.973	11.351	11.742	10.267	367.188
-12.763	-6.900	-9.452	-4.241	-0.813	-3.979	5.015	1.962	7.527	7.681	8.044	8.554	8.298	6.426	-12.156	-6.997	-5.215	-7.324	-1.436	-2.308	2.426	1.742	-0.347	8.973	8.219	11.520	11.831	10.420	371.094
-12.928	-7.111	-9.480	-4.420	-0.862	-4.017	5.031	2.076	7.652	7.760	8.165	8.727	8.284	6.337	-12.355	-7.256	-5.493	-7.539	-1.649	-2.495	2.284	1.607	-0.340	9.114	8.518	11.798	12.007	10.656	375.000
-13.119	-7.372	-9.590	-4.645	-0.938	-4.101	5.075	2.153	7.768	7.891	8.281	8.904	8.352	6.313	-12.563	-7.555	-5.812	-7.782	-1.874	-2.700	2.166	1.484	-0.333	9.333	8.860	12.178	12.271	10.976	378.906
-13.337	-7.685	-9.792	-4.914	-1.044	-4.235	5.144	2.188	7.865	8.067	8.401	9.102	8.496	6.351	-12.780	-7.893	-6.168	-8.035	-2.104	-2.920	2.075	1.381	-0.321	9.617	9.233	12.641	12.620	11.379	382.812
-13.583	-8.048	-10.086	-5.222	-1.178	-4.420	5.234	2.184	7.939	8.281	8.541	9.343	8.704	6.434	-13.006	-8.264	-6.552	-8.276	-2.330	-3.151	2.008	1.304	-0.300	9.945	9.617	13.156	13.037	11.850	386.719
-13.858	-8.451	-10.462	-5.557	-1.331	-4.647	5.343	2.152	7.996	8.529	8.718	9.650	8.959	6.545	-13.243	-8.657	-6.952	-8.488	-2.543	-3.386	1.961	1.254	-0.272	10.288	9.986	13.684	13.495	12.368	390.625
-14.154	-8.876	-10.899	-5.900	-1.486	-4.900	5.472	2.110	8.048	8.806	8.950	10.041	9.240	6.662	-13.491	-9.057	-7.352	-8.660	-2.737	-3.615	1.928	1.226	-0.241	10.612	10.310	14.173	13.959	12.902	394.531
-14.458	-9.296	-11.364	-6.222	-1.617	-5.156	5.625	2.076	8.110	9.109	9.244	10.520	9.524	6.767	-13.745	-9.442	-7.734	-8.790	-2.906	-3.823	1.906	1.210	-0.219	10.881	10.554	14.571	14.385	13.412	398.438
-14.749	-9.677	-11.818	-6.493	-1.701	-5.386	5.807	2.071	8.198	9.433	9.601	11.075	9.790	6.849	-13.996	-9.790	-8.080	-8.886	-3.046	-3.994	1.890	1.192	-0.216	11.064	10.684	14.829	14.728	13.853	402.344
-15.000	-9.988	-12.218	-6.681	-1.712	-5.562	6.019	2.111	8.326	9.773	10.008	11.676	10.018	6.901	-14.227	-10.075	-8.374	-8.960	-3.157	-4.113	1.882	1.160	-0.245	11.132	10.673	14.905	14.944	14.185	406.250
-15.182	-10.199	-12.524	-6.764	-1.635	-5.657	6.262	2.203	8.499	10.119	10.443	12.277	10.192	6.927	-14.421	-10.280	-8.605	-9.026	-3.242	-4.167	1.886	1.104	-0.314	11.072	10.502	14.776	15.001	14.372	410.156
-15.271	-10.296	-12.705	-6.732	-1.465	-5.655	6.528	2.348	8.716	10.456	10.879	12.826	10.300	6.935	-14.558	-10.393	-8.765	-9.100	-3.305	-4.150	1.905	1.017	-0.425	10.882	10.171	14.437	14.882	14.395	414.062
-15.253	-10.277	-12.746	-6.589	-1.207	-5.549	6.805	2.539	8.971	10.769	11.285	13.272	10.338	6.935	-14.623	-10.413	-8.858	-9.189	-3.351	-4.062	1.947	0.902	-0.576	10.576	9.693	13.909	14.589	14.250	417.969
-15.125	-10.153	-12.647	-6.354	-0.879	-5.346	7.078	2.762	9.249	11.041	11.635	13.571	10.308	6.941	-14.608	-10.348	-8.890	-9.295	-3.387	-3.912	2.015	0.765	-0.759	10.180	9.100	13.231	14.145	13.954	421.875
-14.895	-9.950	-12.424	-6.057	-0.508	-5.063	7.327	2.996	9.530	11.255	11.910	13.700	10.218	6.959	-14.513	-10.217	-8.873	-9.414	-3.418	-3.712	2.113	0.618	-0.963	9.731	8.433	12.458	13.589	13.539	425.781
-14.583	-9.700	-12.109	-5.734	-0.123	-4.726	7.534	3.222	9.793	11.401	12.094	13.653	10.084	6.996	-14.344	-10.041	-8.826	-9.531	-3.446	-3.482	2.237	0.475	-1.176	9.268	7.744	11.653	12.972	13.048	429.688
-14.216	-9.434	-11.738	-5.420	0.245	-4.365	7.681	3.420	10.015	11.468	12.180	13.451	9.920	7.049	-14.114	-9.846	-8.764	-9.633	-3.475	-3.242	2.382	0.350	-1.385	8.828	7.080	10.878	12.350	12.529	433.594
-13.825	-9.182	-11.350	-5.141	0.567	-4.012	7.758	3.573	10.175	11.453	12.167	13.132	9.742	7.110	-13.840	-9.653	-8.701	-9.700	-3.502	-3.010	2.537	0.254	-1.576	8.440	6.485	10.183	11.771	12.030	437.500
-13.440	-8.963	-10.975	-4.915	0.826	-3.694	7.757	3.671	10.258	11.359	12.061	12.746	9.562	7.167	-13.539	-9.479	-8.646	-9.721	-3.526	-2.803	2.686	0.194	-1.739	8.121	5.989	9.607	11.275	11.588	441.406
-13.084	-8.788	-10.635	-4.747	1.008	-3.427	7.679	3.710	10.256	11.191	11.875	12.347	9.385	7.200	-13.231	-9.337	-8.604	-9.687	-3.542	-2.634	2.812	0.172	-1.862	7.876	5.614	9.171	10.885	11.230	445.312
-12.774	-8.658	-10.340	-4.632	1.114	-3.222	7.531	3.693	10.171	10.960	11.627	11.983	9.207	7.188	-12.934	-9.231	-8.571	-9.596	-3.548	-2.513	2.894	0.186	-1.936	7.696	5.367	8.880	10.606	10.971	449.219
-12.521	-8.570	-10.089	-4.560	1.146	-3.078	7.323	3.629	10.015	10.679	11.344	11.692	9.017	7.107	-12.664	-9.166	-8.544	-9.451	-3.542	-2.449	2.911	0.226	-1.953	7.565	5.246	8.727	10.432	10.811	453.125
-12.325	-8.515	-9.873	-4.519	1.113	-2.986	7.071	3.534	9.811	10.367	11.057	11.496	8.798	6.938	-12.436	-9.140	-8.516	-9.260	-3.525	-2.447	2.844	0.282	-1.907	7.463	5.242	8.698	10.346	10.746	457.031
-12.180	-8.486	-9.683	-4.502	1.026	-2.935	6.790	3.425	9.587	10.043	10.798	11.401	8.533	6.666	-12.259	-9.154	-8.486	-9.036	-3.501	-2.513	2.680	0.340	-1.799	7.369	5.341	8.775	10.324	10.764	460.938
-12.075	-8.475	-9.509	-4.503	0.895	-2.910	6.499	3.321	9.374	9.726	10.593	11.401	8.206	6.288	-12.138	-9.205	-8.454	-8.791	-3.477	-2.649	2.411	0.388	-1.635	7.267	5.523	8.935	10.343	10.851	464.844
-11.996	-8.476	-9.343	-4.522	0.729	-2.901	6.211	3.237	9.202	9.436	10.460	11.476	7.813	5.811	-12.073	-9.291	-8.427	-8.539	-3.464	-2.851	2.044	0.413	-1.430	7.147	5.766	9.157	10.383	10.993	468.750
-11.926	-8.484	-9.184	-4.561	0.538	-2.900	5.941	3.183	9.088	9.189	10.404	11.602	7.356	5.253	-12.055	-9.403	-8.413	-8.294	-3.472	-3.107	1.596	0.404	-1.204	7.004	6.045	9.419	10.427	11.173	472.656
-11.847	-8.492	-9.028	-4.621	0.332	-2.901	5.700	3.162	9.042	8.997	10.421	11.753	6.854	4.645	-12.072	-9.534	-8.420	-8.072	-3.511	-3.403	1.092	0.355	-0.983	6.842	6.331	9.699	10.463	11.374	476.562
-11.743	-8.497	-8.874	-4.700	0.118	-2.905	5.494	3.166	9.056	8.868	10.497	11.906	6.332	4.021	-12.104	-9.671	-8.456	-7.881	-3.587	-3.715	0.566	0.260	-0.794	6.666	6.597	9.973	10.485	11.577	480.469
-11.601	-8.491	-8.721	-4.793	-0.094	-2.914	5.327	3.184	9.115	8.802	10.613	12.044	5.824	3.417	-12.130	-9.797	-8.522	-7.728	-3.705	-4.023	0.051	0.122	-0.659	6.485	6.818	10.220	10.490	11.763	484.375
-11.415	-8.470	-8.567	-4.892	-0.298	-2.932	5.200	3.197	9.193	8.798	10.752	12.158	5.362	2.866	-12.128	-9.901	-8.616	-7.609	-3.860	-4.307	-0.421	-0.056	-0.596	6.307	6.971	10.417	10.478	11.912	488.281
-11.181	-8.432	-8.412	-4.991	-0.493	-2.966	5.109	3.186	9.261	8.848	10.898	12.243	4.977	2.395	-12.080	-9.969	-8.727	-7.516	-4.043	-4.551	-0.826	-0.261	-0.607	6.139	7.045	10.548	10.449	12.008	492.188
-10.907	-8.375	-8.256	-5.081	-0.677	-3.022	5.048	3.133	9.294	8.936	11.037	12.298	4.691	2.020	-11.974	-9.995	-8.841	-7.433	-4.237	-4.746	-1.148	-0.478	-0.685	5.990	7.037	10.600	10.409	12.039	496.094
-10.602	-8.302	-8.103	-5.159	-0.853	-3.103	5.008	3.026	9.269	9.046	11.155	12.321	4.513	1.753	-11.804	-9.975	-8.940	-7.342	-4.421	-4.888	-1.378	-0.686	-0.807	5.864	6.955	10.567	10.361	11.996	500.000
-10.283	-8.218	-7.959	-5.224	-1.023	-3.211	4.979	2.859	9.170	9.154	11.237	12.308	4.442	1.592	-11.574	-9.913	-9.004	-7.226	-4.571	-4.976	-1.516	-0.863	-0.944	5.764	6.816	10.451	10.307	11.879	503.906
-9.965	-8.127	-7.830	-5.276	-1.190	-3.348	4.948	2.632	8.991	9.235	11.263	12.249	4.462	1.531	-11.291	-9.809	-9.013	-7.068	-4.665	-5.010	-1.564	-0.987	-1.063	5.694	6.641	10.265	10.248	11.692	507.812
-9.664	-8.031	-7.720	-5.318	-1.355	-3.510	4.903	2.351	8.731	9.260	11.212	12.132	4.550	1.557	-10.968	-9.667	-8.950	-6.860	-4.684	-4.990	-1.534	-1.041	-1.136	5.652	6.458	10.025	10.182	11.444	511.719
-9.386	-7.930	-7.632	-5.348	-1.518	-3.691	4.830	2.027	8.394	9.204	11.064	11.944	4.675	1.648	-10.618	-9.487	-8.801	-6.598	-4.617	-4.914	-1.435	-1.018	-1.142	5.633	6.287	9.755	10.106	11.148	515.625
-9.136	-7.817	-7.560	-5.365	-1.673	-3.880	4.718	1.675	7.993	9.048	10.806	11.673	4.803	1.783	-10.257	-9.263	-8.559	-6.286	-4.462	-4.781	-1.282	-0.922	-1.076	5.631	6.145	9.478	10.013	10.818	519.531
-8.908	-7.685	-7.499	-5.365	-1.814	-4.067	4.562	1.313	7.542	8.785	10.437	11.314	4.905	1.936	-9.895	-8.991	-8.221	-5.937	-4.229	-4.590	-1.089	-0.767	-0.946	5.635	6.040	9.215	9.898	10.470	523.438
-8.694	-7.528	-7.438	-5.341	-1.934	-4.237	4.362	0.961	7.066	8.421	9.968	10.874	4.958	2.084	-9.545	-8.667	-7.800	-5.567	-3.938	-4.346	-0.876	-0.579	-0.773	5.632	5.970	8.985	9.761	10.120	527.344
-8.486	-7.344	-7.369	-5.292	-2.025	-4.377	4.126	0.643	6.592	7.980	9.432	10.374	4.949	2.206	-9.214	-8.294	-7.316	-5.201	-3.616	-4.059	-0.660	-0.389	-0.590	5.609	5.926	8.801	9.603	9.785	531.250
-8.281	-7.135	-7.284	-5.217	-2.083	-4.477	3.872	0.380	6.152	7.501	8.874	9.845	4.877	2.290	-8.913	-7.885	-6.801	-4.868	-3.296	-3.750	-0.463	-0.232	-0.431	5.556	5.896	8.669	9.434	9.482	535.156
-8.077	-6.914	-7.181	-5.121	-2.106	-4.530	3.623	0.193	5.779	7.032	8.350	9.331	4.751	2.328	-8.647	-7.460	-6.299	-4.595	-3.014	-3.443	-0.301	-0.136	-0.327	5.468	5.865	8.588	9.265	9.226	539.062
-7.883	-6.698	-7.064	-5.014	-2.099	-4.532	3.407	0.098	5.503	6.623	7.919	8.876	4.588	2.322	-8.425	-7.052	-5.852	-4.410	-2.796	-3.167	-0.191	-0.122	-0.301	5.344	5.825	8.554	9.110	9.032	542.969
-7.711	-6.505	-6.941	-4.907	-2.069	-4.489	3.245	0.102	5.344	6.318	7.628	8.524	4.409	2.277	-8.254	-6.692	-5.502	-4.329	-2.662	-2.948	-0.141	-0.195	-0.358	5.191	5.771	8.559	8.981	8.907	546.875
-7.573	-6.352	-6.821	-4.814	-2.026	-4.408	3.153	0.202	5.309	6.144	7.510	8.302	4.233	2.203	-8.139	-6.412	-5.277	-4.357	-2.619	-2.806	-0.154	-0.345	-0.492	5.021	5.705	8.589	8.884	8.853	550.781
-7.480	-6.249	-6.714	-4.743	-1.980	-4.301	3.131	0.383	5.391	6.104	7.572	8.222	4.071	2.109	-8.081	-6.230	-5.188	-4.483	-2.657	-2.752	-0.225	-0.550	-0.677	4.846	5.630	8.633	8.818	8.864	554.688
-7.433	-6.194	-6.624	-4.698	-1.944	-4.180	3.165	0.625	5.566	6.178	7.795	8.273	3.926	1.998	-8.075	-6.153	-5.226	-4.681	-2.757	-2.780	-0.344	-0.780	-0.883	4.678	5.556	8.675	8.775	8.924	558.594
-7.426	-6.176	-6.545	-4.676	-1.925	-4.055	3.229	0.897	5.795	6.323	8.134	8.421	3.787	1.870	-8.112	-6.171	-5.364	-4.908	-2.890	-2.878	-0.501	-0.999	-1.073	4.521	5.487	8.701	8.737	9.010	562.500
-7.444	-6.173	-6.469	-4.666	-1.928	-3.934	3.286	1.170	6.036	6.481	8.527	8.617	3.634	1.716	-8.173	-6.258	-5.555	-5.117	-3.022	-3.022	-0.685	-1.177	-1.212	4.373	5.427	8.699	8.681	9.093	566.406
-7.462	-6.160	-6.380	-4.653	-1.954	-3.819	3.301	1.418	6.245	6.589	8.903	8.803	3.441	1.522	-8.233	-6.377	-5.750	-5.258	-3.125	-3.184	-0.886	-1.293	-1.277	4.223	5.377	8.658	8.580	9.141	570.312
-7.453	-6.109	-6.259	-4.622	-1.999	-3.707	3.240	1.620	6.385	6.592	9.193	8.921	3.179	1.275	-8.262	-6.487	-5.894	-5.288	-3.172	-3.338	-1.097	-1.339	-1.257	4.055	5.333	8.570	8.408	9.127	574.219
-7.391	-6.002	-6.086	-4.559	-2.057	-3.593	3.082	1.766	6.429	6.451	9.342	8.925	2.827	0.964	-8.233	-6.550	-5.946	-5.181	-3.153	-3.461	-1.317	-1.320	-1.154	3.847	5.291	8.431	8.143	9.027	578.125
-7.254	-5.825	-5.847	-4.457	-2.119	-3.473	2.820	1.851	6.366	6.149	9.315	8.787	2.371	0.586	-8.122	-6.535	-5.880	-4.930	-3.063	-3.537	-1.541	-1.252	-0.985	3.584	5.244	8.244	7.773	8.832	582.031
-7.035	-5.580	-5.534	-4.315	-2.180	-3.344	2.459	1.879	6.198	5.694	9.102	8.505	1.813	0.145	-7.917	-6.428	-5.689	-4.549	-2.911	-3.562	-1.765	-1.157	-0.776	3.256	5.189	8.016	7.298	8.543	585.938
-6.738	-5.278	-5.149	-4.143	-2.238	-3.209	2.019	1.858	5.940	5.115	8.720	8.097	1.171	-0.342	-7.620	-6.230	-5.390	-4.068	-2.714	-3.538	-1.986	-1.058	-0.554	2.867	5.125	7.763	6.738	8.179	589.844
-6.381	-4.943	-4.706	-3.959	-2.297	-3.079	1.531	1.795	5.613	4.461	8.210	7.608	0.476	-0.847	-7.248	-5.960	-5.015	-3.531	-2.491	-3.477	-2.195	-0.973	-0.347	2.433	5.058	7.509	6.126	7.770	593.750
-5.992	-4.603	-4.233	-3.783	-2.363	-2.967	1.027	1.694	5.246	3.788	7.625	7.094	-0.226	-1.339	-6.832	-5.649	-4.611	-2.982	-2.265	-3.394	-2.384	-0.914	-0.174	1.986	4.996	7.278	5.508	7.357	597.656
-5.608	-4.293	-3.765	-3.640	-2.446	-2.888	0.542	1.561	4.863	3.153	7.028	6.615	-0.885	-1.780	-6.407	-5.333	-4.223	-2.465	-2.055	-3.305	-2.543	-0.882	-0.042	1.563	4.950	7.095	4.938	6.981	601.562
-5.261	-4.040	-3.342	-3.548	-2.552	-2.857	0.108	1.394	4.483	2.605	6.474	6.223	-1.452	-2.140	-6.010	-5.046	-3.894	-2.010	-1.875	-3.226	-2.664	-0.871	0.049	1.206	4.928	6.979	4.462	6.680	605.469
-4.982	-3.866	-2.999	-3.516	-2.682	-2.880	-0.252	1.193	4.120	2.175	6.006	5.957	-1.885	-2.391	-5.670	-4.812	-3.652	-1.640	-1.735	-3.162	-2.737	-0.869	0.108	0.947	4.934	6.936	4.119	6.481	609.375
-4.787	-3.780	-2.763	-3.542	-2.827	-2.954	-0.524	0.957	3.777	1.881	5.645	5.830	-2.156	-2.515	-5.404	-4.642	-3.507	-1.362	-1.635	-3.113	-2.756	-0.862	0.150	0.808	4.966	6.962	3.925	6.392	613.281
-4.679	-3.775	-2.643	-3.612	-2.971	-3.068	-0.703	0.689	3.453	1.717	5.395	5.832	-2.253	-2.508	-5.218	-4.532	-3.457	-1.178	-1.571	-3.071	-2.713	-0.840	0.188	0.793	5.015	7.040	3.880	6.406	617.188
-4.651	-3.836	-2.635	-3.705	-3.092	-3.200	-0.796	0.394	3.140	1.665	5.239	5.935	-2.180	-2.372	-5.105	-4.469	-3.481	-1.078	-1.535	-3.021	-2.607	-0.794	0.233	0.893	5.066	7.141	3.964	6.499	621.094
-4.680	-3.937	-2.719	-3.797	-3.172	-3.326	-0.817	0.085	2.833	1.695	5.151	6.094	-1.958	-2.124	-5.048	-4.431	-3.555	-1.050	-1.512	-2.950	-2.438	-0.721	0.293	1.084	5.104	7.235	4.141	6.636	625.000
-4.740	-4.050	-2.864	-3.864	-3.192	-3.423	-0.787	-0.225	2.526	1.772	5.102	6.260	-1.622	-1.785	-5.027	-4.399	-3.647	-1.077	-1.492	-2.845	-2.212	-0.623	0.367	1.336	5.115	7.290	4.371	6.778	628.906
-4.804	-4.149	-3.037	-3.891	-3.149	-3.475	-0.729	-0.520	2.219	1.863	5.063	6.388	-1.211	-1.387	-5.022	-4.356	-3.731	-1.140	-1.463	-2.701	-1.941	-0.506	0.453	1.613	5.088	7.283	4.611	6.891	632.812
-4.847	-4.213	-3.203	-3.872	-3.046	-3.475	-0.663	-0.783	1.916	1.939	5.015	6.443	-0.767	-0.958	-5.014	-4.291	-3.785	-1.218	-1.419	-2.520	-1.641	-0.376	0.545	1.888	5.021	7.202	4.828	6.946	636.719
-4.854	-4.230	-3.338	-3.811	-2.898	-3.428	-0.606	-1.006	1.624	1.981	4.946	6.404	-0.325	-0.529	-4.991	-4.201	-3.799	-1.293	-1.358	-2.310	-1.330	-0.240	0.637	2.137	4.917	7.047	4.999	6.928	640.625
-4.817	-4.197	-3.423	-3.720	-2.728	-3.347	-0.567	-1.183	1.350	1.980	4.852	6.266	0.084	-0.123	-4.946	-4.092	-3.768	-1.349	-1.287	-2.085	-1.027	-0.106	0.724	2.347	4.783	6.829	5.115	6.834	644.531
-4.736	-4.118	-3.453	-3.615	-2.559	-3.250	-0.548	-1.317	1.101	1.938	4.733	6.041	0.445	0.244	-4.878	-3.969	-3.700	-1.375	-1.213	-1.860	-0.744	0.020	0.802	2.512	4.631	6.569	5.179	6.674	648.438
-4.617	-4.005	-3.428	-3.515	-2.412	-3.158	-0.547	-1.417	0.883	1.861	4.596	5.752	0.749	0.564	-4.786	-3.839	-3.606	-1.364	-1.148	-1.645	-0.489	0.130	0.866	2.634	4.471	6.289	5.202	6.460	652.344
-4.468	-3.869	-3.360	-3.432	-2.303	-3.088	-0.557	-1.496	0.694	1.762	4.444	5.424	0.996	0.838	-4.672	-3.709	-3.502	-1.318	-1.103	-1.448	-0.264	0.217	0.912	2.715	4.313	6.009	5.196	6.212	656.250
-4.294	-3.726	-3.260	-3.378	-2.236	-3.048	-0.571	-1.564	0.532	1.654	4.285	5.087	1.190	1.070	-4.540	-3.580	-3.403	-1.242	-1.085	-1.271	-0.063	0.275	0.933	2.760	4.162	5.745	5.174	5.947	660.156
-4.104	-3.587	-3.145	-3.352	-2.209	-3.041	-0.582	-1.630	0.392	1.548	4.121	4.767	1.337	1.265	-4.392	-3.452	-3.324	-1.148	-1.098	-1.111	0.119	0.301	0.928	2.770	4.020	5.503	5.143	5.682	664.062
-3.903	-3.462	-3.027	-3.349	-2.214	-3.061	-0.589	-1.700	0.270	1.452	3.955	4.484	1.441	1.427	-4.232	-3.324	-3.270	-1.048	-1.139	-0.962	0.288	0.293	0.893	2.748	3.884	5.285	5.104	5.428	667.969
-3.696	-3.355	-2.918	-3.361	-2.240	-3.096	-0.595	-1.775	0.159	1.368	3.791	4.253	1.508	1.558	-4.064	-3.193	-3.245	-0.951	-1.200	-0.820	0.447	0.255	0.829	2.697	3.751	5.086	5.057	5.198	671.875
-3.489	-3.266	-2.825	-3.373	-2.277	-3.134	-0.605	-1.855	0.051	1.298	3.630	4.084	1.541	1.657	-3.891	-3.057	-3.242	-0.865	-1.268	-0.680	0.596	0.192	0.739	2.620	3.614	4.897	5.000	4.999	675.781
-3.285	-3.191	-2.748	-3.374	-2.314	-3.162	-0.627	-1.942	-0.063	1.236	3.473	3.977	1.544	1.725	-3.715	-2.914	-3.250	-0.791	-1.329	-0.543	0.734	0.115	0.630	2.525	3.465	4.709	4.931	4.833	679.688
-3.084	-3.119	-2.686	-3.351	-2.343	-3.169	-0.668	-2.039	-0.194	1.175	3.319	3.928	1.524	1.765	-3.534	-2.762	-3.253	-0.726	-1.371	-0.404	0.861	0.038	0.511	2.417	3.297	4.510	4.850	4.698	683.594
-2.884	-3.037	-2.631	-3.294	-2.356	-3.147	-0.732	-2.154	-0.354	1.106	3.166	3.923	1.491	1.786	-3.344	-2.597	-3.232	-0.665	-1.380	-0.263	0.979	-0.026	0.393	2.304	3.099	4.287	4.757	4.583	687.500
-2.678	-2.931	-2.571	-3.195	-2.346	-3.089	-0.821	-2.293	-0.558	1.018	3.009	3.940	1.455	1.799	-3.139	-2.415	-3.172	-0.600	-1.347	-0.114	1.099	-0.063	0.286	2.192	2.863	4.028	4.651	4.469	691.406
-2.456	-2.788	-2.492	-3.048	-2.306	-2.992	-0.933	-2.461	-0.814	0.903	2.840	3.952	1.425	1.820	-2.914	-2.210	-3.061	-0.523	-1.267	0.052	1.230	-0.060	0.200	2.086	2.579	3.721	4.526	4.332	695.312
-2.207	-2.596	-2.378	-2.851	-2.229	-2.857	-1.061	-2.658	-1.128	0.751	2.650	3.927	1.408	1.863	-2.661	-1.976	-2.890	-0.429	-1.138	0.243	1.388	-0.009	0.143	1.987	2.243	3.355	4.374	4.146	699.219
-1.920	-2.350	-2.215	-2.608	-2.112	-2.686	-1.201	-2.880	-1.500	0.555	2.426	3.837	1.407	1.938	-2.380	-1.708	-2.660	-0.312	-0.960	0.470	1.584	0.093	0.120	1.896	1.856	2.926	4.184	3.886	703.125
-1.588	-2.049	-1.994	-2.323	-1.955	-2.488	-1.346	-3.118	-1.924	0.311	2.152	3.659	1.416	2.049	-2.072	-1.405	-2.375	-0.172	-0.734	0.739	1.823	0.245	0.132	1.811	1.422	2.431	3.946	3.537	707.031
-1.207	-1.696	-1.710	-2.007	-1.761	-2.273	-1.493	-3.360	-2.387	0.018	1.812	3.376	1.429	2.193	-1.742	-1.064	-2.044	-0.005	-0.462	1.053	2.109	0.445	0.182	1.729	0.955	1.876	3.650	3.090	710.938
-0.779	-1.301	-1.368	-1.668	-1.538	-2.052	-1.640	-3.595	-2.879	-0.324	1.390	2.983	1.434	2.360	-1.395	-0.689	-1.676	0.192	-0.145	1.411	2.434	0.687	0.271	1.649	0.473	1.271	3.289	2.547	714.844
-0.310	-0.873	-0.981	-1.321	-1.298	-1.840	-1.789	-3.816	-3.385	-0.709	0.876	2.482	1.419	2.540	-1.036	-0.283	-1.277	0.423	0.219	1.802	2.785	0.966	0.397	1.566	-0.005	0.629	2.864	1.919	718.750
0.185	-0.426	-0.568	-0.975	-1.054	-1.644	-1.939	-4.017	-3.894	-1.130	0.268	1.884	1.378	2.718	-0.668	0.145	-0.853	0.694	0.627	2.214	3.145	1.275	0.560	1.477	-0.460	-0.037	2.381	1.221	722.656
0.691	0.027	-0.154	-0.641	-0.819	-1.473	-2.089	-4.196	-4.392	-1.574	-0.427	1.210	1.309	2.883	-0.289	0.585	-0.407	1.010	1.075	2.628	3.492	1.603	0.757	1.380	-0.877	-0.712	1.857	0.475	726.562
1.187	0.472	0.235	-0.327	-0.602	-1.329	-2.233	-4.352	-4.865	-2.023	-1.185	0.488	1.216	3.029	0.098	1.023	0.055	1.370	1.550	3.022	3.809	1.941	0.981	1.270	-1.245	-1.382	1.311	-0.294	730.469
1.652	0.894	0.572	-0.038	-0.408	-1.208	-2.361	-4.483	-5.298	-2.453	-1.970	-0.247	1.113	3.153	0.489	1.441	0.522	1.765	2.030	3.377	4.076	2.270	1.222	1.150	-1.560	-2.034	0.770	-1.059	734.375
2.062	1.276	0.834	0.225	-0.235	-1.105	-2.459	-4.583	-5.669	-2.837	-2.733	-0.958	1.016	3.256	0.874	1.821	0.978	2.178	2.488	3.674	4.284	2.574	1.464	1.022	-1.823	-2.652	0.263	-1.791	738.281
2.400	1.602	1.003	0.458	-0.080	-1.010	-2.512	-4.642	-5.959	-3.147	-3.423	-1.603	0.944	3.345	1.236	2.142	1.397	2.582	2.888	3.900	4.428	2.830	1.690	0.893	-2.037	-3.219	-0.184	-2.460	742.188
2.649	1.853	1.068	0.660	0.064	-0.918	-2.505	-4.650	-6.146	-3.355	-3.987	-2.146	0.916	3.427	1.554	2.386	1.748	2.941	3.195	4.049	4.511	3.023	1.883	0.776	-2.202	-3.711	-0.547	-3.036	746.094
2.798	2.014	1.026	0.826	0.199	-0.823	-2.430	-4.596	-6.218	-3.444	-4.384	-2.556	0.949	3.513	1.805	2.537	2.002	3.221	3.382	4.119	4.542	3.139	2.028	0.687	-2.320	-4.108	-0.810	-3.491	750.000
2.844	2.070	0.885	0.948	0.327	-0.726	-2.283	-4.477	-6.169	-3.405	-4.590	-2.815	1.053	3.612	1.966	2.587	2.132	3.390	3.431	4.116	4.535	3.176	2.117	0.644	-2.385	-4.388	-0.960	-3.803	753.906
2.790	2.016	0.659	1.019	0.444	-0.633	-2.071	-4.295	-6.008	-3.242	-4.599	-2.916	1.230	3.734	2.027	2.534	2.125	3.432	3.341	4.049	4.507	3.138	2.148	0.665	-2.394	-4.537	-0.994	-3.964	757.812
2.648	1.853	0.370	1.030	0.545	-0.552	-1.806	-4.065	-5.758	-2.975	-4.428	-2.871	1.475	3.884	1.984	2.385	1.984	3.343	3.130	3.932	4.474	3.042	2.127	0.758	-2.345	-4.550	-0.916	-3.973	761.719
2.438	1.595	0.046	0.976	0.624	-0.493	-1.510	-3.807	-5.449	-2.635	-4.114	-2.701	1.776	4.061	1.846	2.159	1.729	3.138	2.829	3.781	4.448	2.908	2.065	0.928	-2.242	-4.439	-0.739	-3.847	765.625
2.185	1.265	-0.285	0.857	0.677	-0.465	-1.205	-3.549	-5.119	-2.256	-3.708	-2.437	2.114	4.264	1.634	1.879	1.389	2.845	2.478	3.614	4.440	2.760	1.975	1.168	-2.097	-4.226	-0.481	-3.612	769.531
1.915	0.895	-0.593	0.681	0.704	-0.472	-0.913	-3.315	-4.804	-1.874	-3.262	-2.117	2.468	4.485	1.371	1.574	1.002	2.496	2.119	3.443	4.453	2.617	1.876	1.466	-1.927	-3.944	-0.165	-3.301	773.438
1.654	0.516	-0.854	0.458	0.704	-0.515	-0.650	-3.128	-4.533	-1.517	-2.827	-1.773	2.819	4.716	1.085	1.271	0.604	2.125	1.786	3.282	4.488	2.498	1.782	1.805	-1.753	-3.632	0.185	-2.952	777.344
1.421	0.155	-1.050	0.202	0.685	-0.588	-0.423	-2.999	-4.323	-1.205	-2.442	-1.433	3.153	4.950	0.798	0.992	0.222	1.758	1.504	3.137	4.544	2.411	1.706	2.167	-1.596	-3.325	0.548	-2.595	781.250
1.227	-0.169	-1.177	-0.073	0.651	-0.684	-0.233	-2.931	-4.181	-0.944	-2.127	-1.116	3.463	5.179	0.525	0.748	-0.127	1.412	1.282	3.009	4.615	2.359	1.655	2.539	-1.472	-3.050	0.909	-2.255	785.156
1.073	-0.450	-1.240	-0.355	0.610	-0.794	-0.073	-2.917	-4.097	-0.729	-1.884	-0.829	3.748	5.403	0.276	0.541	-0.441	1.092	1.114	2.897	4.698	2.337	1.631	2.910	-1.387	-2.820	1.259	-1.942	789.062
0.951	-0.695	-1.256	-0.637	0.568	-0.910	0.069	-2.941	-4.055	-0.546	-1.700	-0.569	4.017	5.622	0.048	0.365	-0.725	0.795	0.986	2.795	4.786	2.335	1.630	3.277	-1.335	-2.634	1.596	-1.658	792.969
0.847	-0.918	-1.251	-0.916	0.529	-1.025	0.205	-2.982	-4.033	-0.378	-1.548	-0.327	4.277	5.838	-0.163	0.206	-0.990	0.514	0.878	2.697	4.876	2.344	1.641	3.637	-1.306	-2.476	1.924	-1.396	796.875
