FP1	F3	F7	FC3	C3	C5	P3	P7	PO7	PO3	O1	Oz	Pz	CPz	FP2	Fz	F4	F8	FC4	FCz	Cz	C4	C6	P4	P8	PO8	PO4	O2	time
0.929	1.182	0.616	0.944	1.027	0.497	-0.050	0.612	-0.053	-0.487	-0.942	-1.139	-0.302	0.695	0.234	1.578	0.145	0.647	0.214	2.085	1.677	-0.196	-0.748	-1.406	-1.751	-2.220	-0.652	-2.001	-199.219
0.474	0.757	0.246	0.619	0.837	0.403	-0.119	0.557	-0.048	-0.529	-0.770	-0.989	-0.339	0.631	0.056	1.328	0.147	0.690	0.269	1.905	1.584	0.057	-0.363	-1.116	-1.284	-1.821	-0.431	-1.675	-195.312
0.033	0.358	-0.113	0.322	0.672	0.316	-0.169	0.501	-0.037	-0.555	-0.603	-0.839	-0.348	0.596	-0.125	1.091	0.147	0.717	0.322	1.740	1.510	0.298	-0.008	-0.823	-0.843	-1.438	-0.216	-1.362	-191.406
-0.379	0.009	-0.451	0.078	0.553	0.240	-0.180	0.444	-0.013	-0.548	-0.444	-0.688	-0.305	0.614	-0.309	0.880	0.138	0.705	0.364	1.603	1.474	0.515	0.289	-0.524	-0.451	-1.080	-0.006	-1.070	-187.500
-0.748	-0.270	-0.757	-0.095	0.496	0.179	-0.140	0.387	0.029	-0.495	-0.297	-0.535	-0.193	0.699	-0.495	0.710	0.116	0.637	0.391	1.507	1.487	0.696	0.503	-0.221	-0.128	-0.757	0.197	-0.807	-183.594
-1.060	-0.464	-1.023	-0.183	0.506	0.137	-0.041	0.334	0.090	-0.389	-0.170	-0.385	-0.007	0.854	-0.674	0.589	0.077	0.501	0.399	1.461	1.552	0.831	0.622	0.081	0.112	-0.478	0.396	-0.576	-179.688
-1.304	-0.570	-1.245	-0.185	0.580	0.114	0.113	0.288	0.169	-0.231	-0.066	-0.242	0.247	1.067	-0.836	0.525	0.020	0.293	0.384	1.466	1.662	0.913	0.640	0.370	0.261	-0.246	0.591	-0.380	-175.781
-1.477	-0.594	-1.421	-0.109	0.706	0.110	0.314	0.251	0.264	-0.027	0.012	-0.108	0.552	1.318	-0.973	0.515	-0.054	0.021	0.345	1.518	1.802	0.940	0.567	0.637	0.321	-0.061	0.783	-0.215	-171.875
-1.577	-0.547	-1.555	0.029	0.866	0.122	0.546	0.231	0.371	0.213	0.069	0.013	0.884	1.577	-1.076	0.550	-0.146	-0.302	0.283	1.603	1.950	0.916	0.417	0.870	0.303	0.082	0.972	-0.077	-167.969
-1.613	-0.452	-1.648	0.202	1.038	0.146	0.791	0.233	0.485	0.473	0.113	0.124	1.216	1.816	-1.145	0.614	-0.252	-0.656	0.201	1.700	2.081	0.846	0.212	1.060	0.223	0.188	1.156	0.044	-164.062
-1.596	-0.334	-1.706	0.381	1.200	0.177	1.030	0.263	0.604	0.737	0.156	0.228	1.521	2.007	-1.183	0.682	-0.370	-1.016	0.105	1.783	2.169	0.743	-0.019	1.202	0.102	0.267	1.329	0.153	-160.156
-1.541	-0.221	-1.734	0.539	1.332	0.209	1.247	0.323	0.723	0.985	0.211	0.328	1.775	2.132	-1.195	0.731	-0.494	-1.357	-0.000	1.826	2.197	0.619	-0.250	1.293	-0.038	0.323	1.481	0.254	-156.250
-1.463	-0.136	-1.732	0.649	1.418	0.239	1.425	0.412	0.837	1.199	0.284	0.428	1.962	2.180	-1.188	0.739	-0.614	-1.649	-0.103	1.808	2.152	0.491	-0.453	1.335	-0.176	0.361	1.599	0.349	-152.344
-1.374	-0.098	-1.702	0.698	1.448	0.263	1.554	0.525	0.938	1.361	0.376	0.525	2.070	2.152	-1.165	0.692	-0.716	-1.868	-0.191	1.718	2.034	0.373	-0.605	1.331	-0.300	0.378	1.669	0.430	-148.438
-1.281	-0.114	-1.644	0.679	1.419	0.279	1.625	0.647	1.012	1.455	0.475	0.612	2.096	2.055	-1.122	0.588	-0.781	-1.990	-0.249	1.556	1.851	0.281	-0.686	1.288	-0.401	0.370	1.674	0.487	-144.531
-1.187	-0.182	-1.554	0.599	1.336	0.287	1.632	0.760	1.046	1.471	0.564	0.674	2.041	1.903	-1.053	0.439	-0.792	-2.000	-0.263	1.338	1.622	0.225	-0.684	1.211	-0.478	0.330	1.603	0.506	-140.625
-1.088	-0.286	-1.431	0.472	1.205	0.287	1.574	0.843	1.023	1.401	0.618	0.695	1.910	1.713	-0.948	0.267	-0.733	-1.894	-0.221	1.089	1.370	0.215	-0.598	1.107	-0.534	0.250	1.448	0.475	-136.719
-0.979	-0.405	-1.271	0.321	1.042	0.283	1.451	0.874	0.929	1.246	0.612	0.661	1.715	1.503	-0.798	0.103	-0.595	-1.676	-0.117	0.841	1.121	0.254	-0.433	0.984	-0.576	0.129	1.214	0.386	-132.812
-0.853	-0.514	-1.076	0.170	0.862	0.277	1.270	0.841	0.758	1.014	0.527	0.559	1.468	1.289	-0.600	-0.023	-0.381	-1.367	0.046	0.625	0.897	0.339	-0.204	0.851	-0.608	-0.031	0.910	0.237	-128.906
-0.702	-0.589	-0.847	0.041	0.684	0.274	1.044	0.738	0.513	0.720	0.356	0.388	1.188	1.085	-0.359	-0.088	-0.109	-0.993	0.255	0.465	0.715	0.459	0.064	0.718	-0.635	-0.220	0.557	0.035	-125.000
-0.524	-0.611	-0.591	-0.047	0.524	0.276	0.787	0.571	0.208	0.386	0.107	0.154	0.892	0.897	-0.089	-0.081	0.195	-0.589	0.487	0.369	0.580	0.602	0.345	0.591	-0.655	-0.424	0.180	-0.209	-121.094
-0.318	-0.573	-0.315	-0.085	0.396	0.290	0.518	0.361	-0.127	0.038	-0.199	-0.125	0.599	0.725	0.187	-0.008	0.494	-0.190	0.714	0.330	0.483	0.745	0.608	0.477	-0.665	-0.625	-0.195	-0.474	-117.188
-0.092	-0.478	-0.030	-0.074	0.308	0.320	0.258	0.137	-0.457	-0.297	-0.528	-0.427	0.323	0.564	0.443	0.108	0.750	0.172	0.905	0.323	0.409	0.867	0.828	0.380	-0.659	-0.803	-0.542	-0.740	-113.281
0.146	-0.338	0.253	-0.021	0.261	0.368	0.025	-0.068	-0.742	-0.593	-0.841	-0.723	0.075	0.404	0.656	0.237	0.931	0.473	1.031	0.318	0.334	0.946	0.983	0.295	-0.630	-0.943	-0.842	-0.983	-109.375
0.384	-0.173	0.522	0.059	0.249	0.434	-0.169	-0.224	-0.947	-0.831	-1.102	-0.988	-0.141	0.235	0.807	0.344	1.016	0.699	1.073	0.282	0.235	0.962	1.064	0.218	-0.572	-1.032	-1.085	-1.186	-105.469
0.607	-0.004	0.765	0.146	0.260	0.514	-0.315	-0.310	-1.047	-0.997	-1.283	-1.203	-0.326	0.050	0.888	0.400	0.999	0.845	1.021	0.188	0.093	0.907	1.068	0.140	-0.484	-1.063	-1.269	-1.334	-101.562
0.802	0.149	0.971	0.222	0.278	0.599	-0.413	-0.318	-1.034	-1.088	-1.368	-1.352	-0.483	-0.152	0.901	0.389	0.890	0.917	0.881	0.027	-0.095	0.778	1.004	0.051	-0.368	-1.035	-1.395	-1.416	-97.656
0.960	0.270	1.132	0.271	0.285	0.675	-0.469	-0.256	-0.918	-1.106	-1.358	-1.430	-0.616	-0.365	0.858	0.307	0.710	0.924	0.667	-0.197	-0.325	0.584	0.883	-0.053	-0.227	-0.951	-1.469	-1.428	-93.750
1.072	0.351	1.240	0.285	0.265	0.728	-0.493	-0.142	-0.723	-1.060	-1.268	-1.437	-0.728	-0.576	0.776	0.167	0.490	0.877	0.405	-0.463	-0.576	0.345	0.724	-0.171	-0.071	-0.819	-1.496	-1.373	-89.844
1.137	0.391	1.295	0.259	0.205	0.743	-0.492	-0.002	-0.479	-0.960	-1.119	-1.379	-0.816	-0.768	0.673	-0.011	0.258	0.786	0.121	-0.739	-0.823	0.083	0.542	-0.298	0.090	-0.646	-1.479	-1.254	-85.938
1.157	0.395	1.300	0.200	0.103	0.711	-0.475	0.137	-0.223	-0.820	-0.938	-1.266	-0.877	-0.925	0.566	-0.200	0.037	0.660	-0.157	-0.995	-1.041	-0.178	0.351	-0.424	0.243	-0.442	-1.421	-1.082	-82.031
1.143	0.374	1.263	0.115	-0.038	0.629	-0.445	0.254	0.016	-0.649	-0.747	-1.108	-0.905	-1.034	0.467	-0.377	-0.157	0.507	-0.407	-1.201	-1.209	-0.418	0.160	-0.538	0.377	-0.220	-1.323	-0.869	-78.125
1.106	0.341	1.199	0.020	-0.205	0.503	-0.404	0.334	0.215	-0.459	-0.563	-0.919	-0.898	-1.089	0.382	-0.527	-0.318	0.335	-0.614	-1.343	-1.316	-0.624	-0.026	-0.629	0.480	0.007	-1.188	-0.630	-74.219
1.061	0.306	1.122	-0.071	-0.381	0.346	-0.353	0.368	0.364	-0.258	-0.394	-0.710	-0.856	-1.093	0.314	-0.639	-0.444	0.153	-0.773	-1.415	-1.363	-0.791	-0.206	-0.692	0.544	0.226	-1.026	-0.380	-70.312
1.018	0.279	1.047	-0.148	-0.549	0.174	-0.295	0.359	0.462	-0.053	-0.237	-0.491	-0.783	-1.057	0.260	-0.714	-0.540	-0.027	-0.880	-1.428	-1.361	-0.922	-0.379	-0.723	0.564	0.424	-0.844	-0.131	-66.406
0.984	0.263	0.980	-0.204	-0.693	0.007	-0.233	0.310	0.516	0.146	-0.087	-0.268	-0.689	-0.998	0.216	-0.757	-0.607	-0.191	-0.942	-1.396	-1.327	-1.024	-0.545	-0.725	0.544	0.591	-0.657	0.108	-62.500
0.957	0.256	0.927	-0.238	-0.806	-0.145	-0.177	0.229	0.534	0.331	0.067	-0.047	-0.588	-0.933	0.181	-0.776	-0.648	-0.322	-0.961	-1.341	-1.281	-1.104	-0.697	-0.702	0.489	0.723	-0.475	0.333	-58.594
0.931	0.256	0.884	-0.254	-0.887	-0.274	-0.139	0.120	0.523	0.492	0.230	0.171	-0.493	-0.881	0.153	-0.779	-0.659	-0.404	-0.946	-1.281	-1.240	-1.167	-0.827	-0.662	0.411	0.818	-0.308	0.544	-54.688
0.898	0.258	0.844	-0.260	-0.944	-0.380	-0.131	-0.012	0.484	0.617	0.404	0.383	-0.418	-0.855	0.135	-0.772	-0.638	-0.424	-0.898	-1.229	-1.220	-1.213	-0.924	-0.612	0.325	0.879	-0.164	0.744	-50.781
0.852	0.258	0.801	-0.265	-0.989	-0.470	-0.165	-0.164	0.415	0.692	0.582	0.586	-0.377	-0.867	0.131	-0.757	-0.578	-0.375	-0.822	-1.196	-1.229	-1.238	-0.976	-0.562	0.247	0.911	-0.047	0.931	-46.875
0.790	0.258	0.752	-0.275	-1.036	-0.553	-0.247	-0.336	0.308	0.704	0.753	0.774	-0.379	-0.923	0.148	-0.736	-0.475	-0.256	-0.718	-1.185	-1.269	-1.235	-0.972	-0.520	0.190	0.919	0.039	1.104	-42.969
0.714	0.255	0.697	-0.297	-1.099	-0.638	-0.378	-0.524	0.156	0.645	0.902	0.941	-0.428	-1.022	0.192	-0.710	-0.330	-0.074	-0.591	-1.199	-1.342	-1.196	-0.906	-0.492	0.166	0.909	0.096	1.258	-39.062
0.631	0.252	0.639	-0.333	-1.183	-0.731	-0.551	-0.723	-0.040	0.511	1.013	1.080	-0.525	-1.163	0.264	-0.682	-0.150	0.155	-0.448	-1.236	-1.445	-1.117	-0.778	-0.479	0.183	0.888	0.123	1.384	-35.156
0.546	0.246	0.583	-0.383	-1.289	-0.832	-0.753	-0.922	-0.274	0.309	1.075	1.185	-0.663	-1.337	0.362	-0.656	0.051	0.411	-0.300	-1.298	-1.571	-1.000	-0.599	-0.482	0.245	0.862	0.124	1.477	-31.250
0.465	0.234	0.536	-0.444	-1.410	-0.937	-0.965	-1.107	-0.528	0.054	1.083	1.252	-0.831	-1.533	0.474	-0.641	0.252	0.670	-0.160	-1.381	-1.714	-0.855	-0.383	-0.495	0.350	0.839	0.106	1.532	-27.344
0.392	0.212	0.501	-0.512	-1.534	-1.039	-1.167	-1.264	-0.776	-0.230	1.040	1.280	-1.013	-1.737	0.585	-0.642	0.433	0.904	-0.043	-1.485	-1.863	-0.695	-0.155	-0.512	0.494	0.828	0.075	1.550	-23.438
0.326	0.174	0.481	-0.585	-1.643	-1.128	-1.338	-1.373	-0.985	-0.512	0.955	1.272	-1.191	-1.932	0.678	-0.667	0.572	1.093	0.039	-1.603	-2.008	-0.539	0.062	-0.525	0.667	0.837	0.041	1.535	-19.531
0.266	0.117	0.472	-0.658	-1.725	-1.195	-1.458	-1.421	-1.126	-0.763	0.847	1.233	-1.343	-2.103	0.735	-0.718	0.657	1.218	0.077	-1.732	-2.138	-0.403	0.239	-0.526	0.856	0.873	0.014	1.496	-15.625
0.207	0.043	0.472	-0.731	-1.769	-1.234	-1.515	-1.397	-1.171	-0.952	0.739	1.170	-1.453	-2.238	0.739	-0.794	0.680	1.268	0.069	-1.864	-2.246	-0.303	0.355	-0.510	1.048	0.939	0.003	1.443	-11.719
0.144	-0.046	0.475	-0.802	-1.773	-1.245	-1.500	-1.296	-1.105	-1.057	0.655	1.092	-1.506	-2.325	0.683	-0.890	0.645	1.239	0.017	-1.995	-2.328	-0.248	0.395	-0.474	1.227	1.040	0.017	1.389	-7.812
0.075	-0.142	0.472	-0.869	-1.740	-1.231	-1.413	-1.127	-0.925	-1.065	0.619	1.009	-1.490	-2.359	0.566	-0.997	0.563	1.135	-0.072	-2.119	-2.383	-0.243	0.350	-0.414	1.383	1.175	0.063	1.345	-3.906
-0.003	-0.237	0.456	-0.931	-1.681	-1.201	-1.261	-0.903	-0.643	-0.973	0.646	0.932	-1.406	-2.340	0.397	-1.106	0.451	0.969	-0.189	-2.233	-2.415	-0.283	0.227	-0.333	1.505	1.340	0.145	1.323	0.000
-0.089	-0.319	0.419	-0.985	-1.611	-1.166	-1.058	-0.648	-0.282	-0.788	0.744	0.867	-1.257	-2.272	0.192	-1.206	0.328	0.758	-0.324	-2.335	-2.429	-0.362	0.039	-0.232	1.588	1.526	0.261	1.330	3.906
-0.179	-0.382	0.358	-1.025	-1.540	-1.136	-0.826	-0.392	0.124	-0.529	0.911	0.822	-1.056	-2.164	-0.025	-1.288	0.212	0.523	-0.468	-2.421	-2.430	-0.469	-0.194	-0.118	1.627	1.721	0.407	1.368	7.812
-0.265	-0.418	0.274	-1.047	-1.478	-1.116	-0.588	-0.161	0.536	-0.221	1.132	0.800	-0.822	-2.030	-0.230	-1.345	0.117	0.289	-0.613	-2.488	-2.425	-0.593	-0.446	-0.000	1.620	1.909	0.570	1.437	11.719
-0.339	-0.425	0.176	-1.046	-1.429	-1.110	-0.367	0.022	0.916	0.107	1.389	0.803	-0.579	-1.884	-0.400	-1.373	0.049	0.077	-0.756	-2.535	-2.418	-0.727	-0.693	0.109	1.564	2.071	0.734	1.529	15.625
-0.389	-0.402	0.078	-1.020	-1.393	-1.113	-0.181	0.144	1.235	0.424	1.659	0.831	-0.349	-1.745	-0.517	-1.373	0.008	-0.095	-0.896	-2.562	-2.416	-0.867	-0.918	0.196	1.461	2.188	0.881	1.637	19.531
-0.407	-0.353	0.000	-0.973	-1.371	-1.117	-0.043	0.204	1.471	0.706	1.922	0.885	-0.155	-1.628	-0.571	-1.351	-0.011	-0.215	-1.034	-2.574	-2.424	-1.013	-1.108	0.248	1.312	2.249	0.994	1.752	23.438
-0.387	-0.285	-0.040	-0.911	-1.360	-1.115	0.043	0.211	1.615	0.933	2.160	0.967	-0.012	-1.550	-0.558	-1.314	-0.019	-0.278	-1.171	-2.576	-2.448	-1.167	-1.259	0.255	1.124	2.246	1.057	1.866	27.344
-0.325	-0.206	-0.027	-0.847	-1.363	-1.100	0.080	0.179	1.667	1.094	2.359	1.076	0.068	-1.521	-0.484	-1.273	-0.024	-0.286	-1.304	-2.580	-2.495	-1.330	-1.372	0.212	0.907	2.179	1.064	1.973	31.250
-0.225	-0.122	0.043	-0.792	-1.381	-1.068	0.073	0.126	1.636	1.185	2.513	1.206	0.083	-1.545	-0.357	-1.234	-0.031	-0.246	-1.429	-2.592	-2.565	-1.498	-1.451	0.121	0.676	2.059	1.013	2.068	35.156
-0.091	-0.040	0.165	-0.755	-1.416	-1.022	0.031	0.064	1.533	1.206	2.614	1.347	0.034	-1.621	-0.189	-1.201	-0.039	-0.167	-1.535	-2.618	-2.657	-1.663	-1.501	-0.009	0.451	1.903	0.915	2.145	39.062
0.067	0.039	0.320	-0.739	-1.472	-0.970	-0.041	0.002	1.370	1.162	2.658	1.479	-0.073	-1.741	0.006	-1.172	-0.040	-0.060	-1.612	-2.659	-2.765	-1.812	-1.523	-0.165	0.253	1.733	0.784	2.202	42.969
0.235	0.112	0.481	-0.743	-1.547	-0.920	-0.136	-0.059	1.163	1.058	2.647	1.580	-0.230	-1.893	0.214	-1.141	-0.026	0.067	-1.648	-2.711	-2.880	-1.930	-1.519	-0.330	0.107	1.578	0.641	2.238	46.875
0.396	0.179	0.620	-0.762	-1.640	-0.886	-0.254	-0.120	0.930	0.903	2.584	1.624	-0.429	-2.063	0.416	-1.104	0.010	0.204	-1.638	-2.767	-2.992	-2.004	-1.486	-0.485	0.034	1.469	0.513	2.258	50.781
0.529	0.236	0.706	-0.790	-1.747	-0.878	-0.394	-0.185	0.694	0.707	2.484	1.597	-0.657	-2.237	0.591	-1.060	0.069	0.343	-1.586	-2.823	-3.095	-2.030	-1.427	-0.615	0.054	1.441	0.424	2.274	54.688
0.612	0.275	0.719	-0.826	-1.866	-0.907	-0.555	-0.252	0.481	0.487	2.366	1.495	-0.903	-2.404	0.719	-1.018	0.138	0.473	-1.507	-2.880	-3.187	-2.011	-1.346	-0.706	0.182	1.529	0.403	2.311	58.594
0.623	0.280	0.646	-0.873	-1.997	-0.981	-0.733	-0.321	0.321	0.263	2.260	1.333	-1.153	-2.559	0.775	-0.996	0.197	0.577	-1.424	-2.945	-3.274	-1.963	-1.253	-0.747	0.426	1.768	0.474	2.404	62.500
0.543	0.234	0.483	-0.943	-2.143	-1.107	-0.925	-0.385	0.243	0.056	2.200	1.141	-1.395	-2.704	0.737	-1.017	0.215	0.640	-1.368	-3.035	-3.369	-1.910	-1.160	-0.732	0.793	2.186	0.660	2.597	66.406
0.360	0.114	0.238	-1.052	-2.313	-1.289	-1.122	-0.437	0.269	-0.109	2.218	0.959	-1.616	-2.844	0.590	-1.112	0.156	0.642	-1.371	-3.168	-3.487	-1.875	-1.081	-0.657	1.281	2.807	0.978	2.938	70.312
0.068	-0.099	-0.076	-1.222	-2.517	-1.527	-1.320	-0.467	0.416	-0.215	2.337	0.825	-1.807	-2.989	0.323	-1.304	-0.008	0.567	-1.457	-3.364	-3.647	-1.880	-1.027	-0.516	1.887	3.644	1.438	3.464	74.219
-0.327	-0.420	-0.441	-1.470	-2.767	-1.819	-1.512	-0.467	0.687	-0.252	2.563	0.767	-1.963	-3.148	-0.062	-1.612	-0.294	0.406	-1.638	-3.637	-3.862	-1.936	-1.001	-0.308	2.606	4.693	2.038	4.197	78.125
-0.812	-0.850	-0.840	-1.806	-3.072	-2.158	-1.693	-0.429	1.070	-0.224	2.881	0.789	-2.080	-3.330	-0.551	-2.037	-0.704	0.161	-1.910	-3.992	-4.139	-2.041	-1.000	-0.028	3.427	5.930	2.765	5.128	82.031
-1.363	-1.379	-1.254	-2.231	-3.434	-2.533	-1.861	-0.346	1.542	-0.143	3.252	0.875	-2.161	-3.536	-1.119	-2.568	-1.214	-0.154	-2.250	-4.421	-4.473	-2.180	-1.012	0.325	4.332	7.311	3.589	6.215	85.938
-1.953	-1.984	-1.667	-2.733	-3.847	-2.926	-2.013	-0.214	2.072	-0.032	3.624	0.982	-2.207	-3.760	-1.727	-3.172	-1.786	-0.510	-2.623	-4.903	-4.848	-2.327	-1.019	0.747	5.294	8.768	4.468	7.382	89.844
-2.546	-2.627	-2.065	-3.285	-4.294	-3.320	-2.147	-0.033	2.618	0.086	3.933	1.056	-2.221	-3.986	-2.333	-3.808	-2.362	-0.870	-2.983	-5.403	-5.239	-2.451	-0.996	1.229	6.279	10.217	5.351	8.525	93.750
-3.110	-3.266	-2.440	-3.851	-4.752	-3.692	-2.257	0.192	3.140	0.188	4.119	1.041	-2.203	-4.196	-2.889	-4.424	-2.884	-1.192	-3.284	-5.882	-5.610	-2.520	-0.923	1.754	7.241	11.564	6.181	9.531	97.656
-3.615	-3.857	-2.782	-4.389	-5.186	-4.019	-2.337	0.452	3.597	0.257	4.139	0.893	-2.153	-4.364	-3.354	-4.971	-3.296	-1.440	-3.486	-6.297	-5.926	-2.507	-0.783	2.296	8.130	12.713	6.904	10.291	101.562
-4.037	-4.359	-3.086	-4.855	-5.563	-4.282	-2.379	0.731	3.958	0.290	3.973	0.592	-2.069	-4.470	-3.699	-5.405	-3.557	-1.585	-3.562	-6.613	-6.155	-2.397	-0.566	2.826	8.899	13.579	7.474	10.722	105.469
-4.364	-4.739	-3.347	-5.213	-5.848	-4.464	-2.374	1.009	4.199	0.289	3.631	0.153	-1.949	-4.499	-3.907	-5.700	-3.646	-1.615	-3.504	-6.803	-6.274	-2.187	-0.275	3.312	9.502	14.103	7.861	10.780	109.375
-4.591	-4.979	-3.557	-5.432	-6.017	-4.552	-2.315	1.263	4.310	0.271	3.151	-0.381	-1.794	-4.447	-3.981	-5.845	-3.571	-1.537	-3.319	-6.857	-6.273	-1.892	0.075	3.721	9.909	14.253	8.053	10.470	113.281
-4.723	-5.074	-3.710	-5.502	-6.054	-4.543	-2.197	1.473	4.294	0.257	2.599	-0.934	-1.609	-4.322	-3.939	-5.851	-3.361	-1.374	-3.035	-6.781	-6.159	-1.539	0.458	4.029	10.102	14.038	8.058	9.843	117.188
-4.774	-5.032	-3.798	-5.423	-5.961	-4.439	-2.022	1.624	4.169	0.272	2.057	-1.416	-1.402	-4.146	-3.812	-5.746	-3.068	-1.160	-2.694	-6.600	-5.956	-1.167	0.838	4.219	10.083	13.499	7.903	8.993	121.094
-4.763	-4.877	-3.817	-5.218	-5.753	-4.249	-1.796	1.709	3.967	0.343	1.613	-1.729	-1.185	-3.949	-3.641	-5.572	-2.755	-0.941	-2.348	-6.351	-5.700	-0.822	1.176	4.284	9.870	12.713	7.630	8.046	125.000
-4.716	-4.645	-3.766	-4.921	-5.460	-3.994	-1.532	1.728	3.728	0.491	1.354	-1.784	-0.974	-3.764	-3.468	-5.377	-2.489	-0.762	-2.051	-6.081	-5.435	-0.551	1.431	4.231	9.498	11.783	7.294	7.141	128.906
-4.661	-4.378	-3.654	-4.579	-5.122	-3.700	-1.245	1.690	3.500	0.732	1.355	-1.511	-0.785	-3.626	-3.338	-5.212	-2.333	-0.666	-1.857	-5.839	-5.207	-0.394	1.567	4.078	9.014	10.827	6.954	6.415	132.812
-4.629	-4.126	-3.503	-4.242	-4.783	-3.400	-0.953	1.611	3.330	1.072	1.668	-0.870	-0.631	-3.561	-3.285	-5.123	-2.337	-0.689	-1.809	-5.672	-5.056	-0.382	1.560	3.851	8.480	9.965	6.670	5.987	136.719
-4.652	-3.939	-3.344	-3.963	-4.488	-3.134	-0.672	1.512	3.266	1.513	2.321	0.149	-0.524	-3.588	-3.340	-5.148	-2.533	-0.857	-1.937	-5.617	-5.015	-0.531	1.395	3.584	7.960	9.311	6.497	5.949	140.625
-4.759	-3.860	-3.219	-3.787	-4.277	-2.939	-0.415	1.416	3.347	2.047	3.316	1.522	-0.466	-3.709	-3.523	-5.312	-2.933	-1.182	-2.253	-5.701	-5.100	-0.843	1.076	3.310	7.518	8.956	6.476	6.352	144.531
-4.974	-3.928	-3.172	-3.753	-4.183	-2.851	-0.189	1.347	3.602	2.661	4.629	3.199	-0.459	-3.917	-3.846	-5.627	-3.531	-1.665	-2.754	-5.936	-5.315	-1.304	0.618	3.063	7.213	8.961	6.633	7.206	148.438
-5.316	-4.164	-3.245	-3.881	-4.225	-2.897	0.006	1.325	4.050	3.341	6.212	5.109	-0.495	-4.198	-4.310	-6.095	-4.300	-2.292	-3.420	-6.324	-5.653	-1.890	0.049	2.866	7.092	9.352	6.976	8.479	152.344
-5.794	-4.577	-3.468	-4.182	-4.410	-3.091	0.174	1.367	4.691	4.072	8.002	7.170	-0.567	-4.530	-4.910	-6.705	-5.202	-3.038	-4.218	-6.854	-6.095	-2.567	-0.592	2.738	7.182	10.120	7.492	10.105	156.250
-6.408	-5.158	-3.855	-4.647	-4.734	-3.432	0.322	1.483	5.514	4.839	9.926	9.295	-0.663	-4.893	-5.630	-7.440	-6.191	-3.868	-5.107	-7.511	-6.624	-3.299	-1.265	2.685	7.494	11.222	8.154	11.993	160.156
-7.147	-5.885	-4.402	-5.257	-5.180	-3.903	0.460	1.677	6.491	5.628	11.905	11.399	-0.773	-5.270	-6.444	-8.279	-7.219	-4.740	-6.041	-8.276	-7.217	-4.050	-1.927	2.709	8.016	12.591	8.925	14.037	164.062
-7.988	-6.725	-5.086	-5.982	-5.725	-4.472	0.598	1.948	7.585	6.427	13.867	13.411	-0.887	-5.648	-7.322	-9.197	-8.241	-5.608	-6.978	-9.130	-7.855	-4.784	-2.539	2.804	8.717	14.139	9.764	16.130	167.969
-8.901	-7.638	-5.868	-6.786	-6.340	-5.100	0.744	2.290	8.751	7.224	15.749	15.270	-0.997	-6.019	-8.226	-10.168	-9.221	-6.428	-7.878	-10.052	-8.523	-5.471	-3.071	2.962	9.552	15.776	10.628	18.169	171.875
-9.851	-8.581	-6.704	-7.630	-6.992	-5.743	0.903	2.694	9.943	8.005	17.497	16.930	-1.094	-6.373	-9.118	-11.167	-10.132	-7.164	-8.709	-11.017	-9.204	-6.089	-3.505	3.175	10.464	17.409	11.483	20.069	175.781
-10.795	-9.513	-7.542	-8.477	-7.648	-6.356	1.080	3.149	11.119	8.758	19.071	18.359	-1.174	-6.703	-9.961	-12.165	-10.957	-7.788	-9.451	-12.002	-9.882	-6.619	-3.831	3.434	11.396	18.959	12.299	21.762	179.688
-11.693	-10.399	-8.335	-9.293	-8.279	-6.901	1.274	3.641	12.239	9.469	20.441	19.539	-1.229	-7.002	-10.722	-13.137	-11.688	-8.287	-10.091	-12.978	-10.542	-7.051	-4.054	3.731	12.291	20.358	13.053	23.201	183.594
-12.506	-11.211	-9.042	-10.050	-8.858	-7.347	1.484	4.154	13.272	10.124	21.589	20.458	-1.257	-7.259	-11.376	-14.053	-12.322	-8.659	-10.625	-13.913	-11.163	-7.382	-4.185	4.056	13.100	21.558	13.730	24.359	187.500
-13.201	-11.928	-9.635	-10.725	-9.364	-7.677	1.705	4.671	14.192	10.708	22.504	21.119	-1.255	-7.465	-11.906	-14.888	-12.858	-8.915	-11.056	-14.777	-11.726	-7.614	-4.240	4.398	13.786	22.529	14.319	25.225	191.406
-13.753	-12.537	-10.094	-11.302	-9.781	-7.884	1.931	5.173	14.981	11.210	23.183	21.526	-1.220	-7.613	-12.302	-15.617	-13.296	-9.072	-11.390	-15.539	-12.210	-7.754	-4.239	4.746	14.325	23.256	14.812	25.803	195.312
-14.145	-13.029	-10.414	-11.768	-10.100	-7.972	2.156	5.640	15.626	11.621	23.627	21.691	-1.152	-7.695	-12.563	-16.219	-13.635	-9.154	-11.635	-16.172	-12.594	-7.813	-4.199	5.083	14.706	23.738	15.203	26.105	199.219
-14.374	-13.402	-10.598	-12.116	-10.312	-7.954	2.374	6.053	16.114	11.932	23.841	21.630	-1.049	-7.704	-12.696	-16.676	-13.874	-9.181	-11.799	-16.652	-12.858	-7.800	-4.134	5.395	14.927	23.983	15.489	26.154	203.125
-14.444	-13.654	-10.658	-12.343	-10.416	-7.848	2.578	6.393	16.439	12.139	23.834	21.363	-0.907	-7.633	-12.711	-16.977	-14.012	-9.171	-11.886	-16.962	-12.985	-7.725	-4.053	5.669	14.999	24.009	15.668	25.973	207.031
-14.369	-13.787	-10.613	-12.449	-10.412	-7.675	2.763	6.646	16.596	12.243	23.617	20.914	-0.725	-7.478	-12.623	-17.117	-14.049	-9.136	-11.899	-17.094	-12.963	-7.597	-3.958	5.895	14.937	23.840	15.742	25.592	210.938
-14.170	-13.806	-10.485	-12.440	-10.303	-7.458	2.922	6.798	16.585	12.247	23.207	20.311	-0.498	-7.234	-12.449	-17.099	-13.986	-9.079	-11.835	-17.045	-12.785	-7.423	-3.847	6.068	14.761	23.505	15.715	25.041	214.844
-13.875	-13.721	-10.302	-12.328	-10.100	-7.220	3.052	6.844	16.411	12.155	22.627	19.585	-0.224	-6.899	-12.209	-16.936	-13.829	-8.999	-11.690	-16.822	-12.449	-7.204	-3.716	6.192	14.498	23.037	15.599	24.356	218.750
-13.514	-13.545	-10.090	-12.127	-9.816	-6.980	3.149	6.780	16.085	11.980	21.905	18.770	0.096	-6.475	-11.924	-16.646	-13.584	-8.890	-11.461	-16.435	-11.961	-6.942	-3.556	6.275	14.173	22.472	15.408	23.573	222.656
-13.118	-13.295	-9.880	-11.854	-9.470	-6.756	3.212	6.609	15.627	11.732	21.078	17.900	0.461	-5.966	-11.617	-16.257	-13.260	-8.745	-11.144	-15.905	-11.334	-6.635	-3.361	6.333	13.811	21.844	15.159	22.726	226.562
-12.716	-12.991	-9.696	-11.529	-9.081	-6.563	3.241	6.342	15.063	11.426	20.183	17.008	0.863	-5.381	-11.311	-15.801	-12.874	-8.561	-10.744	-15.253	-10.588	-6.281	-3.125	6.385	13.437	21.187	14.872	21.851	230.469
-12.331	-12.653	-9.559	-11.169	-8.668	-6.408	3.239	5.991	14.423	11.079	19.259	16.122	1.294	-4.731	-11.027	-15.307	-12.442	-8.340	-10.268	-14.505	-9.746	-5.880	-2.850	6.449	13.070	20.530	14.564	20.978	234.375
-11.983	-12.302	-9.482	-10.791	-8.247	-6.296	3.213	5.577	13.741	10.704	18.340	15.265	1.741	-4.033	-10.784	-14.802	-11.984	-8.090	-9.732	-13.687	-8.838	-5.433	-2.540	6.541	12.725	19.897	14.251	20.131	238.281
-11.686	-11.953	-9.470	-10.405	-7.832	-6.224	3.168	5.122	13.051	10.318	17.456	14.455	2.190	-3.303	-10.594	-14.307	-11.517	-7.826	-9.155	-12.825	-7.891	-4.948	-2.208	6.671	12.412	19.307	13.948	19.332	242.188
-11.455	-11.619	-9.525	-10.024	-7.430	-6.188	3.112	4.653	12.384	9.933	16.625	13.705	2.627	-2.560	-10.461	-13.835	-11.059	-7.569	-8.557	-11.944	-6.933	-4.433	-1.868	6.844	12.137	18.775	13.670	18.596	246.094
-11.303	-11.311	-9.645	-9.653	-7.047	-6.180	3.052	4.198	11.769	9.564	15.862	13.024	3.044	-1.821	-10.388	-13.392	-10.620	-7.340	-7.960	-11.066	-5.990	-3.901	-1.537	7.056	11.903	18.314	13.430	17.937	250.000
-11.244	-11.035	-9.825	-9.298	-6.682	-6.192	2.998	3.783	11.230	9.223	15.175	12.422	3.433	-1.105	-10.371	-12.979	-10.209	-7.159	-7.382	-10.212	-5.082	-3.368	-1.232	7.301	11.710	17.933	13.241	17.365	253.906
-11.286	-10.797	-10.059	-8.962	-6.335	-6.216	2.957	3.432	10.785	8.925	14.569	11.906	3.793	-0.424	-10.409	-12.594	-9.828	-7.042	-6.837	-9.397	-4.227	-2.849	-0.967	7.570	11.557	17.639	13.116	16.887	257.812
-11.437	-10.597	-10.335	-8.646	-6.001	-6.245	2.937	3.162	10.445	8.683	14.050	11.485	4.128	0.210	-10.503	-12.233	-9.476	-6.997	-6.336	-8.635	-3.437	-2.361	-0.753	7.852	11.440	17.436	13.063	16.510	261.719
-11.692	-10.434	-10.638	-8.347	-5.677	-6.272	2.949	2.984	10.215	8.510	13.621	11.164	4.444	0.788	-10.655	-11.895	-9.150	-7.027	-5.882	-7.937	-2.718	-1.914	-0.596	8.137	11.352	17.320	13.085	16.234	265.625
-12.039	-10.300	-10.950	-8.063	-5.356	-6.288	2.998	2.898	10.093	8.417	13.287	10.942	4.751	1.307	-10.869	-11.582	-8.849	-7.124	-5.476	-7.310	-2.075	-1.521	-0.499	8.418	11.286	17.282	13.176	16.053	269.531
-12.455	-10.187	-11.246	-7.788	-5.034	-6.286	3.093	2.895	10.068	8.408	13.049	10.815	5.056	1.767	-11.149	-11.297	-8.571	-7.275	-5.116	-6.760	-1.509	-1.187	-0.460	8.688	11.232	17.306	13.326	15.956	273.438
-12.911	-10.082	-11.505	-7.517	-4.704	-6.257	3.236	2.960	10.126	8.484	12.906	10.774	5.367	2.171	-11.494	-11.050	-8.315	-7.462	-4.796	-6.292	-1.019	-0.913	-0.471	8.941	11.179	17.374	13.514	15.928	277.344
-13.377	-9.974	-11.707	-7.247	-4.365	-6.195	3.430	3.074	10.248	8.640	12.851	10.800	5.688	2.528	-11.898	-10.850	-8.084	-7.667	-4.511	-5.910	-0.601	-0.698	-0.523	9.172	11.121	17.463	13.722	15.949	281.250
-13.827	-9.854	-11.843	-6.976	-4.014	-6.096	3.674	3.214	10.412	8.865	12.871	10.876	6.023	2.845	-12.349	-10.703	-7.877	-7.868	-4.257	-5.616	-0.254	-0.536	-0.604	9.380	11.053	17.553	13.928	16.001	285.156
-14.243	-9.721	-11.911	-6.709	-3.654	-5.961	3.962	3.363	10.600	9.145	12.953	10.981	6.371	3.133	-12.830	-10.616	-7.697	-8.051	-4.028	-5.411	0.026	-0.418	-0.701	9.561	10.975	17.629	14.119	16.068	289.062
-14.621	-9.577	-11.924	-6.453	-3.291	-5.796	4.288	3.504	10.792	9.464	13.075	11.098	6.731	3.399	-13.319	-10.589	-7.544	-8.201	-3.822	-5.292	0.243	-0.333	-0.800	9.718	10.894	17.684	14.288	16.140	292.969
-14.966	-9.435	-11.906	-6.219	-2.936	-5.615	4.638	3.627	10.974	9.803	13.219	11.212	7.099	3.649	-13.793	-10.618	-7.413	-8.313	-3.635	-5.252	0.402	-0.268	-0.886	9.856	10.818	17.717	14.435	16.211	296.875
-15.289	-9.310	-11.888	-6.021	-2.600	-5.434	4.999	3.725	11.132	10.145	13.367	11.311	7.473	3.887	-14.232	-10.694	-7.300	-8.382	-3.465	-5.279	0.509	-0.208	-0.947	9.982	10.763	17.736	14.566	16.279	300.781
-15.606	-9.218	-11.905	-5.870	-2.299	-5.271	5.354	3.795	11.260	10.474	13.504	11.389	7.846	4.113	-14.620	-10.807	-7.200	-8.411	-3.309	-5.360	0.571	-0.141	-0.970	10.106	10.744	17.751	14.690	16.345	304.688
-15.927	-9.176	-11.988	-5.774	-2.047	-5.144	5.686	3.837	11.352	10.774	13.620	11.442	8.213	4.326	-14.946	-10.942	-7.105	-8.403	-3.164	-5.479	0.594	-0.058	-0.946	10.238	10.773	17.779	14.817	16.414	308.594
-16.260	-9.193	-12.156	-5.739	-1.854	-5.067	5.982	3.853	11.408	11.035	13.709	11.472	8.568	4.523	-15.208	-11.086	-7.011	-8.367	-3.027	-5.620	0.587	0.048	-0.871	10.386	10.859	17.833	14.955	16.486	312.500
-16.600	-9.272	-12.414	-5.763	-1.728	-5.047	6.229	3.846	11.431	11.250	13.772	11.485	8.902	4.699	-15.409	-11.228	-6.915	-8.308	-2.896	-5.771	0.558	0.176	-0.744	10.553	11.005	17.923	15.109	16.566	316.406
-16.938	-9.411	-12.752	-5.843	-1.670	-5.086	6.422	3.820	11.425	11.416	13.813	11.492	9.209	4.851	-15.561	-11.360	-6.819	-8.234	-2.770	-5.920	0.512	0.323	-0.572	10.738	11.209	18.055	15.279	16.656	320.312
-17.262	-9.600	-13.149	-5.972	-1.678	-5.176	6.557	3.779	11.400	11.536	13.841	11.510	9.480	4.975	-15.676	-11.474	-6.728	-8.151	-2.649	-6.061	0.455	0.483	-0.364	10.936	11.462	18.227	15.463	16.759	324.219
-17.559	-9.825	-13.576	-6.140	-1.746	-5.310	6.637	3.730	11.365	11.615	13.872	11.557	9.708	5.071	-15.770	-11.569	-6.649	-8.067	-2.535	-6.188	0.392	0.647	-0.134	11.137	11.751	18.432	15.654	16.877	328.125
-17.823	-10.071	-14.001	-6.336	-1.862	-5.472	6.671	3.681	11.332	11.664	13.921	11.652	9.890	5.138	-15.857	-11.642	-6.589	-7.991	-2.430	-6.298	0.327	0.806	0.105	11.331	12.057	18.654	15.844	17.011	332.031
-18.049	-10.317	-14.398	-6.548	-2.012	-5.650	6.667	3.636	11.310	11.697	14.009	11.812	10.023	5.181	-15.948	-11.690	-6.555	-7.932	-2.338	-6.385	0.269	0.954	0.339	11.505	12.362	18.876	16.020	17.160	335.938
-18.241	-10.546	-14.745	-6.759	-2.178	-5.827	6.640	3.602	11.307	11.726	14.151	12.048	10.110	5.205	-16.048	-11.712	-6.549	-7.901	-2.262	-6.442	0.223	1.086	0.555	11.652	12.644	19.075	16.173	17.318	339.844
-18.404	-10.742	-15.029	-6.955	-2.342	-5.993	6.601	3.582	11.326	11.759	14.358	12.357	10.154	5.216	-16.160	-11.703	-6.574	-7.909	-2.205	-6.460	0.200	1.200	0.745	11.765	12.887	19.235	16.293	17.476	343.750
-18.542	-10.889	-15.244	-7.117	-2.487	-6.137	6.562	3.575	11.364	11.803	14.629	12.726	10.164	5.222	-16.282	-11.660	-6.626	-7.961	-2.166	-6.431	0.210	1.295	0.900	11.843	13.075	19.340	16.374	17.624	347.656
-18.656	-10.978	-15.390	-7.229	-2.598	-6.249	6.531	3.579	11.410	11.856	14.942	13.123	10.149	5.232	-16.406	-11.579	-6.700	-8.062	-2.144	-6.345	0.260	1.374	1.015	11.891	13.202	19.385	16.414	17.745	351.562
-18.740	-11.001	-15.467	-7.278	-2.665	-6.325	6.513	3.589	11.449	11.909	15.259	13.498	10.117	5.253	-16.523	-11.456	-6.786	-8.206	-2.134	-6.196	0.358	1.442	1.092	11.916	13.267	19.372	16.415	17.823	355.469
-18.786	-10.956	-15.482	-7.253	-2.680	-6.359	6.505	3.599	11.463	11.947	15.524	13.793	10.077	5.296	-16.623	-11.290	-6.875	-8.383	-2.129	-5.981	0.509	1.506	1.134	11.929	13.278	19.310	16.383	17.841	359.375
-18.781	-10.845	-15.439	-7.152	-2.644	-6.350	6.502	3.598	11.431	11.950	15.674	13.942	10.037	5.365	-16.690	-11.081	-6.957	-8.575	-2.119	-5.702	0.711	1.576	1.151	11.942	13.246	19.213	16.327	17.785	363.281
-18.715	-10.675	-15.347	-6.977	-2.561	-6.300	6.494	3.578	11.334	11.897	15.649	13.892	9.999	5.466	-16.715	-10.833	-7.023	-8.763	-2.095	-5.364	0.962	1.657	1.156	11.965	13.188	19.101	16.256	17.643	367.188
-18.582	-10.460	-15.218	-6.742	-2.439	-6.216	6.472	3.528	11.162	11.773	15.411	13.608	9.967	5.598	-16.686	-10.553	-7.068	-8.929	-2.051	-4.979	1.256	1.758	1.160	12.004	13.121	18.989	16.180	17.415	371.094
-18.388	-10.218	-15.068	-6.464	-2.290	-6.110	6.428	3.443	10.914	11.577	14.955	13.093	9.943	5.755	-16.603	-10.253	-7.091	-9.058	-1.983	-4.561	1.582	1.879	1.171	12.060	13.055	18.889	16.105	17.110	375.000
-18.149	-9.974	-14.916	-6.168	-2.128	-5.999	6.361	3.323	10.603	11.319	14.322	12.396	9.931	5.931	-16.471	-9.948	-7.096	-9.147	-1.898	-4.128	1.928	2.017	1.194	12.131	12.997	18.805	16.036	16.751	378.906
-17.890	-9.755	-14.787	-5.883	-1.968	-5.901	6.277	3.176	10.256	11.030	13.590	11.607	9.937	6.115	-16.309	-9.658	-7.094	-9.203	-1.804	-3.701	2.280	2.163	1.224	12.210	12.943	18.734	15.978	16.374	382.812
-17.645	-9.587	-14.700	-5.637	-1.824	-5.837	6.194	3.017	9.912	10.753	12.870	10.848	9.969	6.297	-16.140	-9.404	-7.098	-9.242	-1.717	-3.300	2.624	2.305	1.250	12.288	12.883	18.666	15.930	16.022	386.719
-17.450	-9.491	-14.675	-5.450	-1.703	-5.819	6.132	2.865	9.613	10.538	12.277	10.248	10.037	6.468	-15.990	-9.204	-7.122	-9.288	-1.649	-2.945	2.944	2.430	1.261	12.357	12.800	18.585	15.892	15.740	390.625
-17.331	-9.477	-14.718	-5.337	-1.609	-5.853	6.116	2.738	9.398	10.427	11.912	9.918	10.149	6.623	-15.882	-9.071	-7.177	-9.359	-1.615	-2.650	3.229	2.527	1.243	12.410	12.674	18.474	15.862	15.563	394.531
-17.299	-9.543	-14.829	-5.297	-1.538	-5.933	6.163	2.655	9.289	10.447	11.829	9.921	10.309	6.761	-15.828	-9.010	-7.266	-9.470	-1.619	-2.423	3.473	2.589	1.192	12.441	12.490	18.315	15.833	15.506	398.438
-17.349	-9.671	-14.992	-5.317	-1.478	-6.043	6.284	2.625	9.290	10.603	12.031	10.263	10.514	6.884	-15.830	-9.016	-7.389	-9.621	-1.660	-2.264	3.671	2.615	1.108	12.448	12.241	18.098	15.798	15.564	402.344
-17.460	-9.837	-15.184	-5.375	-1.411	-6.155	6.476	2.650	9.386	10.871	12.468	10.886	10.752	6.996	-15.874	-9.077	-7.536	-9.802	-1.732	-2.165	3.827	2.613	1.001	12.427	11.929	17.818	15.747	15.706	406.250
-17.600	-10.010	-15.379	-5.444	-1.321	-6.239	6.722	2.724	9.549	11.212	13.048	11.679	11.006	7.100	-15.942	-9.177	-7.697	-9.994	-1.824	-2.115	3.946	2.592	0.888	12.380	11.570	17.482	15.671	15.887	410.156
-17.732	-10.165	-15.548	-5.497	-1.192	-6.267	6.995	2.837	9.741	11.570	13.664	12.508	11.250	7.198	-16.010	-9.301	-7.862	-10.171	-1.923	-2.102	4.035	2.565	0.793	12.306	11.189	17.105	15.561	16.052	414.062
-17.826	-10.283	-15.665	-5.516	-1.018	-6.215	7.261	2.975	9.930	11.892	14.214	13.240	11.457	7.285	-16.059	-9.436	-8.025	-10.307	-2.022	-2.115	4.099	2.545	0.738	12.207	10.818	16.707	15.414	16.153	417.969
-17.862	-10.357	-15.712	-5.491	-0.802	-6.074	7.486	3.121	10.090	12.132	14.625	13.769	11.595	7.349	-16.074	-9.575	-8.181	-10.383	-2.115	-2.150	4.139	2.536	0.739	12.081	10.488	16.311	15.225	16.155	421.875
-17.828	-10.389	-15.675	-5.422	-0.556	-5.846	7.640	3.263	10.204	12.259	14.861	14.038	11.637	7.375	-16.048	-9.716	-8.331	-10.386	-2.203	-2.206	4.152	2.538	0.803	11.926	10.220	15.937	14.993	16.042	425.781
-17.723	-10.384	-15.549	-5.317	-0.299	-5.545	7.702	3.389	10.266	12.258	14.922	14.042	11.560	7.342	-15.979	-9.859	-8.476	-10.316	-2.290	-2.284	4.130	2.543	0.926	11.736	10.027	15.598	14.718	15.820	429.688
-17.547	-10.348	-15.334	-5.185	-0.051	-5.190	7.663	3.488	10.276	12.131	14.837	13.821	11.350	7.232	-15.867	-10.000	-8.617	-10.179	-2.384	-2.384	4.066	2.540	1.088	11.502	9.905	15.294	14.401	15.510	433.594
-17.301	-10.283	-15.035	-5.034	0.171	-4.803	7.523	3.554	10.236	11.891	14.647	13.444	11.004	7.031	-15.713	-10.133	-8.750	-9.990	-2.488	-2.504	3.950	2.514	1.267	11.215	9.835	15.019	14.041	15.140	437.500
-16.986	-10.183	-14.658	-4.865	0.359	-4.404	7.295	3.585	10.146	11.556	14.392	12.987	10.529	6.736	-15.514	-10.247	-8.869	-9.769	-2.603	-2.638	3.782	2.456	1.436	10.867	9.792	14.757	13.638	14.741	441.406
-16.601	-10.040	-14.212	-4.675	0.515	-4.005	6.995	3.582	10.009	11.145	14.096	12.515	9.945	6.355	-15.267	-10.326	-8.965	-9.532	-2.723	-2.774	3.566	2.361	1.573	10.454	9.744	14.491	13.192	14.339	445.312
-16.148	-9.842	-13.712	-4.456	0.645	-3.612	6.648	3.552	9.824	10.678	13.773	12.067	9.279	5.905	-14.968	-10.358	-9.028	-9.295	-2.840	-2.901	3.311	2.232	1.667	9.980	9.667	14.207	12.707	13.949	449.219
-15.633	-9.583	-13.172	-4.204	0.762	-3.228	6.279	3.503	9.596	10.177	13.423	11.657	8.566	5.413	-14.620	-10.336	-9.048	-9.069	-2.942	-3.009	3.034	2.078	1.716	9.461	9.548	13.904	12.191	13.579	453.125
-15.072	-9.270	-12.614	-3.921	0.877	-2.855	5.912	3.450	9.336	9.662	13.044	11.277	7.841	4.908	-14.230	-10.260	-9.024	-8.859	-3.020	-3.097	2.749	1.910	1.727	8.920	9.387	13.593	11.661	13.233	457.031
-14.491	-8.919	-12.063	-3.616	0.997	-2.495	5.572	3.408	9.062	9.158	12.644	10.911	7.142	4.420	-13.818	-10.145	-8.961	-8.673	-3.070	-3.167	2.471	1.743	1.712	8.388	9.200	13.294	11.141	12.917	460.938
-13.923	-8.561	-11.546	-3.314	1.119	-2.156	5.280	3.394	8.799	8.691	12.242	10.549	6.502	3.975	-13.409	-10.011	-8.874	-8.515	-3.097	-3.232	2.210	1.583	1.684	7.900	9.011	13.036	10.662	12.636	464.844
-13.406	-8.234	-11.089	-3.045	1.233	-1.850	5.050	3.425	8.577	8.291	11.870	10.194	5.949	3.593	-13.034	-9.889	-8.788	-8.392	-3.113	-3.306	1.968	1.436	1.651	7.487	8.847	12.847	10.256	12.400	468.750
-12.975	-7.980	-10.715	-2.843	1.324	-1.589	4.895	3.510	8.426	7.987	11.573	9.869	5.504	3.284	-12.723	-9.810	-8.729	-8.311	-3.138	-3.405	1.746	1.299	1.616	7.175	8.734	12.747	9.950	12.222	472.656
-12.658	-7.831	-10.439	-2.739	1.373	-1.391	4.817	3.656	8.370	7.801	11.396	9.611	5.178	3.050	-12.504	-9.801	-8.726	-8.280	-3.192	-3.545	1.536	1.167	1.577	6.977	8.688	12.745	9.765	12.115	476.562
-12.471	-7.811	-10.265	-2.753	1.364	-1.266	4.816	3.859	8.420	7.747	11.376	9.466	4.975	2.882	-12.391	-9.883	-8.804	-8.306	-3.297	-3.735	1.329	1.030	1.527	6.896	8.714	12.831	9.708	12.089	480.469
-12.409	-7.921	-10.186	-2.894	1.288	-1.221	4.882	4.106	8.572	7.825	11.531	9.472	4.886	2.766	-12.385	-10.062	-8.975	-8.387	-3.466	-3.979	1.116	0.881	1.461	6.919	8.805	12.984	9.768	12.143	484.375
-12.451	-8.147	-10.181	-3.147	1.144	-1.252	4.998	4.375	8.802	8.020	11.856	9.650	4.895	2.685	-12.470	-10.329	-9.238	-8.517	-3.705	-4.271	0.891	0.715	1.376	7.024	8.942	13.166	9.922	12.266	488.281
-12.558	-8.452	-10.220	-3.484	0.942	-1.346	5.142	4.634	9.072	8.299	12.315	9.992	4.977	2.618	-12.615	-10.661	-9.577	-8.681	-4.005	-4.597	0.654	0.533	1.275	7.179	9.097	13.334	10.131	12.435	492.188
-12.677	-8.788	-10.264	-3.860	0.699	-1.483	5.287	4.848	9.328	8.619	12.849	10.462	5.101	2.552	-12.773	-11.019	-9.959	-8.851	-4.344	-4.933	0.412	0.344	1.167	7.344	9.234	13.437	10.349	12.609	496.094
-12.749	-9.098	-10.275	-4.222	0.440	-1.638	5.400	4.978	9.513	8.925	13.381	10.992	5.236	2.477	-12.890	-11.352	-10.337	-8.995	-4.686	-5.245	0.182	0.160	1.068	7.480	9.316	13.429	10.523	12.739	500.000
-12.720	-9.328	-10.219	-4.516	0.191	-1.785	5.454	4.989	9.570	9.163	13.826	11.501	5.353	2.391	-12.916	-11.606	-10.656	-9.074	-4.988	-5.494	-0.012	0.004	0.998	7.552	9.308	13.269	10.604	12.775	503.906
-12.545	-9.431	-10.073	-4.696	-0.025	-1.904	5.421	4.855	9.457	9.285	14.104	11.901	5.426	2.300	-12.807	-11.729	-10.861	-9.051	-5.202	-5.640	-0.141	-0.103	0.973	7.536	9.184	12.934	10.553	12.669	507.812
-12.202	-9.379	-9.828	-4.732	-0.192	-1.984	5.285	4.566	9.149	9.256	14.155	12.117	5.442	2.216	-12.539	-11.684	-10.908	-8.898	-5.288	-5.648	-0.182	-0.141	1.008	7.420	8.928	12.417	10.346	12.389	511.719
-11.691	-9.162	-9.493	-4.613	-0.300	-2.024	5.040	4.126	8.647	9.057	13.949	12.098	5.395	2.150	-12.108	-11.450	-10.764	-8.600	-5.216	-5.498	-0.116	-0.094	1.111	7.207	8.544	11.739	9.980	11.926	515.625
-11.036	-8.794	-9.089	-4.353	-0.353	-2.030	4.694	3.558	7.976	8.691	13.487	11.826	5.290	2.116	-11.531	-11.030	-10.423	-8.158	-4.976	-5.187	0.061	0.042	1.279	6.918	8.050	10.937	9.475	11.297	519.531
-10.282	-8.303	-8.644	-3.983	-0.361	-2.018	4.265	2.903	7.182	8.178	12.805	11.320	5.137	2.117	-10.846	-10.449	-9.898	-7.594	-4.578	-4.734	0.337	0.262	1.500	6.581	7.479	10.072	8.867	10.540	523.438
-9.484	-7.732	-8.191	-3.547	-0.345	-2.002	3.782	2.212	6.325	7.558	11.964	10.629	4.948	2.151	-10.101	-9.754	-9.227	-6.944	-4.057	-4.179	0.683	0.546	1.756	6.228	6.875	9.211	8.208	9.717	527.344
-8.700	-7.126	-7.754	-3.093	-0.324	-1.998	3.277	1.539	5.470	6.876	11.046	9.825	4.733	2.205	-9.351	-9.000	-8.464	-6.257	-3.462	-3.575	1.057	0.863	2.020	5.890	6.286	8.424	7.554	8.895	531.250
-7.980	-6.530	-7.353	-2.667	-0.321	-2.013	2.782	0.939	4.683	6.187	10.133	8.989	4.499	2.258	-8.645	-8.251	-7.673	-5.588	-2.855	-2.987	1.409	1.177	2.265	5.590	5.759	7.770	6.954	8.145	535.156
-7.364	-5.981	-6.996	-2.303	-0.348	-2.046	2.328	0.455	4.015	5.538	9.305	8.201	4.248	2.286	-8.025	-7.562	-6.920	-4.988	-2.296	-2.473	1.692	1.449	2.465	5.338	5.328	7.292	6.451	7.524	539.062
-6.870	-5.505	-6.686	-2.023	-0.413	-2.090	1.935	0.116	3.503	4.970	8.621	7.529	3.977	2.266	-7.519	-6.979	-6.262	-4.498	-1.840	-2.081	1.868	1.644	2.600	5.134	5.014	7.004	6.068	7.073	542.969
-6.499	-5.117	-6.418	-1.836	-0.513	-2.131	1.620	-0.065	3.164	4.507	8.117	7.019	3.684	2.183	-7.134	-6.526	-5.742	-4.145	-1.523	-1.837	1.917	1.738	2.655	4.965	4.817	6.894	5.810	6.808	546.875
-6.237	-4.819	-6.179	-1.735	-0.639	-2.153	1.385	-0.098	2.992	4.159	7.799	6.689	3.365	2.031	-6.863	-6.208	-5.379	-3.935	-1.359	-1.742	1.839	1.720	2.626	4.816	4.719	6.922	5.665	6.717	550.781
-6.054	-4.601	-5.960	-1.704	-0.774	-2.141	1.227	-0.006	2.959	3.915	7.645	6.532	3.020	1.815	-6.683	-6.009	-5.171	-3.858	-1.337	-1.772	1.655	1.597	2.521	4.667	4.687	7.031	5.605	6.768	554.688
-5.919	-4.448	-5.749	-1.722	-0.903	-2.083	1.132	0.171	3.019	3.751	7.614	6.519	2.654	1.552	-6.559	-5.897	-5.096	-3.882	-1.427	-1.887	1.403	1.392	2.357	4.504	4.681	7.156	5.593	6.911	558.594
-5.800	-4.340	-5.538	-1.763	-1.010	-1.977	1.079	0.386	3.114	3.633	7.648	6.602	2.274	1.262	-6.456	-5.829	-5.112	-3.965	-1.579	-2.032	1.129	1.141	2.160	4.320	4.663	7.236	5.591	7.087	562.500
-5.671	-4.258	-5.325	-1.804	-1.084	-1.829	1.045	0.590	3.185	3.521	7.686	6.723	1.892	0.973	-6.339	-5.766	-5.169	-4.058	-1.737	-2.157	0.877	0.889	1.965	4.117	4.604	7.222	5.564	7.237	566.406
-5.514	-4.181	-5.109	-1.823	-1.120	-1.649	1.001	0.741	3.176	3.378	7.671	6.821	1.520	0.705	-6.186	-5.672	-5.218	-4.111	-1.848	-2.218	0.685	0.682	1.806	3.906	4.489	7.087	5.488	7.308	570.312
-5.319	-4.095	-4.891	-1.806	-1.120	-1.455	0.925	0.803	3.046	3.174	7.560	6.844	1.167	0.475	-5.983	-5.524	-5.216	-4.082	-1.870	-2.191	0.574	0.561	1.717	3.700	4.319	6.826	5.346	7.264	574.219
-5.082	-3.985	-4.668	-1.743	-1.091	-1.264	0.798	0.761	2.773	2.891	7.328	6.752	0.841	0.291	-5.731	-5.317	-5.134	-3.945	-1.779	-2.071	0.549	0.552	1.721	3.514	4.109	6.451	5.137	7.082	578.125
-4.805	-3.841	-4.433	-1.631	-1.042	-1.087	0.611	0.613	2.361	2.525	6.969	6.520	0.545	0.152	-5.438	-5.053	-4.960	-3.690	-1.574	-1.871	0.598	0.666	1.829	3.354	3.876	5.986	4.865	6.756	582.031
-4.486	-3.653	-4.174	-1.468	-0.983	-0.932	0.367	0.373	1.833	2.086	6.495	6.148	0.279	0.050	-5.120	-4.748	-4.701	-3.326	-1.274	-1.618	0.698	0.889	2.037	3.219	3.641	5.457	4.543	6.294	585.938
-4.128	-3.414	-3.878	-1.258	-0.922	-0.798	0.078	0.070	1.230	1.594	5.937	5.652	0.040	-0.026	-4.792	-4.419	-4.375	-2.877	-0.915	-1.343	0.823	1.193	2.322	3.101	3.416	4.889	4.183	5.717	589.844
-3.730	-3.118	-3.529	-1.008	-0.860	-0.680	-0.235	-0.263	0.599	1.078	5.334	5.067	-0.175	-0.091	-4.467	-4.083	-4.012	-2.382	-0.540	-1.075	0.944	1.534	2.652	2.983	3.202	4.297	3.798	5.052	593.750
-3.295	-2.766	-3.120	-0.723	-0.797	-0.563	-0.546	-0.591	-0.013	0.570	4.725	4.437	-0.367	-0.153	-4.153	-3.753	-3.642	-1.882	-0.194	-0.838	1.039	1.864	2.985	2.848	2.992	3.689	3.399	4.333	597.656
-2.826	-2.362	-2.650	-0.414	-0.728	-0.436	-0.831	-0.883	-0.567	0.099	4.151	3.812	-0.534	-0.219	-3.852	-3.441	-3.294	-1.415	0.088	-0.646	1.095	2.140	3.283	2.682	2.774	3.069	2.997	3.594	601.562
-2.332	-1.920	-2.130	-0.094	-0.648	-0.291	-1.070	-1.119	-1.040	-0.312	3.641	3.243	-0.670	-0.288	-3.562	-3.151	-2.987	-1.013	0.283	-0.507	1.106	2.327	3.513	2.481	2.531	2.438	2.600	2.871	605.469
-1.829	-1.463	-1.578	0.223	-0.554	-0.123	-1.248	-1.290	-1.425	-0.648	3.217	2.772	-0.765	-0.352	-3.277	-2.888	-2.733	-0.692	0.387	-0.419	1.077	2.413	3.659	2.247	2.250	1.799	2.217	2.200	609.375
-1.337	-1.017	-1.023	0.519	-0.448	0.059	-1.362	-1.402	-1.731	-0.903	2.886	2.427	-0.809	-0.399	-2.992	-2.654	-2.532	-0.456	0.410	-0.371	1.021	2.400	3.718	1.995	1.924	1.160	1.859	1.611	613.281
-0.880	-0.614	-0.498	0.777	-0.338	0.242	-1.414	-1.466	-1.977	-1.078	2.650	2.226	-0.790	-0.412	-2.703	-2.450	-2.377	-0.295	0.378	-0.351	0.957	2.309	3.703	1.748	1.553	0.532	1.537	1.127	617.188
-0.484	-0.281	-0.033	0.981	-0.232	0.408	-1.412	-1.503	-2.188	-1.182	2.498	2.168	-0.702	-0.374	-2.408	-2.275	-2.254	-0.193	0.321	-0.342	0.907	2.174	3.637	1.528	1.145	-0.067	1.262	0.762	621.094
-0.165	-0.040	0.346	1.121	-0.141	0.540	-1.366	-1.536	-2.388	-1.228	2.419	2.237	-0.540	-0.273	-2.108	-2.125	-2.146	-0.129	0.269	-0.328	0.893	2.030	3.547	1.358	0.712	-0.621	1.041	0.520	625.000
0.066	0.101	0.622	1.194	-0.068	0.626	-1.291	-1.581	-2.595	-1.229	2.392	2.401	-0.313	-0.103	-1.807	-1.997	-2.038	-0.082	0.248	-0.294	0.930	1.909	3.460	1.253	0.273	-1.117	0.881	0.387	628.906
0.212	0.147	0.792	1.207	-0.014	0.665	-1.197	-1.651	-2.818	-1.202	2.398	2.619	-0.034	0.129	-1.511	-1.882	-1.918	-0.033	0.271	-0.230	1.026	1.831	3.396	1.216	-0.155	-1.547	0.777	0.338	632.812
0.287	0.116	0.867	1.173	0.030	0.664	-1.098	-1.747	-3.056	-1.164	2.414	2.841	0.271	0.406	-1.224	-1.773	-1.776	0.033	0.343	-0.131	1.175	1.808	3.367	1.239	-0.555	-1.912	0.722	0.339	636.719
0.316	0.036	0.869	1.110	0.072	0.641	-1.002	-1.863	-3.299	-1.135	2.418	3.012	0.571	0.701	-0.950	-1.660	-1.604	0.127	0.461	0.002	1.366	1.838	3.381	1.302	-0.916	-2.218	0.699	0.346	640.625
0.326	-0.060	0.827	1.039	0.123	0.613	-0.920	-1.987	-3.534	-1.133	2.387	3.085	0.834	0.982	-0.691	-1.534	-1.397	0.257	0.619	0.169	1.579	1.917	3.440	1.380	-1.228	-2.476	0.685	0.317	644.531
0.344	-0.140	0.770	0.981	0.189	0.601	-0.859	-2.104	-3.747	-1.176	2.298	3.017	1.029	1.220	-0.446	-1.383	-1.153	0.427	0.810	0.366	1.798	2.036	3.543	1.446	-1.484	-2.702	0.654	0.215	648.438
0.389	-0.179	0.724	0.952	0.270	0.617	-0.828	-2.200	-3.925	-1.278	2.133	2.781	1.130	1.394	-0.211	-1.200	-0.868	0.637	1.034	0.592	2.009	2.191	3.689	1.478	-1.682	-2.908	0.582	0.014	652.344
0.468	-0.157	0.702	0.962	0.359	0.665	-0.832	-2.266	-4.063	-1.449	1.878	2.369	1.128	1.495	0.018	-0.976	-0.544	0.882	1.293	0.848	2.206	2.379	3.874	1.463	-1.818	-3.103	0.451	-0.298	656.250
0.580	-0.071	0.709	1.015	0.444	0.737	-0.876	-2.298	-4.159	-1.690	1.529	1.794	1.023	1.527	0.243	-0.710	-0.185	1.152	1.589	1.137	2.393	2.601	4.093	1.401	-1.893	-3.295	0.250	-0.716	660.156
0.713	0.075	0.737	1.106	0.512	0.819	-0.959	-2.301	-4.218	-1.992	1.095	1.089	0.833	1.508	0.463	-0.406	0.198	1.434	1.923	1.457	2.577	2.857	4.337	1.303	-1.911	-3.485	-0.015	-1.217	664.062
0.850	0.262	0.772	1.224	0.549	0.890	-1.076	-2.283	-4.249	-2.332	0.599	0.310	0.590	1.466	0.673	-0.076	0.587	1.712	2.288	1.805	2.768	3.141	4.594	1.189	-1.877	-3.669	-0.324	-1.766	667.969
0.972	0.463	0.795	1.352	0.547	0.932	-1.213	-2.255	-4.260	-2.676	0.077	-0.475	0.334	1.430	0.860	0.256	0.954	1.969	2.667	2.167	2.972	3.444	4.849	1.086	-1.802	-3.840	-0.646	-2.314	671.875
1.060	0.647	0.790	1.469	0.506	0.931	-1.350	-2.230	-4.259	-2.984	-0.423	-1.193	0.110	1.428	1.009	0.559	1.270	2.188	3.032	2.520	3.185	3.745	5.085	1.022	-1.697	-3.988	-0.939	-2.811	675.781
1.102	0.781	0.746	1.553	0.433	0.880	-1.462	-2.215	-4.250	-3.212	-0.846	-1.771	-0.038	1.479	1.100	0.796	1.504	2.354	3.350	2.830	3.395	4.023	5.285	1.019	-1.575	-4.098	-1.160	-3.208	679.688
1.090	0.841	0.662	1.588	0.342	0.785	-1.523	-2.211	-4.232	-3.321	-1.141	-2.154	-0.079	1.590	1.115	0.933	1.630	2.454	3.585	3.060	3.583	4.253	5.435	1.092	-1.447	-4.158	-1.271	-3.465	683.594
1.023	0.813	0.542	1.562	0.250	0.658	-1.513	-2.216	-4.201	-3.288	-1.268	-2.305	0.007	1.756	1.045	0.943	1.630	2.479	3.704	3.177	3.724	4.413	5.524	1.244	-1.324	-4.159	-1.247	-3.560	687.500
0.909	0.698	0.399	1.473	0.174	0.522	-1.417	-2.221	-4.149	-3.104	-1.206	-2.220	0.217	1.959	0.889	0.813	1.499	2.425	3.688	3.153	3.796	4.486	5.545	1.465	-1.212	-4.095	-1.083	-3.489	691.406
0.761	0.513	0.252	1.329	0.129	0.400	-1.237	-2.214	-4.070	-2.784	-0.959	-1.920	0.533	2.172	0.657	0.552	1.246	2.291	3.529	2.979	3.783	4.464	5.498	1.734	-1.118	-3.972	-0.796	-3.270	695.312
0.599	0.284	0.117	1.146	0.121	0.315	-0.986	-2.182	-3.957	-2.362	-0.560	-1.457	0.917	2.365	0.375	0.184	0.897	2.086	3.240	2.666	3.680	4.351	5.387	2.021	-1.045	-3.800	-0.421	-2.943	699.219
0.449	0.047	0.010	0.946	0.152	0.286	-0.688	-2.118	-3.813	-1.890	-0.066	-0.899	1.323	2.506	0.079	-0.248	0.489	1.824	2.849	2.244	3.494	4.156	5.222	2.292	-0.997	-3.600	-0.008	-2.559	703.125
0.337	-0.164	-0.055	0.753	0.213	0.320	-0.380	-2.021	-3.646	-1.426	0.452	-0.325	1.701	2.574	-0.189	-0.690	0.068	1.527	2.400	1.761	3.245	3.901	5.019	2.514	-0.975	-3.395	0.385	-2.176	707.031
0.289	-0.318	-0.073	0.589	0.291	0.415	-0.099	-1.897	-3.472	-1.030	0.917	0.188	2.003	2.556	-0.388	-1.084	-0.314	1.225	1.943	1.275	2.961	3.610	4.795	2.661	-0.982	-3.212	0.703	-1.849	710.938
0.322	-0.394	-0.044	0.471	0.368	0.556	0.117	-1.758	-3.314	-0.752	1.261	0.575	2.194	2.453	-0.484	-1.378	-0.610	0.947	1.532	0.845	2.674	3.314	4.573	2.716	-1.017	-3.078	0.902	-1.623	714.844
0.450	-0.381	0.028	0.409	0.430	0.721	0.240	-1.626	-3.198	-0.625	1.435	0.792	2.253	2.279	-0.454	-1.531	-0.779	0.724	1.216	0.525	2.421	3.041	4.371	2.675	-1.084	-3.014	0.950	-1.528	718.750
0.674	-0.279	0.133	0.408	0.466	0.885	0.253	-1.522	-3.146	-0.665	1.417	0.816	2.179	2.061	-0.293	-1.518	-0.795	0.582	1.031	0.358	2.231	2.817	4.207	2.543	-1.183	-3.036	0.839	-1.577	722.656
0.986	-0.095	0.267	0.464	0.472	1.025	0.152	-1.468	-3.176	-0.865	1.208	0.650	1.986	1.829	-0.014	-1.335	-0.652	0.536	0.998	0.362	2.130	2.662	4.095	2.338	-1.316	-3.155	0.574	-1.764	726.562
1.370	0.154	0.421	0.572	0.452	1.122	-0.053	-1.479	-3.298	-1.199	0.837	0.315	1.703	1.616	0.358	-0.998	-0.362	0.593	1.116	0.537	2.131	2.589	4.039	2.082	-1.480	-3.368	0.181	-2.072	730.469
1.803	0.448	0.595	0.717	0.416	1.168	-0.339	-1.564	-3.507	-1.632	0.350	-0.151	1.367	1.449	0.787	-0.543	0.039	0.744	1.363	0.856	2.233	2.600	4.040	1.801	-1.667	-3.662	-0.302	-2.470	734.375
2.255	0.763	0.784	0.885	0.375	1.166	-0.676	-1.718	-3.788	-2.121	-0.200	-0.702	1.018	1.343	1.234	-0.023	0.504	0.973	1.700	1.273	2.420	2.689	4.091	1.522	-1.865	-4.016	-0.830	-2.922	738.281
2.697	1.073	0.986	1.055	0.337	1.124	-1.031	-1.926	-4.114	-2.623	-0.758	-1.287	0.690	1.301	1.660	0.503	0.975	1.255	2.078	1.730	2.663	2.840	4.183	1.266	-2.055	-4.397	-1.357	-3.391	742.188
3.100	1.354	1.194	1.207	0.308	1.057	-1.371	-2.162	-4.451	-3.101	-1.276	-1.859	0.413	1.313	2.032	0.977	1.397	1.560	2.442	2.164	2.925	3.027	4.300	1.053	-2.216	-4.769	-1.840	-3.843	746.094
3.437	1.583	1.395	1.323	0.287	0.982	-1.665	-2.395	-4.761	-3.524	-1.717	-2.378	0.200	1.361	2.329	1.351	1.723	1.858	2.745	2.521	3.169	3.226	4.428	0.892	-2.326	-5.095	-2.245	-4.246	750.000
3.689	1.742	1.574	1.386	0.270	0.912	-1.893	-2.593	-5.009	-3.871	-2.056	-2.812	0.056	1.424	2.535	1.591	1.922	2.123	2.950	2.762	3.359	3.407	4.550	0.789	-2.367	-5.344	-2.549	-4.578	753.906
3.842	1.817	1.712	1.389	0.250	0.854	-2.040	-2.727	-5.167	-4.130	-2.282	-3.137	-0.022	1.480	2.645	1.683	1.984	2.330	3.037	2.867	3.472	3.549	4.652	0.744	-2.328	-5.489	-2.743	-4.823	757.812
3.890	1.805	1.792	1.328	0.223	0.812	-2.103	-2.779	-5.220	-4.292	-2.393	-3.344	-0.046	1.515	2.660	1.633	1.912	2.464	3.004	2.837	3.500	3.635	4.725	0.752	-2.204	-5.517	-2.827	-4.970	761.719
3.830	1.709	1.799	1.211	0.189	0.784	-2.086	-2.744	-5.164	-4.356	-2.398	-3.430	-0.027	1.522	2.588	1.462	1.728	2.514	2.867	2.693	3.445	3.659	4.765	0.807	-1.999	-5.422	-2.810	-5.014	765.625
3.668	1.538	1.721	1.050	0.149	0.766	-2.004	-2.630	-5.012	-4.324	-2.312	-3.400	0.024	1.502	2.439	1.203	1.459	2.476	2.652	2.467	3.323	3.626	4.772	0.902	-1.721	-5.205	-2.706	-4.956	769.531
3.411	1.306	1.547	0.859	0.108	0.747	-1.874	-2.457	-4.787	-4.200	-2.155	-3.269	0.099	1.463	2.229	0.891	1.138	2.356	2.396	2.196	3.160	3.549	4.754	1.032	-1.383	-4.874	-2.529	-4.797	773.438
3.067	1.027	1.271	0.653	0.068	0.719	-1.719	-2.254	-4.518	-3.992	-1.947	-3.051	0.195	1.416	1.974	0.561	0.794	2.162	2.134	1.917	2.979	3.447	4.721	1.194	-0.999	-4.438	-2.290	-4.544	777.344
2.649	0.717	0.891	0.445	0.033	0.671	-1.560	-2.049	-4.236	-3.712	-1.710	-2.767	0.308	1.371	1.691	0.243	0.452	1.910	1.896	1.657	2.805	3.340	4.685	1.384	-0.581	-3.910	-2.000	-4.204	781.250
2.168	0.386	0.414	0.243	0.004	0.598	-1.412	-1.864	-3.965	-3.372	-1.462	-2.434	0.439	1.337	1.394	-0.048	0.125	1.617	1.699	1.434	2.653	3.245	4.657	1.600	-0.138	-3.303	-1.667	-3.789	785.156
1.638	0.043	-0.146	0.050	-0.021	0.498	-1.283	-1.714	-3.720	-2.989	-1.215	-2.071	0.585	1.319	1.094	-0.305	-0.180	1.297	1.552	1.253	2.531	3.171	4.643	1.839	0.322	-2.634	-1.300	-3.315	789.062
1.076	-0.306	-0.764	-0.135	-0.042	0.374	-1.177	-1.599	-3.504	-2.578	-0.975	-1.693	0.743	1.316	0.796	-0.531	-0.466	0.966	1.445	1.108	2.436	3.120	4.644	2.094	0.793	-1.923	-0.909	-2.802	792.969
0.501	-0.654	-1.409	-0.313	-0.061	0.237	-1.085	-1.509	-3.311	-2.158	-0.745	-1.315	0.908	1.325	0.503	-0.739	-0.739	0.635	1.365	0.986	2.360	3.087	4.656	2.358	1.268	-1.194	-0.508	-2.274	796.875
