FP1	F3	F7	FC3	C3	C5	P3	P7	PO7	PO3	O1	Oz	Pz	CPz	FP2	Fz	F4	F8	FC4	FCz	Cz	C4	C6	P4	P8	PO8	PO4	O2	time
-0.501	-0.389	-0.661	-0.507	0.110	-0.111	0.282	0.394	-0.070	0.199	-0.291	-0.127	1.325	1.774	-1.378	-0.226	-0.562	-0.201	0.119	1.139	1.839	0.817	0.486	1.891	-0.050	-0.057	0.887	-0.187	-199.219
-0.609	-0.384	-0.586	-0.418	0.220	-0.102	0.445	0.534	0.162	0.365	-0.035	-0.063	1.283	1.664	-1.345	-0.250	-0.667	-0.287	0.028	1.083	1.702	0.657	0.250	1.765	-0.095	-0.039	0.829	-0.125	-195.312
-0.701	-0.370	-0.523	-0.324	0.328	-0.084	0.603	0.672	0.396	0.533	0.211	0.011	1.233	1.547	-1.309	-0.264	-0.759	-0.373	-0.059	1.024	1.559	0.497	0.018	1.626	-0.156	-0.036	0.761	-0.065	-191.406
-0.759	-0.338	-0.474	-0.221	0.433	-0.051	0.745	0.795	0.624	0.696	0.435	0.097	1.165	1.417	-1.264	-0.258	-0.827	-0.454	-0.139	0.958	1.404	0.341	-0.202	1.460	-0.245	-0.060	0.672	-0.016	-187.500
-0.770	-0.284	-0.438	-0.107	0.529	-0.004	0.861	0.890	0.833	0.846	0.628	0.195	1.074	1.275	-1.206	-0.229	-0.860	-0.526	-0.205	0.884	1.239	0.194	-0.401	1.264	-0.366	-0.116	0.557	0.020	-183.594
-0.731	-0.208	-0.414	0.013	0.610	0.052	0.939	0.940	1.007	0.969	0.781	0.298	0.958	1.128	-1.130	-0.178	-0.857	-0.580	-0.254	0.801	1.067	0.064	-0.564	1.042	-0.512	-0.202	0.413	0.040	-179.688
-0.642	-0.114	-0.397	0.135	0.670	0.106	0.969	0.930	1.127	1.051	0.889	0.396	0.817	0.983	-1.036	-0.110	-0.819	-0.608	-0.280	0.711	0.896	-0.041	-0.680	0.804	-0.671	-0.311	0.246	0.041	-175.781
-0.511	-0.007	-0.377	0.253	0.704	0.150	0.945	0.848	1.177	1.079	0.948	0.472	0.656	0.850	-0.923	-0.032	-0.748	-0.598	-0.280	0.618	0.738	-0.111	-0.736	0.563	-0.826	-0.434	0.061	0.018	-171.875
-0.346	0.106	-0.342	0.359	0.709	0.174	0.865	0.694	1.144	1.039	0.956	0.507	0.479	0.737	-0.790	0.049	-0.652	-0.544	-0.250	0.531	0.603	-0.137	-0.726	0.332	-0.960	-0.564	-0.135	-0.036	-167.969
-0.156	0.219	-0.278	0.450	0.687	0.178	0.733	0.475	1.027	0.925	0.912	0.481	0.292	0.647	-0.640	0.130	-0.537	-0.439	-0.189	0.457	0.500	-0.117	-0.649	0.121	-1.061	-0.694	-0.336	-0.126	-164.062
0.051	0.329	-0.175	0.522	0.642	0.164	0.562	0.211	0.835	0.739	0.817	0.379	0.097	0.575	-0.471	0.209	-0.409	-0.286	-0.099	0.405	0.431	-0.050	-0.512	-0.065	-1.124	-0.822	-0.537	-0.256	-160.156
0.263	0.432	-0.024	0.575	0.583	0.142	0.367	-0.070	0.585	0.490	0.674	0.199	-0.100	0.516	-0.287	0.288	-0.276	-0.091	0.015	0.382	0.397	0.057	-0.330	-0.224	-1.149	-0.945	-0.734	-0.426	-156.250
0.472	0.525	0.172	0.609	0.520	0.125	0.168	-0.337	0.303	0.197	0.486	-0.053	-0.297	0.459	-0.092	0.366	-0.143	0.132	0.144	0.391	0.390	0.192	-0.123	-0.355	-1.140	-1.060	-0.922	-0.626	-152.344
0.668	0.608	0.405	0.628	0.462	0.124	-0.016	-0.563	0.016	-0.114	0.264	-0.356	-0.486	0.396	0.106	0.442	-0.019	0.365	0.274	0.430	0.402	0.338	0.089	-0.464	-1.103	-1.162	-1.099	-0.841	-148.438
0.840	0.679	0.656	0.635	0.417	0.151	-0.166	-0.724	-0.249	-0.415	0.019	-0.678	-0.662	0.319	0.296	0.516	0.091	0.588	0.394	0.490	0.419	0.476	0.283	-0.552	-1.043	-1.244	-1.258	-1.051	-144.531
0.979	0.741	0.903	0.634	0.387	0.210	-0.271	-0.808	-0.473	-0.678	-0.235	-0.984	-0.819	0.222	0.465	0.582	0.180	0.783	0.493	0.559	0.428	0.591	0.443	-0.622	-0.962	-1.296	-1.390	-1.231	-140.625
1.079	0.792	1.123	0.629	0.374	0.299	-0.328	-0.814	-0.643	-0.881	-0.483	-1.238	-0.949	0.104	0.598	0.634	0.246	0.936	0.562	0.619	0.417	0.668	0.557	-0.675	-0.862	-1.308	-1.487	-1.361	-136.719
1.135	0.836	1.294	0.625	0.371	0.412	-0.339	-0.752	-0.757	-1.013	-0.710	-1.410	-1.048	-0.032	0.688	0.667	0.287	1.038	0.596	0.655	0.375	0.700	0.622	-0.711	-0.742	-1.271	-1.539	-1.423	-132.812
1.144	0.870	1.405	0.623	0.372	0.536	-0.316	-0.638	-0.820	-1.069	-0.903	-1.482	-1.111	-0.183	0.728	0.676	0.306	1.088	0.598	0.654	0.297	0.686	0.642	-0.731	-0.602	-1.177	-1.539	-1.409	-128.906
1.108	0.895	1.451	0.624	0.371	0.659	-0.271	-0.494	-0.840	-1.055	-1.053	-1.448	-1.138	-0.342	0.720	0.658	0.306	1.085	0.570	0.605	0.182	0.631	0.624	-0.733	-0.446	-1.028	-1.483	-1.316	-125.000
1.027	0.905	1.437	0.626	0.363	0.766	-0.218	-0.339	-0.827	-0.984	-1.153	-1.313	-1.131	-0.501	0.671	0.614	0.294	1.037	0.520	0.508	0.034	0.541	0.580	-0.718	-0.280	-0.828	-1.371	-1.154	-121.094
0.908	0.899	1.372	0.626	0.345	0.846	-0.171	-0.195	-0.791	-0.873	-1.200	-1.093	-1.092	-0.650	0.590	0.546	0.276	0.949	0.457	0.370	-0.139	0.431	0.522	-0.685	-0.113	-0.590	-1.212	-0.935	-117.188
0.757	0.871	1.271	0.617	0.317	0.893	-0.138	-0.076	-0.741	-0.739	-1.196	-0.812	-1.026	-0.778	0.495	0.463	0.261	0.830	0.390	0.205	-0.321	0.311	0.460	-0.636	0.045	-0.331	-1.017	-0.678	-113.281
0.588	0.818	1.147	0.595	0.278	0.899	-0.125	0.007	-0.684	-0.602	-1.149	-0.501	-0.941	-0.877	0.399	0.374	0.257	0.691	0.328	0.033	-0.495	0.195	0.404	-0.575	0.182	-0.071	-0.801	-0.405	-109.375
0.412	0.742	1.010	0.554	0.229	0.860	-0.137	0.045	-0.627	-0.477	-1.074	-0.190	-0.843	-0.940	0.319	0.293	0.272	0.543	0.280	-0.124	-0.645	0.090	0.357	-0.504	0.291	0.171	-0.581	-0.136	-105.469
0.246	0.645	0.867	0.493	0.170	0.776	-0.173	0.034	-0.577	-0.376	-0.988	0.090	-0.738	-0.961	0.268	0.231	0.310	0.397	0.251	-0.248	-0.754	0.003	0.321	-0.426	0.366	0.378	-0.372	0.110	-101.562
0.105	0.534	0.720	0.412	0.099	0.648	-0.232	-0.024	-0.541	-0.307	-0.905	0.316	-0.630	-0.941	0.254	0.195	0.370	0.266	0.243	-0.323	-0.809	-0.067	0.293	-0.344	0.409	0.541	-0.182	0.319	-97.656
-0.004	0.414	0.567	0.317	0.018	0.480	-0.309	-0.125	-0.523	-0.272	-0.839	0.472	-0.523	-0.883	0.277	0.188	0.448	0.159	0.251	-0.345	-0.804	-0.122	0.266	-0.260	0.425	0.656	-0.014	0.486	-93.750
-0.075	0.294	0.404	0.213	-0.073	0.279	-0.398	-0.260	-0.524	-0.269	-0.792	0.557	-0.414	-0.791	0.333	0.208	0.534	0.082	0.269	-0.316	-0.740	-0.166	0.235	-0.172	0.421	0.727	0.134	0.611	-89.844
-0.114	0.179	0.226	0.108	-0.171	0.057	-0.489	-0.414	-0.542	-0.287	-0.755	0.576	-0.302	-0.672	0.408	0.244	0.614	0.032	0.286	-0.244	-0.622	-0.203	0.192	-0.081	0.408	0.764	0.269	0.698	-85.938
-0.135	0.070	0.029	0.008	-0.271	-0.173	-0.572	-0.569	-0.566	-0.316	-0.713	0.548	-0.182	-0.531	0.485	0.285	0.672	0.003	0.290	-0.145	-0.460	-0.236	0.134	0.014	0.395	0.778	0.398	0.757	-82.031
-0.153	-0.032	-0.186	-0.085	-0.369	-0.397	-0.633	-0.705	-0.585	-0.339	-0.643	0.494	-0.049	-0.373	0.544	0.317	0.697	-0.019	0.272	-0.035	-0.270	-0.263	0.058	0.112	0.389	0.781	0.527	0.801	-78.125
-0.184	-0.132	-0.417	-0.169	-0.458	-0.602	-0.661	-0.801	-0.580	-0.340	-0.525	0.439	0.099	-0.205	0.567	0.328	0.680	-0.048	0.225	0.070	-0.070	-0.282	-0.032	0.210	0.393	0.783	0.657	0.838	-74.219
-0.239	-0.234	-0.652	-0.247	-0.535	-0.776	-0.645	-0.839	-0.538	-0.307	-0.343	0.401	0.260	-0.034	0.541	0.310	0.619	-0.098	0.149	0.153	0.121	-0.292	-0.132	0.302	0.406	0.791	0.784	0.877	-70.312
-0.318	-0.342	-0.879	-0.324	-0.596	-0.912	-0.582	-0.807	-0.444	-0.231	-0.095	0.395	0.428	0.129	0.464	0.258	0.518	-0.177	0.049	0.200	0.281	-0.293	-0.236	0.379	0.427	0.807	0.900	0.918	-66.406
-0.412	-0.456	-1.079	-0.403	-0.641	-1.003	-0.476	-0.701	-0.296	-0.111	0.208	0.424	0.594	0.272	0.343	0.174	0.389	-0.282	-0.067	0.199	0.387	-0.288	-0.336	0.432	0.449	0.828	0.996	0.962	-62.500
-0.508	-0.574	-1.236	-0.485	-0.670	-1.048	-0.335	-0.527	-0.099	0.044	0.541	0.482	0.743	0.379	0.191	0.062	0.244	-0.405	-0.188	0.142	0.424	-0.282	-0.424	0.451	0.468	0.850	1.060	1.001	-58.594
-0.587	-0.689	-1.339	-0.569	-0.687	-1.046	-0.174	-0.301	0.133	0.221	0.869	0.559	0.860	0.440	0.029	-0.071	0.099	-0.528	-0.304	0.028	0.382	-0.283	-0.493	0.433	0.481	0.865	1.088	1.025	-54.688
-0.634	-0.791	-1.378	-0.649	-0.692	-1.000	-0.011	-0.046	0.375	0.400	1.154	0.635	0.933	0.444	-0.123	-0.216	-0.032	-0.633	-0.406	-0.139	0.261	-0.298	-0.540	0.376	0.487	0.865	1.076	1.024	-50.781
-0.644	-0.870	-1.351	-0.718	-0.688	-0.913	0.137	0.211	0.602	0.560	1.360	0.693	0.951	0.389	-0.244	-0.363	-0.138	-0.703	-0.489	-0.349	0.072	-0.331	-0.559	0.284	0.489	0.844	1.026	0.988	-46.875
-0.613	-0.916	-1.260	-0.767	-0.674	-0.793	0.254	0.442	0.785	0.681	1.463	0.714	0.911	0.276	-0.320	-0.502	-0.212	-0.726	-0.552	-0.583	-0.166	-0.380	-0.550	0.165	0.491	0.794	0.943	0.908	-42.969
-0.549	-0.923	-1.110	-0.790	-0.650	-0.645	0.330	0.625	0.902	0.747	1.448	0.688	0.811	0.114	-0.341	-0.623	-0.248	-0.700	-0.593	-0.820	-0.428	-0.442	-0.510	0.026	0.496	0.713	0.833	0.784	-39.062
-0.459	-0.890	-0.914	-0.784	-0.616	-0.480	0.356	0.741	0.938	0.747	1.318	0.608	0.659	-0.088	-0.306	-0.718	-0.248	-0.629	-0.612	-1.040	-0.688	-0.504	-0.440	-0.124	0.507	0.604	0.704	0.620	-35.156
-0.355	-0.824	-0.685	-0.749	-0.572	-0.308	0.332	0.785	0.889	0.677	1.088	0.481	0.462	-0.313	-0.217	-0.781	-0.215	-0.525	-0.609	-1.223	-0.925	-0.557	-0.345	-0.277	0.526	0.473	0.563	0.427	-31.250
-0.243	-0.731	-0.444	-0.688	-0.520	-0.142	0.260	0.757	0.757	0.542	0.786	0.319	0.235	-0.548	-0.085	-0.810	-0.157	-0.401	-0.585	-1.353	-1.120	-0.589	-0.228	-0.425	0.555	0.333	0.421	0.225	-27.344
-0.131	-0.626	-0.212	-0.610	-0.467	0.007	0.145	0.669	0.557	0.353	0.441	0.143	-0.008	-0.778	0.075	-0.807	-0.082	-0.272	-0.538	-1.425	-1.265	-0.592	-0.098	-0.560	0.593	0.200	0.288	0.035	-23.438
-0.022	-0.523	-0.009	-0.525	-0.417	0.127	-0.003	0.534	0.307	0.125	0.084	-0.026	-0.251	-0.990	0.246	-0.779	-0.003	-0.147	-0.472	-1.439	-1.358	-0.561	0.038	-0.672	0.643	0.093	0.174	-0.121	-19.531
0.080	-0.434	0.146	-0.444	-0.378	0.208	-0.178	0.368	0.027	-0.126	-0.261	-0.169	-0.476	-1.175	0.413	-0.733	0.072	-0.032	-0.388	-1.406	-1.405	-0.499	0.172	-0.752	0.707	0.030	0.093	-0.224	-15.625
0.176	-0.370	0.241	-0.380	-0.356	0.247	-0.367	0.186	-0.261	-0.382	-0.576	-0.271	-0.670	-1.326	0.561	-0.682	0.135	0.072	-0.292	-1.341	-1.416	-0.412	0.297	-0.789	0.785	0.027	0.056	-0.261	-11.719
0.263	-0.338	0.275	-0.340	-0.355	0.241	-0.562	-0.001	-0.542	-0.629	-0.852	-0.329	-0.821	-1.438	0.680	-0.636	0.185	0.167	-0.187	-1.262	-1.403	-0.309	0.408	-0.776	0.877	0.088	0.071	-0.231	-7.812
0.342	-0.336	0.257	-0.331	-0.377	0.195	-0.754	-0.184	-0.799	-0.857	-1.085	-0.346	-0.922	-1.510	0.767	-0.602	0.224	0.256	-0.080	-1.186	-1.378	-0.202	0.503	-0.713	0.977	0.212	0.142	-0.139	-3.906
0.412	-0.360	0.206	-0.350	-0.418	0.117	-0.931	-0.357	-1.021	-1.058	-1.274	-0.329	-0.968	-1.543	0.824	-0.587	0.257	0.340	0.024	-1.126	-1.352	-0.102	0.580	-0.603	1.077	0.384	0.266	-0.000	0.000
0.471	-0.398	0.144	-0.392	-0.473	0.022	-1.085	-0.511	-1.198	-1.225	-1.422	-0.291	-0.964	-1.541	0.853	-0.590	0.291	0.414	0.121	-1.091	-1.331	-0.017	0.636	-0.460	1.162	0.583	0.431	0.167	3.906
0.520	-0.438	0.090	-0.447	-0.533	-0.077	-1.205	-0.636	-1.317	-1.353	-1.527	-0.241	-0.915	-1.512	0.862	-0.609	0.327	0.472	0.207	-1.084	-1.318	0.044	0.670	-0.302	1.219	0.780	0.621	0.344	7.812
0.558	-0.470	0.057	-0.504	-0.589	-0.162	-1.282	-0.722	-1.370	-1.436	-1.582	-0.182	-0.831	-1.467	0.858	-0.637	0.367	0.503	0.279	-1.104	-1.317	0.077	0.679	-0.152	1.234	0.948	0.813	0.511	11.719
0.581	-0.486	0.048	-0.552	-0.633	-0.221	-1.307	-0.756	-1.347	-1.469	-1.579	-0.112	-0.726	-1.418	0.845	-0.668	0.404	0.496	0.331	-1.147	-1.327	0.081	0.664	-0.031	1.199	1.058	0.986	0.654	15.625
0.588	-0.482	0.054	-0.581	-0.659	-0.247	-1.278	-0.731	-1.244	-1.445	-1.506	-0.027	-0.611	-1.378	0.829	-0.692	0.433	0.447	0.362	-1.203	-1.348	0.054	0.624	0.044	1.112	1.093	1.122	0.766	19.531
0.573	-0.461	0.059	-0.589	-0.665	-0.238	-1.195	-0.644	-1.062	-1.363	-1.357	0.081	-0.499	-1.357	0.812	-0.703	0.445	0.354	0.369	-1.266	-1.379	0.002	0.563	0.064	0.977	1.040	1.207	0.843	23.438
0.536	-0.426	0.047	-0.573	-0.651	-0.199	-1.064	-0.502	-0.812	-1.223	-1.129	0.216	-0.399	-1.359	0.794	-0.694	0.440	0.227	0.355	-1.326	-1.417	-0.073	0.488	0.027	0.803	0.901	1.236	0.883	27.344
0.476	-0.384	0.007	-0.538	-0.625	-0.144	-0.898	-0.321	-0.513	-1.033	-0.835	0.375	-0.316	-1.384	0.778	-0.661	0.416	0.080	0.323	-1.374	-1.458	-0.163	0.405	-0.055	0.607	0.687	1.213	0.888	31.250
0.395	-0.341	-0.066	-0.493	-0.597	-0.090	-0.715	-0.124	-0.192	-0.804	-0.497	0.545	-0.253	-1.423	0.765	-0.603	0.379	-0.067	0.281	-1.405	-1.495	-0.261	0.323	-0.164	0.407	0.421	1.147	0.862	35.156
0.300	-0.304	-0.170	-0.448	-0.577	-0.052	-0.534	0.064	0.120	-0.553	-0.149	0.706	-0.206	-1.465	0.756	-0.525	0.335	-0.194	0.237	-1.417	-1.521	-0.361	0.249	-0.276	0.227	0.139	1.060	0.809	39.062
0.196	-0.280	-0.293	-0.417	-0.579	-0.048	-0.371	0.218	0.394	-0.299	0.167	0.835	-0.167	-1.495	0.750	-0.437	0.291	-0.288	0.197	-1.411	-1.532	-0.457	0.187	-0.362	0.090	-0.118	0.974	0.738	42.969
0.088	-0.275	-0.424	-0.413	-0.611	-0.085	-0.241	0.322	0.606	-0.060	0.413	0.908	-0.129	-1.501	0.743	-0.355	0.245	-0.345	0.162	-1.396	-1.527	-0.546	0.139	-0.399	0.021	-0.299	0.916	0.666	46.875
-0.022	-0.296	-0.550	-0.445	-0.680	-0.168	-0.147	0.369	0.747	0.154	0.564	0.910	-0.079	-1.477	0.722	-0.299	0.191	-0.373	0.127	-1.387	-1.512	-0.630	0.098	-0.368	0.047	-0.354	0.913	0.616	50.781
-0.139	-0.353	-0.663	-0.521	-0.785	-0.291	-0.088	0.368	0.822	0.336	0.614	0.839	-0.012	-1.428	0.671	-0.294	0.112	-0.391	0.081	-1.403	-1.500	-0.714	0.058	-0.258	0.189	-0.233	0.990	0.623	54.688
-0.274	-0.455	-0.766	-0.646	-0.924	-0.443	-0.052	0.333	0.854	0.491	0.581	0.713	0.076	-1.363	0.565	-0.364	-0.015	-0.429	0.004	-1.471	-1.512	-0.806	0.006	-0.071	0.464	0.103	1.169	0.731	58.594
-0.448	-0.615	-0.868	-0.826	-1.092	-0.614	-0.028	0.290	0.876	0.630	0.508	0.567	0.179	-1.305	0.376	-0.536	-0.217	-0.515	-0.126	-1.616	-1.572	-0.918	-0.069	0.182	0.884	0.682	1.467	0.991	62.500
-0.681	-0.845	-0.987	-1.061	-1.287	-0.793	-0.004	0.264	0.928	0.769	0.455	0.449	0.288	-1.280	0.081	-0.828	-0.517	-0.677	-0.328	-1.863	-1.706	-1.060	-0.177	0.485	1.450	1.516	1.893	1.451	66.406
-0.995	-1.154	-1.144	-1.354	-1.508	-0.975	0.024	0.274	1.048	0.922	0.480	0.406	0.385	-1.317	-0.339	-1.254	-0.931	-0.931	-0.615	-2.232	-1.936	-1.238	-0.320	0.821	2.159	2.600	2.454	2.152	70.312
-1.403	-1.547	-1.360	-1.704	-1.758	-1.163	0.053	0.331	1.260	1.095	0.629	0.469	0.453	-1.438	-0.886	-1.812	-1.458	-1.276	-0.990	-2.727	-2.275	-1.452	-0.491	1.173	2.997	3.912	3.145	3.109	74.219
-1.904	-2.020	-1.648	-2.107	-2.043	-1.363	0.071	0.436	1.574	1.281	0.915	0.644	0.474	-1.655	-1.545	-2.485	-2.079	-1.696	-1.440	-3.340	-2.722	-1.694	-0.676	1.534	3.945	5.410	3.952	4.306	78.125
-2.482	-2.557	-2.009	-2.552	-2.368	-1.585	0.059	0.577	1.977	1.460	1.310	0.900	0.440	-1.968	-2.280	-3.240	-2.757	-2.159	-1.935	-4.042	-3.257	-1.946	-0.853	1.899	4.977	7.037	4.852	5.688	82.031
-3.102	-3.131	-2.429	-3.025	-2.731	-1.837	-0.002	0.739	2.439	1.601	1.750	1.175	0.348	-2.354	-3.038	-4.028	-3.441	-2.621	-2.435	-4.788	-3.844	-2.182	-0.997	2.270	6.055	8.718	5.807	7.158	85.938
-3.720	-3.708	-2.884	-3.504	-3.123	-2.124	-0.124	0.904	2.916	1.669	2.145	1.388	0.209	-2.780	-3.757	-4.791	-4.072	-3.035	-2.890	-5.519	-4.431	-2.371	-1.084	2.650	7.136	10.364	6.769	8.593	89.844
-4.286	-4.250	-3.340	-3.964	-3.528	-2.441	-0.311	1.056	3.363	1.636	2.398	1.457	0.039	-3.201	-4.371	-5.468	-4.591	-3.355	-3.251	-6.173	-4.964	-2.485	-1.094	3.039	8.170	11.880	7.682	9.856	93.750
-4.753	-4.723	-3.762	-4.382	-3.919	-2.774	-0.550	1.188	3.742	1.488	2.431	1.323	-0.139	-3.571	-4.830	-6.006	-4.952	-3.547	-3.480	-6.693	-5.388	-2.497	-1.014	3.429	9.102	13.171	8.485	10.823	97.656
-5.089	-5.099	-4.120	-4.734	-4.269	-3.103	-0.819	1.303	4.026	1.234	2.203	0.963	-0.300	-3.852	-5.098	-6.371	-5.131	-3.597	-3.553	-7.038	-5.665	-2.399	-0.844	3.805	9.883	14.156	9.123	11.398	101.562
-5.275	-5.363	-4.393	-5.004	-4.549	-3.402	-1.083	1.408	4.210	0.904	1.724	0.405	-0.427	-4.022	-5.169	-6.548	-5.128	-3.509	-3.473	-7.188	-5.778	-2.194	-0.594	4.145	10.474	14.776	9.555	11.538	105.469
-5.317	-5.513	-4.570	-5.182	-4.740	-3.648	-1.304	1.517	4.306	0.545	1.057	-0.278	-0.505	-4.076	-5.065	-6.550	-4.970	-3.309	-3.264	-7.153	-5.734	-1.905	-0.286	4.426	10.854	15.009	9.758	11.257	109.375
-5.238	-5.557	-4.655	-5.266	-4.834	-3.819	-1.451	1.644	4.339	0.216	0.306	-0.976	-0.530	-4.031	-4.830	-6.408	-4.707	-3.042	-2.971	-6.965	-5.562	-1.570	0.049	4.624	11.018	14.870	9.735	10.632	113.281
-5.076	-5.517	-4.661	-5.265	-4.833	-3.905	-1.500	1.796	4.342	-0.025	-0.398	-1.561	-0.508	-3.915	-4.525	-6.172	-4.400	-2.759	-2.653	-6.675	-5.309	-1.236	0.372	4.721	10.983	14.415	9.515	9.783	117.188
-4.878	-5.418	-4.605	-5.195	-4.757	-3.904	-1.445	1.976	4.352	-0.130	-0.924	-1.906	-0.452	-3.767	-4.218	-5.896	-4.114	-2.511	-2.369	-6.342	-5.032	-0.951	0.644	4.707	10.779	13.729	9.146	8.862	121.094
-4.696	-5.290	-4.514	-5.082	-4.634	-3.831	-1.293	2.175	4.399	-0.067	-1.153	-1.908	-0.376	-3.625	-3.970	-5.634	-3.909	-2.343	-2.171	-6.023	-4.783	-0.764	0.829	4.584	10.448	12.920	8.693	8.027	125.000
-4.573	-5.165	-4.413	-4.957	-4.497	-3.710	-1.063	2.381	4.509	0.179	-1.004	-1.496	-0.297	-3.521	-3.833	-5.432	-3.825	-2.287	-2.097	-5.766	-4.607	-0.708	0.895	4.365	10.038	12.104	8.227	7.422	128.906
-4.548	-5.077	-4.330	-4.854	-4.383	-3.575	-0.782	2.577	4.698	0.603	-0.433	-0.646	-0.227	-3.476	-3.842	-5.323	-3.889	-2.362	-2.170	-5.606	-4.533	-0.805	0.823	4.073	9.599	11.391	7.819	7.159	132.812
-4.645	-5.053	-4.292	-4.807	-4.326	-3.463	-0.477	2.749	4.979	1.187	0.556	0.628	-0.172	-3.498	-4.016	-5.331	-4.110	-2.578	-2.394	-5.564	-4.574	-1.065	0.602	3.738	9.180	10.878	7.533	7.310	136.719
-4.879	-5.120	-4.325	-4.846	-4.351	-3.412	-0.171	2.888	5.360	1.907	1.923	2.275	-0.128	-3.584	-4.361	-5.472	-4.487	-2.933	-2.766	-5.649	-4.733	-1.481	0.234	3.396	8.827	10.640	7.420	7.903	140.625
-5.253	-5.300	-4.449	-4.995	-4.473	-3.449	0.120	2.998	5.847	2.733	3.598	4.218	-0.087	-3.725	-4.871	-5.753	-5.012	-3.424	-3.278	-5.864	-5.000	-2.037	-0.268	3.084	8.584	10.727	7.515	8.925	144.531
-5.759	-5.605	-4.678	-5.266	-4.697	-3.591	0.390	3.093	6.446	3.638	5.491	6.364	-0.037	-3.907	-5.533	-6.177	-5.678	-4.043	-3.916	-6.209	-5.364	-2.710	-0.882	2.836	8.486	11.160	7.831	10.328	148.438
-6.381	-6.037	-5.015	-5.658	-5.014	-3.839	0.642	3.194	7.156	4.595	7.502	8.615	0.032	-4.115	-6.324	-6.739	-6.473	-4.780	-4.666	-6.682	-5.811	-3.467	-1.576	2.679	8.558	11.929	8.365	12.033	152.344
-7.092	-6.587	-5.449	-6.159	-5.405	-4.177	0.884	3.325	7.969	5.578	9.530	10.871	0.128	-4.339	-7.214	-7.427	-7.383	-5.616	-5.511	-7.273	-6.325	-4.274	-2.314	2.630	8.811	12.995	9.089	13.942	156.250
-7.860	-7.231	-5.959	-6.741	-5.843	-4.577	1.123	3.504	8.865	6.562	11.482	13.035	0.251	-4.569	-8.164	-8.220	-8.385	-6.526	-6.423	-7.968	-6.889	-5.088	-3.053	2.694	9.240	14.292	9.959	15.942	160.156
-8.647	-7.936	-6.514	-7.371	-6.300	-5.005	1.366	3.741	9.814	7.520	13.277	15.019	0.394	-4.797	-9.126	-9.086	-9.444	-7.471	-7.369	-8.740	-7.482	-5.868	-3.751	2.866	9.820	15.736	10.919	17.917	164.062
-9.414	-8.657	-7.080	-8.010	-6.744	-5.423	1.615	4.032	10.772	8.423	14.848	16.749	0.547	-5.015	-10.049	-9.980	-10.513	-8.408	-8.302	-9.554	-8.080	-6.573	-4.369	3.127	10.511	17.229	11.904	19.758	167.969
-10.126	-9.352	-7.624	-8.620	-7.150	-5.799	1.867	4.362	11.692	9.242	16.151	18.166	0.696	-5.216	-10.881	-10.854	-11.536	-9.286	-9.172	-10.367	-8.654	-7.164	-4.872	3.455	11.261	18.674	12.853	21.371	171.875
-10.755	-9.980	-8.115	-9.167	-7.500	-6.107	2.115	4.705	12.525	9.951	17.157	19.232	0.829	-5.393	-11.578	-11.658	-12.450	-10.057	-9.929	-11.131	-9.173	-7.616	-5.238	3.821	12.013	19.983	13.710	22.688	175.781
-11.279	-10.511	-8.534	-9.629	-7.785	-6.337	2.347	5.032	13.227	10.529	17.860	19.932	0.937	-5.535	-12.104	-12.346	-13.202	-10.680	-10.530	-11.803	-9.611	-7.909	-5.456	4.197	12.714	21.089	14.437	23.670	179.688
-11.690	-10.927	-8.868	-9.994	-8.005	-6.488	2.551	5.315	13.768	10.964	18.267	20.277	1.017	-5.635	-12.442	-12.889	-13.750	-11.127	-10.947	-12.354	-9.947	-8.042	-5.527	4.563	13.322	21.951	15.011	24.308	183.594
-11.985	-11.226	-9.113	-10.264	-8.168	-6.570	2.718	5.532	14.135	11.254	18.402	20.296	1.072	-5.690	-12.595	-13.271	-14.075	-11.386	-11.171	-12.767	-10.173	-8.025	-5.461	4.901	13.812	22.556	15.428	24.622	187.500
-12.171	-11.421	-9.271	-10.450	-8.286	-6.599	2.841	5.674	14.331	11.408	18.302	20.040	1.108	-5.697	-12.580	-13.500	-14.182	-11.462	-11.212	-13.045	-10.295	-7.880	-5.281	5.206	14.174	22.914	15.699	24.653	191.406
-12.256	-11.530	-9.349	-10.570	-8.370	-6.591	2.921	5.740	14.374	11.447	18.011	19.565	1.138	-5.660	-12.429	-13.599	-14.099	-11.373	-11.100	-13.210	-10.328	-7.638	-5.012	5.476	14.415	23.053	15.845	24.454	195.312
-12.251	-11.580	-9.358	-10.642	-8.431	-6.561	2.965	5.741	14.292	11.396	17.578	18.935	1.173	-5.587	-12.181	-13.605	-13.870	-11.149	-10.875	-13.292	-10.300	-7.333	-4.683	5.715	14.551	23.013	15.893	24.080	199.219
-12.167	-11.594	-9.309	-10.684	-8.473	-6.516	2.982	5.698	14.121	11.284	17.048	18.206	1.223	-5.489	-11.874	-13.563	-13.549	-10.825	-10.585	-13.330	-10.238	-7.002	-4.322	5.927	14.605	22.831	15.867	23.580	203.125
-12.017	-11.592	-9.214	-10.708	-8.495	-6.459	2.988	5.635	13.892	11.138	16.463	17.428	1.297	-5.374	-11.543	-13.513	-13.188	-10.438	-10.271	-13.356	-10.165	-6.671	-3.953	6.115	14.599	22.541	15.787	22.996	207.031
-11.815	-11.589	-9.084	-10.721	-8.490	-6.387	2.994	5.574	13.635	10.981	15.851	16.642	1.400	-5.248	-11.214	-13.490	-12.834	-10.021	-9.967	-13.392	-10.097	-6.361	-3.593	6.284	14.553	22.174	15.668	22.357	210.938
-11.581	-11.594	-8.934	-10.723	-8.452	-6.295	3.009	5.533	13.369	10.827	15.230	15.876	1.535	-5.111	-10.903	-13.512	-12.517	-9.601	-9.694	-13.448	-10.033	-6.079	-3.254	6.436	14.480	21.750	15.519	21.685	214.844
-11.334	-11.613	-8.778	-10.715	-8.374	-6.179	3.037	5.519	13.105	10.680	14.605	15.150	1.700	-4.957	-10.619	-13.583	-12.252	-9.202	-9.456	-13.516	-9.959	-5.822	-2.942	6.573	14.391	21.289	15.347	20.999	218.750
-11.094	-11.645	-8.631	-10.693	-8.251	-6.042	3.073	5.530	12.845	10.540	13.977	14.474	1.896	-4.776	-10.367	-13.690	-12.039	-8.834	-9.242	-13.573	-9.854	-5.576	-2.657	6.698	14.292	20.807	15.156	20.312	222.656
-10.877	-11.687	-8.508	-10.655	-8.084	-5.890	3.108	5.550	12.583	10.397	13.340	13.853	2.118	-4.554	-10.143	-13.807	-11.862	-8.505	-9.033	-13.588	-9.688	-5.322	-2.395	6.814	14.183	20.320	14.952	19.642	226.562
-10.691	-11.732	-8.424	-10.598	-7.879	-5.736	3.128	5.558	12.311	10.238	12.694	13.284	2.362	-4.278	-9.944	-13.901	-11.697	-8.214	-8.801	-13.527	-9.435	-5.042	-2.151	6.924	14.066	19.843	14.739	19.002	230.469
-10.538	-11.770	-8.388	-10.521	-7.643	-5.595	3.119	5.529	12.018	10.048	12.039	12.761	2.621	-3.940	-9.765	-13.936	-11.515	-7.956	-8.522	-13.357	-9.074	-4.721	-1.918	7.031	13.936	19.390	14.522	18.407	234.375
-10.415	-11.787	-8.406	-10.420	-7.385	-5.481	3.070	5.443	11.696	9.816	11.382	12.278	2.889	-3.537	-9.603	-13.880	-11.288	-7.723	-8.175	-13.055	-8.597	-4.352	-1.693	7.135	13.791	18.970	14.303	17.867	238.281
-10.317	-11.771	-8.477	-10.291	-7.113	-5.404	2.976	5.285	11.342	9.536	10.733	11.826	3.158	-3.074	-9.456	-13.712	-10.997	-7.510	-7.753	-12.610	-8.007	-3.938	-1.474	7.236	13.626	18.589	14.082	17.389	242.188
-10.240	-11.708	-8.593	-10.128	-6.832	-5.364	2.840	5.052	10.961	9.210	10.106	11.399	3.422	-2.560	-9.326	-13.424	-10.631	-7.310	-7.259	-12.027	-7.320	-3.493	-1.262	7.330	13.437	18.248	13.859	16.972	246.094
-10.183	-11.589	-8.742	-9.927	-6.543	-5.355	2.677	4.754	10.565	8.853	9.516	10.994	3.677	-2.012	-9.216	-13.022	-10.194	-7.123	-6.711	-11.323	-6.563	-3.037	-1.061	7.415	13.221	17.942	13.632	16.613	250.000
-10.150	-11.407	-8.908	-9.680	-6.244	-5.366	2.507	4.411	10.169	8.488	8.978	10.610	3.924	-1.446	-9.134	-12.524	-9.702	-6.950	-6.132	-10.528	-5.763	-2.591	-0.878	7.487	12.973	17.663	13.405	16.303	253.906
-10.144	-11.162	-9.075	-9.386	-5.928	-5.381	2.359	4.052	9.796	8.147	8.506	10.251	4.168	-0.878	-9.086	-11.956	-9.182	-6.800	-5.551	-9.676	-4.955	-2.177	-0.726	7.544	12.690	17.402	13.182	16.029	257.812
-10.173	-10.862	-9.232	-9.046	-5.589	-5.383	2.262	3.709	9.466	7.862	8.116	9.921	4.414	-0.320	-9.078	-11.350	-8.666	-6.683	-4.997	-8.805	-4.164	-1.814	-0.613	7.586	12.368	17.149	12.971	15.781	261.719
-10.239	-10.516	-9.371	-8.663	-5.222	-5.361	2.239	3.411	9.197	7.661	7.815	9.626	4.673	0.217	-9.116	-10.736	-8.182	-6.610	-4.492	-7.950	-3.415	-1.511	-0.552	7.614	12.009	16.895	12.782	15.548	265.625
-10.344	-10.140	-9.493	-8.249	-4.827	-5.305	2.307	3.182	9.002	7.564	7.610	9.373	4.950	0.729	-9.200	-10.145	-7.755	-6.591	-4.051	-7.143	-2.724	-1.267	-0.546	7.630	11.614	16.636	12.625	15.324	269.531
-10.489	-9.755	-9.602	-7.820	-4.409	-5.214	2.468	3.038	8.889	7.577	7.500	9.171	5.250	1.212	-9.327	-9.600	-7.401	-6.630	-3.677	-6.409	-2.100	-1.076	-0.593	7.641	11.196	16.373	12.507	15.109	273.438
-10.671	-9.385	-9.708	-7.394	-3.980	-5.093	2.715	2.984	8.857	7.693	7.475	9.024	5.572	1.665	-9.493	-9.122	-7.125	-6.729	-3.368	-5.767	-1.550	-0.925	-0.685	7.654	10.771	16.113	12.433	14.907	277.344
-10.888	-9.053	-9.825	-6.994	-3.556	-4.950	3.029	3.016	8.901	7.895	7.521	8.936	5.912	2.085	-9.694	-8.727	-6.924	-6.881	-3.114	-5.229	-1.074	-0.798	-0.805	7.679	10.365	15.869	12.406	14.728	281.250
-11.140	-8.784	-9.963	-6.640	-3.154	-4.796	3.385	3.124	9.013	8.158	7.620	8.909	6.264	2.474	-9.926	-8.427	-6.789	-7.074	-2.903	-4.803	-0.673	-0.681	-0.933	7.725	10.008	15.659	12.426	14.586	285.156
-11.425	-8.596	-10.133	-6.346	-2.790	-4.642	3.759	3.293	9.179	8.453	7.749	8.938	6.620	2.832	-10.186	-8.228	-6.706	-7.292	-2.724	-4.490	-0.344	-0.563	-1.048	7.800	9.728	15.501	12.491	14.492	289.062
-11.746	-8.501	-10.340	-6.121	-2.473	-4.498	4.127	3.506	9.385	8.755	7.888	9.016	6.974	3.159	-10.474	-8.131	-6.661	-7.517	-2.567	-4.286	-0.083	-0.437	-1.130	7.910	9.549	15.411	12.600	14.454	292.969
-12.103	-8.500	-10.583	-5.968	-2.206	-4.371	4.474	3.746	9.615	9.042	8.020	9.133	7.319	3.460	-10.789	-8.131	-6.640	-7.731	-2.422	-4.178	0.117	-0.299	-1.166	8.059	9.485	15.399	12.750	14.474	296.875
-12.496	-8.585	-10.857	-5.881	-1.985	-4.264	4.791	3.996	9.852	9.299	8.131	9.274	7.652	3.736	-11.130	-8.215	-6.631	-7.921	-2.284	-4.149	0.264	-0.145	-1.147	8.246	9.536	15.467	12.935	14.547	300.781
-12.920	-8.738	-11.151	-5.849	-1.802	-4.177	5.076	4.243	10.080	9.519	8.214	9.425	7.972	3.995	-11.495	-8.362	-6.625	-8.078	-2.145	-4.178	0.372	0.025	-1.073	8.470	9.692	15.610	13.148	14.659	304.688
-13.366	-8.937	-11.453	-5.859	-1.647	-4.109	5.331	4.474	10.286	9.698	8.267	9.569	8.278	4.239	-11.874	-8.551	-6.617	-8.199	-2.002	-4.238	0.454	0.211	-0.947	8.725	9.930	15.812	13.380	14.794	308.594
-13.820	-9.157	-11.750	-5.897	-1.512	-4.057	5.557	4.679	10.457	9.839	8.292	9.694	8.569	4.473	-12.258	-8.754	-6.605	-8.286	-1.851	-4.307	0.526	0.413	-0.778	9.002	10.223	16.052	13.618	14.931	312.500
-14.265	-9.377	-12.025	-5.952	-1.389	-4.018	5.756	4.848	10.587	9.945	8.292	9.791	8.845	4.697	-12.631	-8.949	-6.590	-8.345	-1.693	-4.364	0.599	0.627	-0.579	9.292	10.539	16.302	13.849	15.052	316.406
-14.684	-9.576	-12.267	-6.014	-1.276	-3.987	5.927	4.976	10.672	10.020	8.271	9.857	9.101	4.911	-12.977	-9.115	-6.575	-8.379	-1.531	-4.394	0.683	0.848	-0.361	9.581	10.849	16.536	14.057	15.141	320.312
-15.060	-9.742	-12.462	-6.074	-1.172	-3.963	6.067	5.058	10.714	10.068	8.232	9.895	9.334	5.111	-13.279	-9.238	-6.564	-8.392	-1.372	-4.389	0.780	1.070	-0.138	9.854	11.126	16.727	14.232	15.190	324.219
-15.379	-9.867	-12.602	-6.127	-1.079	-3.943	6.170	5.094	10.716	10.092	8.181	9.915	9.538	5.291	-13.524	-9.309	-6.560	-8.388	-1.223	-4.350	0.891	1.283	0.080	10.095	11.349	16.855	14.362	15.197	328.125
-15.633	-9.949	-12.681	-6.169	-1.000	-3.925	6.235	5.085	10.687	10.097	8.122	9.933	9.707	5.443	-13.704	-9.327	-6.567	-8.364	-1.094	-4.280	1.009	1.480	0.283	10.291	11.503	16.905	14.441	15.165	332.031
-15.818	-9.991	-12.704	-6.196	-0.937	-3.912	6.261	5.036	10.636	10.087	8.066	9.967	9.834	5.561	-13.817	-9.297	-6.588	-8.322	-0.992	-4.188	1.129	1.654	0.465	10.429	11.580	16.870	14.465	15.102	335.938
-15.937	-9.999	-12.682	-6.208	-0.890	-3.902	6.250	4.958	10.571	10.068	8.027	10.034	9.918	5.642	-13.866	-9.226	-6.624	-8.263	-0.920	-4.081	1.243	1.799	0.621	10.504	11.582	16.751	14.435	15.018	339.844
-15.997	-9.981	-12.633	-6.205	-0.861	-3.900	6.212	4.862	10.503	10.048	8.019	10.146	9.957	5.687	-13.859	-9.121	-6.669	-8.193	-0.877	-3.963	1.348	1.913	0.748	10.516	11.514	16.555	14.353	14.922	343.750
-16.009	-9.945	-12.579	-6.190	-0.848	-3.906	6.156	4.761	10.440	10.033	8.053	10.304	9.956	5.700	-13.807	-8.988	-6.718	-8.118	-0.855	-3.832	1.444	1.999	0.846	10.470	11.390	16.297	14.226	14.819	347.656
-15.988	-9.902	-12.542	-6.168	-0.849	-3.924	6.094	4.668	10.387	10.028	8.134	10.494	9.924	5.691	-13.720	-8.831	-6.758	-8.048	-0.843	-3.682	1.536	2.061	0.916	10.379	11.228	15.998	14.062	14.712	351.562
-15.946	-9.858	-12.541	-6.146	-0.862	-3.958	6.036	4.590	10.342	10.031	8.249	10.691	9.872	5.672	-13.608	-8.647	-6.774	-7.994	-0.823	-3.502	1.634	2.107	0.961	10.260	11.051	15.684	13.878	14.599	355.469
-15.898	-9.819	-12.586	-6.129	-0.883	-4.008	5.986	4.530	10.299	10.036	8.370	10.851	9.812	5.659	-13.478	-8.433	-6.751	-7.962	-0.777	-3.280	1.748	2.148	0.985	10.131	10.883	15.383	13.688	14.477	359.375
-15.851	-9.782	-12.679	-6.118	-0.906	-4.074	5.946	4.484	10.242	10.029	8.454	10.924	9.758	5.665	-13.334	-8.181	-6.676	-7.955	-0.689	-3.004	1.892	2.195	0.996	10.013	10.748	15.124	13.512	14.337	363.281
-15.810	-9.743	-12.811	-6.111	-0.925	-4.153	5.911	4.439	10.153	9.991	8.447	10.859	9.719	5.702	-13.177	-7.889	-6.543	-7.973	-0.550	-2.669	2.075	2.259	1.001	9.924	10.663	14.926	13.366	14.173	367.188
-15.773	-9.692	-12.963	-6.101	-0.931	-4.240	5.872	4.383	10.011	9.904	8.304	10.617	9.704	5.775	-13.008	-7.555	-6.353	-8.010	-0.359	-2.276	2.303	2.349	1.009	9.877	10.642	14.805	13.263	13.979	371.094
-15.736	-9.623	-13.116	-6.079	-0.920	-4.332	5.823	4.301	9.799	9.755	7.995	10.186	9.716	5.887	-12.826	-7.190	-6.117	-8.059	-0.122	-1.837	2.574	2.468	1.027	9.877	10.685	14.763	13.210	13.753	375.000
-15.694	-9.529	-13.252	-6.041	-0.890	-4.425	5.757	4.181	9.513	9.544	7.525	9.593	9.757	6.031	-12.638	-6.811	-5.859	-8.113	0.140	-1.377	2.876	2.615	1.060	9.925	10.787	14.795	13.212	13.507	378.906
-15.644	-9.417	-13.362	-5.986	-0.846	-4.522	5.673	4.021	9.164	9.288	6.942	8.910	9.827	6.199	-12.457	-6.448	-5.609	-8.169	0.402	-0.928	3.188	2.782	1.108	10.015	10.929	14.884	13.269	13.260	382.812
-15.586	-9.300	-13.449	-5.921	-0.798	-4.628	5.577	3.827	8.779	9.016	6.326	8.244	9.924	6.376	-12.300	-6.134	-5.403	-8.228	0.630	-0.531	3.484	2.956	1.167	10.136	11.090	15.011	13.377	13.048	386.719
-15.530	-9.201	-13.527	-5.861	-0.760	-4.750	5.478	3.613	8.397	8.771	5.785	7.725	10.045	6.546	-12.191	-5.908	-5.275	-8.298	0.793	-0.224	3.735	3.119	1.226	10.278	11.243	15.152	13.535	12.908	390.625
-15.485	-9.148	-13.614	-5.822	-0.745	-4.893	5.392	3.400	8.065	8.599	5.423	7.473	10.188	6.699	-12.149	-5.796	-5.256	-8.389	0.866	-0.040	3.919	3.252	1.277	10.428	11.361	15.283	13.739	12.876	394.531
-15.461	-9.164	-13.730	-5.822	-0.760	-5.054	5.332	3.213	7.827	8.537	5.321	7.574	10.351	6.826	-12.188	-5.819	-5.360	-8.514	0.832	0.003	4.020	3.342	1.308	10.576	11.422	15.384	13.980	12.974	398.438
-15.461	-9.261	-13.884	-5.868	-0.801	-5.222	5.315	3.072	7.710	8.607	5.515	8.050	10.527	6.925	-12.308	-5.975	-5.590	-8.679	0.687	-0.097	4.035	3.377	1.312	10.712	11.408	15.435	14.246	13.201	402.344
-15.482	-9.438	-14.072	-5.956	-0.855	-5.375	5.348	2.998	7.728	8.809	5.987	8.856	10.709	6.999	-12.493	-6.250	-5.932	-8.884	0.442	-0.324	3.974	3.353	1.289	10.826	11.309	15.419	14.517	13.527	406.250
-15.508	-9.673	-14.271	-6.071	-0.897	-5.482	5.437	3.000	7.868	9.118	6.665	9.879	10.886	7.054	-12.714	-6.610	-6.359	-9.119	0.114	-0.650	3.857	3.276	1.241	10.909	11.127	15.321	14.765	13.900	410.156
-15.520	-9.934	-14.442	-6.188	-0.898	-5.511	5.577	3.079	8.104	9.491	7.446	10.960	11.043	7.097	-12.935	-7.018	-6.839	-9.364	-0.270	-1.036	3.707	3.155	1.179	10.949	10.869	15.135	14.957	14.248	414.062
-15.494	-10.180	-14.539	-6.277	-0.834	-5.433	5.756	3.229	8.394	9.872	8.209	11.932	11.164	7.130	-13.118	-7.433	-7.333	-9.590	-0.682	-1.442	3.545	3.003	1.116	10.935	10.555	14.858	15.062	14.503	417.969
-15.409	-10.373	-14.519	-6.315	-0.687	-5.231	5.957	3.438	8.697	10.205	8.849	12.649	11.227	7.150	-13.234	-7.822	-7.810	-9.770	-1.099	-1.836	3.389	2.833	1.065	10.856	10.208	14.499	15.053	14.607	421.875
-15.253	-10.483	-14.349	-6.283	-0.455	-4.901	6.158	3.687	8.978	10.445	9.289	13.020	11.216	7.147	-13.263	-8.167	-8.244	-9.876	-1.500	-2.194	3.242	2.657	1.034	10.703	9.854	14.073	14.912	14.532	425.781
-15.022	-10.499	-14.017	-6.181	-0.150	-4.457	6.337	3.958	9.210	10.562	9.496	13.023	11.112	7.104	-13.203	-8.462	-8.620	-9.893	-1.873	-2.511	3.098	2.478	1.025	10.470	9.519	13.602	14.638	14.280	429.688
-14.720	-10.422	-13.532	-6.017	0.200	-3.927	6.474	4.234	9.382	10.552	9.481	12.705	10.904	7.003	-13.061	-8.714	-8.930	-9.815	-2.212	-2.789	2.944	2.295	1.036	10.154	9.217	13.110	14.242	13.882	433.594
-14.356	-10.268	-12.926	-5.812	0.559	-3.348	6.552	4.501	9.493	10.424	9.288	12.166	10.587	6.823	-12.851	-8.933	-9.174	-9.647	-2.511	-3.041	2.762	2.108	1.055	9.760	8.954	12.615	13.743	13.388	437.500
-13.945	-10.057	-12.240	-5.588	0.892	-2.762	6.562	4.747	9.549	10.203	8.976	11.526	10.164	6.555	-12.591	-9.128	-9.352	-9.404	-2.767	-3.278	2.536	1.913	1.071	9.294	8.725	12.133	13.168	12.853	441.406
-13.498	-9.812	-11.528	-5.365	1.165	-2.209	6.502	4.961	9.556	9.919	8.609	10.897	9.648	6.198	-12.294	-9.300	-9.465	-9.105	-2.974	-3.504	2.264	1.716	1.076	8.772	8.520	11.671	12.545	12.325	445.312
-13.032	-9.549	-10.837	-5.155	1.360	-1.722	6.375	5.136	9.521	9.598	8.234	10.359	9.060	5.763	-11.972	-9.439	-9.512	-8.771	-3.123	-3.714	1.952	1.524	1.067	8.216	8.323	11.234	11.901	11.834	449.219
-12.562	-9.280	-10.211	-4.965	1.470	-1.324	6.192	5.263	9.446	9.262	7.882	9.943	8.433	5.279	-11.632	-9.528	-9.492	-8.425	-3.207	-3.893	1.622	1.355	1.049	7.654	8.127	10.830	11.267	11.398	453.125
-12.109	-9.016	-9.678	-4.795	1.502	-1.029	5.969	5.335	9.332	8.927	7.567	9.641	7.804	4.781	-11.287	-9.551	-9.409	-8.089	-3.222	-4.023	1.305	1.224	1.032	7.120	7.932	10.470	10.673	11.019	457.031
-11.699	-8.766	-9.258	-4.645	1.470	-0.839	5.726	5.351	9.187	8.603	7.289	9.417	7.218	4.310	-10.952	-9.499	-9.280	-7.784	-3.173	-4.088	1.031	1.146	1.027	6.649	7.751	10.176	10.153	10.697	460.938
-11.358	-8.546	-8.957	-4.517	1.396	-0.750	5.485	5.315	9.020	8.306	7.052	9.228	6.717	3.906	-10.649	-9.379	-9.131	-7.535	-3.079	-4.083	0.823	1.123	1.043	6.275	7.606	9.974	9.740	10.438	464.844
-11.113	-8.370	-8.773	-4.419	1.298	-0.748	5.273	5.240	8.851	8.051	6.865	9.050	6.335	3.597	-10.406	-9.213	-8.999	-7.363	-2.970	-4.017	0.691	1.147	1.081	6.024	7.524	9.891	9.466	10.252	468.750
-10.979	-8.258	-8.699	-4.361	1.193	-0.820	5.110	5.143	8.705	7.858	6.746	8.883	6.094	3.395	-10.250	-9.035	-8.925	-7.287	-2.883	-3.916	0.628	1.196	1.131	5.908	7.526	9.944	9.352	10.158	472.656
-10.959	-8.222	-8.719	-4.354	1.089	-0.946	5.015	5.048	8.605	7.746	6.718	8.752	6.001	3.297	-10.200	-8.887	-8.945	-7.316	-2.859	-3.813	0.611	1.240	1.175	5.924	7.623	10.134	9.404	10.173	476.562
-11.036	-8.270	-8.815	-4.406	0.989	-1.106	4.996	4.976	8.571	7.732	6.804	8.702	6.040	3.281	-10.263	-8.805	-9.084	-7.449	-2.928	-3.747	0.609	1.245	1.192	6.050	7.807	10.438	9.609	10.305	480.469
-11.177	-8.394	-8.963	-4.516	0.892	-1.281	5.050	4.943	8.610	7.820	7.013	8.777	6.182	3.313	-10.426	-8.810	-9.346	-7.671	-3.108	-3.747	0.588	1.185	1.161	6.248	8.054	10.813	9.932	10.547	484.375
-11.336	-8.575	-9.131	-4.673	0.794	-1.452	5.163	4.956	8.712	7.998	7.337	9.004	6.383	3.354	-10.655	-8.905	-9.711	-7.953	-3.394	-3.828	0.523	1.042	1.068	6.471	8.321	11.196	10.318	10.871	488.281
-11.458	-8.783	-9.283	-4.856	0.694	-1.599	5.310	5.011	8.853	8.239	7.741	9.379	6.592	3.367	-10.901	-9.071	-10.141	-8.253	-3.764	-3.987	0.400	0.819	0.912	6.665	8.561	11.516	10.701	11.228	492.188
-11.492	-8.979	-9.384	-5.037	0.589	-1.707	5.457	5.088	8.991	8.501	8.171	9.864	6.760	3.323	-11.102	-9.270	-10.578	-8.523	-4.174	-4.203	0.220	0.533	0.701	6.782	8.726	11.706	11.010	11.552	496.094
-11.395	-9.120	-9.398	-5.185	0.482	-1.767	5.566	5.160	9.081	8.731	8.558	10.387	6.846	3.205	-11.199	-9.454	-10.961	-8.715	-4.571	-4.439	0.001	0.214	0.460	6.784	8.776	11.712	11.181	11.776	500.000
-11.143	-9.169	-9.301	-5.268	0.380	-1.772	5.605	5.194	9.076	8.875	8.832	10.861	6.821	3.014	-11.143	-9.571	-11.227	-8.786	-4.901	-4.649	-0.231	-0.097	0.217	6.647	8.686	11.505	11.167	11.838	503.906
-10.731	-9.097	-9.079	-5.264	0.292	-1.726	5.544	5.156	8.940	8.888	8.935	11.194	6.672	2.765	-10.902	-9.580	-11.330	-8.709	-5.117	-4.790	-0.441	-0.365	0.003	6.366	8.452	11.081	10.944	11.695	507.812
-10.173	-8.891	-8.734	-5.158	0.226	-1.635	5.369	5.024	8.654	8.740	8.831	11.314	6.402	2.481	-10.471	-9.450	-11.243	-8.473	-5.188	-4.826	-0.602	-0.558	-0.156	5.955	8.086	10.468	10.514	11.332	511.719
-9.500	-8.553	-8.281	-4.950	0.193	-1.510	5.080	4.788	8.220	8.423	8.515	11.178	6.029	2.193	-9.872	-9.173	-10.964	-8.090	-5.106	-4.735	-0.690	-0.660	-0.242	5.439	7.614	9.711	9.905	10.765	515.625
-8.754	-8.102	-7.748	-4.652	0.197	-1.366	4.692	4.455	7.662	7.952	8.012	10.783	5.580	1.930	-9.148	-8.764	-10.517	-7.590	-4.884	-4.517	-0.698	-0.672	-0.251	4.857	7.075	8.874	9.166	10.038	519.531
-7.980	-7.569	-7.169	-4.286	0.241	-1.214	4.232	4.049	7.020	7.361	7.376	10.165	5.091	1.716	-8.360	-8.252	-9.948	-7.016	-4.555	-4.188	-0.630	-0.608	-0.194	4.252	6.509	8.027	8.360	9.216	523.438
-7.222	-6.995	-6.580	-3.885	0.321	-1.067	3.736	3.605	6.349	6.701	6.677	9.392	4.597	1.563	-7.575	-7.685	-9.320	-6.423	-4.168	-3.784	-0.504	-0.496	-0.090	3.666	5.958	7.236	7.554	8.379	527.344
-6.520	-6.422	-6.014	-3.484	0.426	-0.930	3.243	3.167	5.704	6.029	5.990	8.552	4.130	1.474	-6.857	-7.112	-8.697	-5.865	-3.775	-3.349	-0.347	-0.366	0.037	3.134	5.457	6.556	6.808	7.600	531.250
-5.901	-5.892	-5.496	-3.118	0.543	-0.809	2.790	2.781	5.137	5.401	5.384	7.737	3.716	1.440	-6.256	-6.584	-8.143	-5.390	-3.429	-2.933	-0.188	-0.250	0.160	2.683	5.035	6.027	6.171	6.947	535.156
-5.384	-5.440	-5.042	-2.817	0.657	-0.704	2.406	2.484	4.688	4.865	4.910	7.029	3.369	1.447	-5.805	-6.140	-7.704	-5.033	-3.171	-2.580	-0.057	-0.173	0.256	2.327	4.708	5.665	5.677	6.461	539.062
-4.973	-5.087	-4.657	-2.598	0.754	-0.612	2.113	2.300	4.379	4.451	4.594	6.483	3.096	1.478	-5.514	-5.807	-7.408	-4.813	-3.025	-2.322	0.026	-0.149	0.311	2.068	4.477	5.465	5.334	6.160	542.969
-4.662	-4.841	-4.339	-2.467	0.825	-0.527	1.916	2.237	4.212	4.172	4.435	6.128	2.893	1.514	-5.370	-5.590	-7.260	-4.728	-2.997	-2.173	0.050	-0.184	0.319	1.896	4.334	5.400	5.137	6.034	546.875
-4.432	-4.697	-4.075	-2.417	0.866	-0.446	1.811	2.284	4.170	4.021	4.408	5.959	2.752	1.540	-5.344	-5.482	-7.243	-4.755	-3.075	-2.133	0.013	-0.270	0.280	1.793	4.258	5.428	5.060	6.051	550.781
-4.261	-4.635	-3.852	-2.432	0.876	-0.363	1.781	2.413	4.219	3.973	4.467	5.944	2.655	1.545	-5.392	-5.456	-7.319	-4.854	-3.231	-2.183	-0.074	-0.393	0.207	1.736	4.224	5.498	5.068	6.162	554.688
-4.122	-4.630	-3.657	-2.488	0.858	-0.279	1.801	2.584	4.314	3.993	4.561	6.032	2.586	1.520	-5.467	-5.481	-7.441	-4.975	-3.426	-2.293	-0.197	-0.530	0.114	1.703	4.203	5.557	5.121	6.310	558.594
-3.989	-4.651	-3.478	-2.562	0.814	-0.199	1.839	2.749	4.403	4.037	4.636	6.161	2.527	1.460	-5.524	-5.517	-7.557	-5.064	-3.616	-2.426	-0.336	-0.658	0.023	1.675	4.174	5.561	5.179	6.442	562.500
-3.838	-4.670	-3.307	-2.634	0.744	-0.131	1.863	2.863	4.440	4.060	4.648	6.271	2.459	1.364	-5.525	-5.529	-7.619	-5.073	-3.759	-2.545	-0.472	-0.753	-0.043	1.640	4.120	5.478	5.209	6.510	566.406
-3.652	-4.662	-3.139	-2.687	0.646	-0.085	1.843	2.888	4.385	4.022	4.566	6.311	2.368	1.232	-5.443	-5.488	-7.588	-4.967	-3.820	-2.618	-0.588	-0.793	-0.062	1.592	4.037	5.292	5.188	6.486	570.312
-3.419	-4.611	-2.972	-2.713	0.519	-0.072	1.757	2.799	4.212	3.895	4.378	6.247	2.243	1.067	-5.266	-5.376	-7.443	-4.731	-3.775	-2.625	-0.674	-0.765	-0.019	1.528	3.926	5.005	5.103	6.355	574.219
-3.136	-4.506	-2.805	-2.705	0.365	-0.095	1.590	2.591	3.912	3.659	4.082	6.065	2.074	0.876	-4.993	-5.185	-7.177	-4.369	-3.617	-2.555	-0.723	-0.664	0.096	1.447	3.796	4.634	4.949	6.120	578.125
-2.808	-4.343	-2.635	-2.662	0.191	-0.151	1.341	2.275	3.489	3.310	3.692	5.771	1.858	0.666	-4.636	-4.918	-6.799	-3.908	-3.349	-2.410	-0.737	-0.496	0.280	1.348	3.657	4.204	4.727	5.794	582.031
-2.443	-4.125	-2.460	-2.584	0.008	-0.228	1.015	1.881	2.967	2.859	3.228	5.386	1.594	0.446	-4.214	-4.588	-6.335	-3.384	-2.994	-2.205	-0.721	-0.275	0.522	1.227	3.517	3.740	4.445	5.400	585.938
-2.055	-3.859	-2.276	-2.473	-0.164	-0.308	0.631	1.450	2.377	2.326	2.716	4.941	1.287	0.225	-3.750	-4.215	-5.817	-2.841	-2.581	-1.960	-0.685	-0.023	0.803	1.076	3.382	3.266	4.106	4.958	589.844
-1.659	-3.556	-2.078	-2.334	-0.308	-0.370	0.210	1.026	1.759	1.742	2.181	4.475	0.946	0.010	-3.268	-3.821	-5.283	-2.321	-2.145	-1.702	-0.643	0.232	1.097	0.888	3.249	2.793	3.716	4.490	593.750
-1.266	-3.230	-1.860	-2.173	-0.408	-0.392	-0.223	0.652	1.153	1.141	1.649	4.022	0.584	-0.195	-2.788	-3.432	-4.771	-1.854	-1.724	-1.461	-0.607	0.467	1.377	0.660	3.114	2.327	3.277	4.009	597.656
-0.884	-2.894	-1.619	-2.001	-0.456	-0.361	-0.642	0.357	0.593	0.555	1.139	3.613	0.219	-0.391	-2.326	-3.068	-4.311	-1.457	-1.347	-1.262	-0.591	0.658	1.619	0.390	2.966	1.864	2.795	3.527	601.562
-0.515	-2.563	-1.351	-1.830	-0.452	-0.272	-1.026	0.156	0.100	0.014	0.667	3.272	-0.133	-0.577	-1.892	-2.749	-3.923	-1.131	-1.039	-1.126	-0.606	0.793	1.805	0.088	2.797	1.397	2.278	3.054	605.469
-0.160	-2.248	-1.060	-1.669	-0.408	-0.128	-1.361	0.044	-0.314	-0.463	0.244	3.011	-0.454	-0.754	-1.493	-2.485	-3.617	-0.865	-0.811	-1.062	-0.660	0.867	1.928	-0.234	2.599	0.924	1.743	2.599	609.375
0.183	-1.958	-0.751	-1.528	-0.342	0.054	-1.639	0.001	-0.658	-0.865	-0.124	2.836	-0.724	-0.922	-1.129	-2.279	-3.391	-0.643	-0.665	-1.066	-0.750	0.884	1.989	-0.556	2.372	0.444	1.211	2.176	613.281
0.517	-1.698	-0.438	-1.411	-0.271	0.255	-1.857	-0.008	-0.950	-1.194	-0.437	2.741	-0.929	-1.072	-0.800	-2.123	-3.234	-0.446	-0.594	-1.122	-0.867	0.859	1.998	-0.854	2.119	-0.035	0.707	1.800	617.188
0.838	-1.468	-0.138	-1.314	-0.210	0.450	-2.019	-0.020	-1.216	-1.456	-0.697	2.715	-1.055	-1.193	-0.500	-2.002	-3.131	-0.261	-0.582	-1.198	-0.990	0.809	1.966	-1.106	1.848	-0.498	0.258	1.483	621.094
1.141	-1.266	0.130	-1.230	-0.165	0.620	-2.129	-0.071	-1.481	-1.663	-0.913	2.739	-1.090	-1.265	-0.229	-1.894	-3.063	-0.086	-0.609	-1.258	-1.092	0.754	1.910	-1.295	1.571	-0.932	-0.115	1.236	625.000
1.417	-1.087	0.349	-1.146	-0.132	0.753	-2.192	-0.182	-1.764	-1.831	-1.092	2.792	-1.033	-1.270	0.018	-1.775	-3.014	0.072	-0.655	-1.265	-1.140	0.711	1.840	-1.410	1.297	-1.323	-0.399	1.060	628.906
1.657	-0.925	0.507	-1.050	-0.099	0.845	-2.211	-0.360	-2.071	-1.969	-1.245	2.851	-0.887	-1.189	0.241	-1.624	-2.969	0.199	-0.701	-1.187	-1.104	0.694	1.766	-1.452	1.033	-1.663	-0.592	0.947	632.812
1.852	-0.774	0.602	-0.928	-0.046	0.901	-2.190	-0.594	-2.395	-2.089	-1.385	2.889	-0.666	-1.014	0.441	-1.426	-2.917	0.278	-0.733	-1.004	-0.963	0.711	1.692	-1.431	0.781	-1.954	-0.707	0.875	636.719
2.004	-0.627	0.643	-0.772	0.044	0.933	-2.133	-0.859	-2.722	-2.196	-1.526	2.880	-0.391	-0.744	0.620	-1.174	-2.849	0.294	-0.740	-0.711	-0.708	0.762	1.621	-1.365	0.539	-2.205	-0.768	0.815	640.625
2.120	-0.478	0.646	-0.579	0.183	0.957	-2.047	-1.123	-3.029	-2.297	-1.681	2.803	-0.092	-0.393	0.783	-0.870	-2.757	0.243	-0.717	-0.319	-0.344	0.844	1.554	-1.279	0.302	-2.432	-0.803	0.732	644.531
2.215	-0.319	0.633	-0.352	0.371	0.985	-1.941	-1.355	-3.296	-2.396	-1.865	2.636	0.200	0.013	0.937	-0.522	-2.634	0.135	-0.659	0.149	0.107	0.947	1.493	-1.196	0.064	-2.651	-0.843	0.592	648.438
2.306	-0.148	0.624	-0.103	0.597	1.029	-1.830	-1.529	-3.510	-2.498	-2.089	2.368	0.452	0.439	1.092	-0.141	-2.472	-0.010	-0.565	0.661	0.610	1.062	1.441	-1.138	-0.179	-2.881	-0.914	0.369	652.344
2.413	0.039	0.636	0.153	0.838	1.090	-1.727	-1.632	-3.663	-2.611	-2.361	1.995	0.640	0.846	1.258	0.258	-2.266	-0.162	-0.434	1.183	1.123	1.180	1.403	-1.118	-0.426	-3.133	-1.031	0.053	656.250
2.548	0.238	0.676	0.396	1.064	1.164	-1.646	-1.661	-3.761	-2.736	-2.683	1.525	0.749	1.196	1.444	0.664	-2.011	-0.287	-0.268	1.679	1.604	1.293	1.384	-1.139	-0.675	-3.411	-1.196	-0.353	660.156
2.716	0.445	0.742	0.605	1.245	1.238	-1.599	-1.629	-3.814	-2.876	-3.050	0.976	0.776	1.462	1.658	1.061	-1.710	-0.355	-0.068	2.123	2.015	1.398	1.390	-1.195	-0.916	-3.715	-1.398	-0.827	664.062
2.913	0.648	0.822	0.762	1.356	1.298	-1.588	-1.556	-3.844	-3.029	-3.450	0.379	0.731	1.629	1.900	1.438	-1.370	-0.344	0.159	2.498	2.332	1.497	1.424	-1.271	-1.138	-4.034	-1.620	-1.337	667.969
3.125	0.832	0.896	0.852	1.384	1.326	-1.614	-1.468	-3.869	-3.186	-3.867	-0.230	0.637	1.700	2.164	1.782	-1.005	-0.247	0.407	2.795	2.548	1.595	1.488	-1.346	-1.331	-4.357	-1.835	-1.844	671.875
3.331	0.980	0.941	0.869	1.332	1.308	-1.668	-1.392	-3.910	-3.334	-4.277	-0.806	0.524	1.698	2.438	2.082	-0.635	-0.074	0.665	3.022	2.676	1.701	1.581	-1.399	-1.483	-4.668	-2.019	-2.307	675.781
3.507	1.073	0.935	0.811	1.214	1.236	-1.741	-1.354	-3.981	-3.457	-4.655	-1.305	0.427	1.656	2.706	2.330	-0.281	0.156	0.923	3.191	2.743	1.821	1.697	-1.410	-1.591	-4.951	-2.150	-2.690	679.688
3.629	1.100	0.861	0.688	1.057	1.105	-1.818	-1.372	-4.089	-3.537	-4.974	-1.684	0.380	1.614	2.947	2.519	0.036	0.412	1.169	3.321	2.785	1.962	1.832	-1.369	-1.654	-5.195	-2.213	-2.968	683.594
3.681	1.054	0.710	0.513	0.890	0.920	-1.887	-1.454	-4.236	-3.556	-5.213	-1.911	0.408	1.610	3.146	2.645	0.298	0.666	1.393	3.429	2.837	2.122	1.974	-1.274	-1.682	-5.392	-2.202	-3.127	687.500
3.658	0.938	0.484	0.307	0.741	0.692	-1.936	-1.599	-4.411	-3.504	-5.356	-1.966	0.525	1.669	3.289	2.711	0.493	0.894	1.587	3.528	2.926	2.295	2.116	-1.134	-1.688	-5.537	-2.121	-3.166	691.406
3.566	0.768	0.201	0.090	0.630	0.438	-1.957	-1.796	-4.601	-3.379	-5.397	-1.848	0.731	1.801	3.373	2.721	0.620	1.080	1.744	3.621	3.063	2.468	2.248	-0.966	-1.691	-5.635	-1.981	-3.101	695.312
3.426	0.566	-0.112	-0.118	0.566	0.179	-1.949	-2.026	-4.790	-3.187	-5.340	-1.578	1.010	1.997	3.401	2.686	0.680	1.219	1.861	3.707	3.242	2.627	2.360	-0.795	-1.709	-5.693	-1.804	-2.958	699.219
3.265	0.362	-0.418	-0.299	0.549	-0.062	-1.914	-2.268	-4.961	-2.950	-5.201	-1.195	1.335	2.236	3.385	2.619	0.685	1.313	1.936	3.779	3.444	2.758	2.448	-0.644	-1.758	-5.725	-1.614	-2.773	703.125
3.120	0.187	-0.677	-0.442	0.567	-0.267	-1.865	-2.501	-5.102	-2.698	-5.006	-0.756	1.668	2.484	3.344	2.541	0.649	1.373	1.973	3.832	3.643	2.854	2.509	-0.533	-1.845	-5.747	-1.439	-2.584	707.031
3.022	0.071	-0.854	-0.537	0.603	-0.419	-1.817	-2.708	-5.208	-2.465	-4.788	-0.323	1.968	2.709	3.299	2.473	0.590	1.412	1.980	3.864	3.808	2.911	2.546	-0.478	-1.972	-5.777	-1.311	-2.432	710.938
2.997	0.036	-0.926	-0.578	0.640	-0.507	-1.788	-2.878	-5.282	-2.290	-4.584	0.037	2.197	2.876	3.272	2.438	0.528	1.447	1.969	3.877	3.919	2.936	2.565	-0.482	-2.130	-5.832	-1.254	-2.351	714.844
3.060	0.096	-0.883	-0.563	0.666	-0.529	-1.795	-3.006	-5.334	-2.207	-4.433	0.267	2.324	2.964	3.282	2.454	0.484	1.493	1.955	3.878	3.960	2.939	2.578	-0.543	-2.307	-5.927	-1.292	-2.367	718.750
3.215	0.251	-0.734	-0.492	0.672	-0.486	-1.853	-3.092	-5.378	-2.239	-4.367	0.325	2.328	2.959	3.345	2.538	0.475	1.566	1.956	3.878	3.931	2.933	2.598	-0.654	-2.485	-6.072	-1.439	-2.498	722.656
3.452	0.491	-0.500	-0.369	0.659	-0.382	-1.967	-3.140	-5.433	-2.397	-4.412	0.190	2.205	2.864	3.470	2.696	0.515	1.675	1.987	3.887	3.840	2.935	2.639	-0.800	-2.647	-6.269	-1.697	-2.746	726.562
3.749	0.793	-0.211	-0.202	0.632	-0.230	-2.135	-3.157	-5.512	-2.680	-4.583	-0.138	1.966	2.696	3.657	2.922	0.614	1.826	2.061	3.915	3.707	2.958	2.713	-0.961	-2.777	-6.515	-2.056	-3.104	730.469
4.080	1.130	0.100	-0.000	0.601	-0.043	-2.346	-3.150	-5.629	-3.068	-4.885	-0.637	1.641	2.481	3.898	3.204	0.769	2.017	2.184	3.967	3.555	3.014	2.827	-1.115	-2.863	-6.795	-2.492	-3.550	734.375
4.415	1.466	0.400	0.219	0.577	0.162	-2.581	-3.127	-5.789	-3.533	-5.309	-1.268	1.269	2.257	4.178	3.519	0.972	2.240	2.357	4.046	3.413	3.112	2.988	-1.237	-2.897	-7.090	-2.970	-4.054	738.281
4.722	1.771	0.659	0.439	0.570	0.367	-2.817	-3.097	-5.990	-4.038	-5.832	-1.981	0.899	2.063	4.472	3.837	1.205	2.483	2.571	4.147	3.307	3.255	3.195	-1.304	-2.878	-7.373	-3.449	-4.582	742.188
4.974	2.016	0.857	0.642	0.585	0.553	-3.030	-3.068	-6.222	-4.543	-6.423	-2.721	0.579	1.933	4.757	4.129	1.447	2.727	2.814	4.264	3.257	3.444	3.445	-1.297	-2.806	-7.618	-3.886	-5.096	746.094
5.148	2.183	0.977	0.810	0.628	0.708	-3.199	-3.045	-6.467	-5.011	-7.038	-3.432	0.349	1.894	5.006	4.368	1.675	2.953	3.066	4.388	3.275	3.674	3.725	-1.204	-2.686	-7.803	-4.242	-5.561	750.000
5.229	2.262	1.012	0.931	0.698	0.820	-3.309	-3.032	-6.702	-5.408	-7.629	-4.066	0.236	1.955	5.198	4.534	1.868	3.142	3.305	4.506	3.361	3.930	4.022	-1.027	-2.529	-7.908	-4.490	-5.946	753.906
5.209	2.253	0.960	0.995	0.792	0.885	-3.353	-3.024	-6.900	-5.710	-8.146	-4.584	0.251	2.109	5.317	4.616	2.008	3.277	3.512	4.608	3.504	4.197	4.313	-0.776	-2.345	-7.923	-4.615	-6.230	757.812
5.091	2.163	0.825	0.999	0.899	0.905	-3.331	-3.015	-7.038	-5.899	-8.546	-4.961	0.387	2.337	5.357	4.612	2.084	3.347	3.665	4.682	3.682	4.449	4.576	-0.471	-2.146	-7.848	-4.618	-6.401	761.719
4.884	2.008	0.623	0.943	1.009	0.884	-3.251	-2.993	-7.096	-5.968	-8.796	-5.182	0.622	2.609	5.322	4.528	2.091	3.343	3.750	4.719	3.866	4.661	4.786	-0.140	-1.945	-7.691	-4.514	-6.457	765.625
4.610	1.805	0.374	0.835	1.108	0.833	-3.125	-2.948	-7.064	-5.919	-8.880	-5.252	0.928	2.889	5.222	4.379	2.027	3.266	3.759	4.714	4.029	4.809	4.922	0.189	-1.754	-7.472	-4.325	-6.408	769.531
4.292	1.573	0.108	0.687	1.184	0.764	-2.966	-2.868	-6.940	-5.763	-8.795	-5.185	1.269	3.147	5.074	4.184	1.899	3.118	3.687	4.667	4.144	4.870	4.966	0.488	-1.583	-7.215	-4.084	-6.273	773.438
3.960	1.334	-0.143	0.516	1.229	0.689	-2.790	-2.746	-6.733	-5.515	-8.557	-5.006	1.615	3.357	4.896	3.965	1.715	2.906	3.540	4.583	4.194	4.831	4.910	0.735	-1.442	-6.951	-3.821	-6.076	777.344
3.639	1.103	-0.349	0.337	1.237	0.619	-2.610	-2.582	-6.458	-5.195	-8.192	-4.745	1.941	3.505	4.705	3.745	1.491	2.642	3.325	4.474	4.175	4.686	4.751	0.916	-1.337	-6.705	-3.563	-5.842	781.250
3.345	0.895	-0.492	0.163	1.211	0.559	-2.436	-2.380	-6.136	-4.824	-7.731	-4.432	2.232	3.590	4.515	3.540	1.239	2.335	3.057	4.351	4.091	4.442	4.499	1.027	-1.269	-6.496	-3.329	-5.595	785.156
3.086	0.713	-0.567	0.003	1.155	0.512	-2.272	-2.146	-5.786	-4.423	-7.208	-4.095	2.487	3.620	4.332	3.360	0.972	1.998	2.753	4.227	3.956	4.116	4.171	1.077	-1.235	-6.330	-3.127	-5.351	789.062
2.858	0.553	-0.585	-0.142	1.077	0.477	-2.120	-1.892	-5.424	-4.008	-6.656	-3.753	2.711	3.612	4.160	3.204	0.702	1.645	2.427	4.107	3.790	3.736	3.792	1.084	-1.224	-6.202	-2.954	-5.118	792.969
2.648	0.407	-0.571	-0.276	0.990	0.448	-1.976	-1.628	-5.063	-3.595	-6.103	-3.422	2.918	3.588	3.997	3.065	0.435	1.286	2.096	3.995	3.610	3.331	3.394	1.071	-1.223	-6.098	-2.801	-4.899	796.875
