FP1	F3	F7	FC3	C3	C5	P3	P7	PO7	PO3	O1	Oz	Pz	CPz	FP2	Fz	F4	F8	FC4	FCz	Cz	C4	C6	P4	P8	PO8	PO4	O2	time
-0.044	-0.340	-0.696	-0.336	-0.866	-1.449	-0.725	-0.620	-0.851	-1.204	-1.234	-0.214	0.380	-0.076	0.434	0.249	1.237	1.070	0.223	-0.006	0.249	0.132	0.062	0.507	1.021	0.403	0.210	-0.389	-199.219
-0.472	-0.763	-0.783	-0.573	-0.944	-1.164	-0.449	-0.119	-0.232	-0.780	-0.706	0.206	0.302	-0.179	-0.248	-0.333	0.642	0.667	-0.057	-0.534	-0.081	0.043	0.137	0.726	1.370	1.062	0.680	0.204	-195.312
-0.876	-1.163	-0.871	-0.809	-1.022	-0.909	-0.182	0.354	0.378	-0.356	-0.182	0.608	0.219	-0.285	-0.874	-0.889	0.081	0.293	-0.328	-1.036	-0.403	-0.047	0.192	0.907	1.683	1.662	1.109	0.754	-191.406
-1.233	-1.516	-0.959	-1.045	-1.099	-0.706	0.067	0.775	0.972	0.067	0.337	0.980	0.128	-0.397	-1.394	-1.390	-0.412	-0.028	-0.580	-1.483	-0.706	-0.141	0.213	1.020	1.923	2.147	1.455	1.220	-187.500
-1.523	-1.803	-1.041	-1.277	-1.172	-0.563	0.293	1.129	1.539	0.485	0.847	1.313	0.029	-0.512	-1.779	-1.810	-0.812	-0.284	-0.803	-1.852	-0.977	-0.238	0.192	1.045	2.064	2.475	1.688	1.573	-183.594
-1.734	-2.006	-1.110	-1.496	-1.234	-0.479	0.493	1.412	2.062	0.886	1.336	1.596	-0.075	-0.629	-2.017	-2.127	-1.096	-0.470	-0.987	-2.122	-1.203	-0.334	0.128	0.973	2.089	2.621	1.786	1.793	-179.688
-1.858	-2.113	-1.154	-1.686	-1.275	-0.440	0.662	1.623	2.516	1.255	1.783	1.820	-0.181	-0.741	-2.114	-2.324	-1.254	-0.585	-1.122	-2.278	-1.372	-0.423	0.030	0.810	1.993	2.576	1.742	1.876	-175.781
-1.892	-2.117	-1.163	-1.827	-1.284	-0.429	0.797	1.764	2.869	1.568	2.163	1.978	-0.281	-0.842	-2.085	-2.389	-1.282	-0.638	-1.202	-2.312	-1.473	-0.502	-0.087	0.572	1.786	2.354	1.562	1.831	-171.875
-1.832	-2.014	-1.127	-1.898	-1.253	-0.425	0.892	1.838	3.089	1.801	2.447	2.065	-0.370	-0.925	-1.955	-2.317	-1.185	-0.638	-1.221	-2.224	-1.500	-0.567	-0.206	0.282	1.486	1.986	1.266	1.682	-167.969
-1.680	-1.808	-1.038	-1.878	-1.175	-0.411	0.943	1.841	3.146	1.930	2.607	2.078	-0.443	-0.980	-1.745	-2.111	-0.979	-0.596	-1.179	-2.020	-1.449	-0.617	-0.311	-0.030	1.119	1.513	0.883	1.460	-164.062
-1.446	-1.509	-0.894	-1.753	-1.046	-0.373	0.944	1.769	3.019	1.936	2.619	2.014	-0.492	-0.998	-1.478	-1.782	-0.687	-0.527	-1.078	-1.713	-1.322	-0.653	-0.387	-0.337	0.715	0.984	0.449	1.195	-160.156
-1.142	-1.132	-0.700	-1.516	-0.867	-0.303	0.893	1.617	2.700	1.808	2.471	1.872	-0.514	-0.967	-1.174	-1.351	-0.334	-0.442	-0.923	-1.320	-1.123	-0.676	-0.426	-0.610	0.299	0.445	0.002	0.916	-156.250
-0.790	-0.697	-0.464	-1.174	-0.642	-0.201	0.789	1.383	2.196	1.546	2.158	1.649	-0.505	-0.877	-0.852	-0.845	0.054	-0.351	-0.721	-0.865	-0.861	-0.684	-0.424	-0.829	-0.104	-0.064	-0.423	0.636	-152.344
-0.421	-0.228	-0.201	-0.747	-0.378	-0.068	0.637	1.067	1.534	1.162	1.692	1.346	-0.460	-0.723	-0.531	-0.299	0.450	-0.261	-0.480	-0.373	-0.548	-0.669	-0.382	-0.974	-0.474	-0.513	-0.795	0.360	-148.438
-0.063	0.244	0.070	-0.263	-0.086	0.087	0.445	0.673	0.754	0.678	1.097	0.966	-0.380	-0.503	-0.229	0.251	0.835	-0.174	-0.207	0.127	-0.199	-0.620	-0.299	-1.038	-0.793	-0.882	-1.089	0.086	-144.531
0.250	0.691	0.330	0.239	0.221	0.256	0.226	0.215	-0.089	0.129	0.413	0.523	-0.266	-0.226	0.032	0.766	1.189	-0.092	0.086	0.607	0.167	-0.525	-0.179	-1.014	-1.048	-1.159	-1.287	-0.192	-140.625
0.495	1.081	0.557	0.718	0.527	0.425	-0.005	-0.288	-0.931	-0.446	-0.312	0.036	-0.123	0.092	0.236	1.212	1.495	-0.016	0.388	1.039	0.529	-0.371	-0.021	-0.905	-1.222	-1.336	-1.380	-0.472	-136.719
0.655	1.388	0.735	1.130	0.814	0.579	-0.232	-0.807	-1.708	-1.003	-1.021	-0.464	0.040	0.429	0.368	1.562	1.739	0.051	0.682	1.395	0.863	-0.153	0.171	-0.718	-1.305	-1.411	-1.367	-0.742	-132.812
0.724	1.592	0.851	1.441	1.059	0.703	-0.439	-1.304	-2.360	-1.499	-1.660	-0.938	0.212	0.753	0.422	1.794	1.908	0.107	0.949	1.654	1.145	0.128	0.391	-0.465	-1.285	-1.380	-1.254	-0.983	-128.906
0.710	1.680	0.897	1.622	1.241	0.779	-0.612	-1.734	-2.843	-1.896	-2.181	-1.351	0.376	1.035	0.402	1.902	1.990	0.147	1.172	1.803	1.354	0.453	0.626	-0.166	-1.159	-1.248	-1.057	-1.168	-125.000
0.631	1.650	0.874	1.660	1.343	0.796	-0.740	-2.052	-3.128	-2.167	-2.550	-1.668	0.516	1.243	0.323	1.886	1.982	0.171	1.332	1.834	1.470	0.796	0.855	0.156	-0.933	-1.027	-0.801	-1.273	-121.094
0.512	1.513	0.788	1.558	1.354	0.750	-0.817	-2.218	-3.206	-2.294	-2.746	-1.868	0.613	1.353	0.207	1.760	1.883	0.180	1.414	1.753	1.484	1.119	1.052	0.469	-0.623	-0.740	-0.517	-1.284	-117.188
0.378	1.290	0.652	1.333	1.271	0.645	-0.839	-2.208	-3.084	-2.273	-2.764	-1.941	0.654	1.351	0.080	1.543	1.701	0.179	1.410	1.572	1.393	1.381	1.190	0.743	-0.260	-0.416	-0.239	-1.199	-113.281
0.253	1.008	0.484	1.017	1.105	0.492	-0.806	-2.017	-2.782	-2.111	-2.613	-1.890	0.630	1.232	-0.031	1.262	1.449	0.172	1.319	1.310	1.205	1.546	1.246	0.947	0.120	-0.093	0.003	-1.034	-109.375
0.149	0.700	0.303	0.651	0.876	0.311	-0.721	-1.662	-2.331	-1.825	-2.312	-1.726	0.540	1.004	-0.107	0.944	1.145	0.162	1.149	0.992	0.935	1.588	1.204	1.061	0.477	0.194	0.184	-0.812	-105.469
0.072	0.397	0.127	0.276	0.609	0.125	-0.591	-1.180	-1.769	-1.441	-1.887	-1.471	0.393	0.689	-0.140	0.616	0.809	0.150	0.914	0.642	0.607	1.496	1.063	1.070	0.773	0.418	0.294	-0.561	-101.562
0.016	0.127	-0.028	-0.066	0.331	-0.044	-0.427	-0.623	-1.141	-0.994	-1.372	-1.147	0.206	0.318	-0.128	0.300	0.462	0.131	0.636	0.286	0.250	1.280	0.836	0.979	0.978	0.563	0.335	-0.306	-97.656
-0.028	-0.089	-0.151	-0.343	0.069	-0.181	-0.244	-0.054	-0.493	-0.522	-0.808	-0.781	0.001	-0.074	-0.082	0.016	0.125	0.102	0.340	-0.052	-0.104	0.965	0.550	0.800	1.078	0.626	0.319	-0.067	-93.750
-0.068	-0.241	-0.237	-0.537	-0.160	-0.276	-0.060	0.464	0.124	-0.067	-0.242	-0.403	-0.197	-0.445	-0.015	-0.221	-0.180	0.062	0.056	-0.350	-0.421	0.591	0.242	0.562	1.070	0.617	0.265	0.144	-89.844
-0.111	-0.324	-0.286	-0.641	-0.345	-0.328	0.107	0.874	0.663	0.331	0.278	-0.046	-0.366	-0.760	0.064	-0.398	-0.437	0.013	-0.188	-0.584	-0.673	0.206	-0.049	0.294	0.965	0.547	0.193	0.315	-85.938
-0.152	-0.342	-0.300	-0.659	-0.482	-0.344	0.235	1.135	1.081	0.637	0.707	0.258	-0.490	-0.987	0.148	-0.507	-0.631	-0.037	-0.369	-0.737	-0.838	-0.142	-0.286	0.028	0.781	0.432	0.117	0.440	-82.031
-0.180	-0.302	-0.284	-0.606	-0.573	-0.333	0.310	1.228	1.349	0.829	1.009	0.481	-0.561	-1.110	0.240	-0.541	-0.754	-0.080	-0.471	-0.794	-0.902	-0.414	-0.443	-0.210	0.543	0.284	0.046	0.511	-78.125
-0.179	-0.216	-0.242	-0.499	-0.618	-0.307	0.324	1.156	1.454	0.898	1.163	0.602	-0.578	-1.124	0.345	-0.500	-0.805	-0.107	-0.489	-0.751	-0.866	-0.588	-0.510	-0.401	0.276	0.111	-0.020	0.523	-74.219
-0.134	-0.097	-0.179	-0.356	-0.619	-0.274	0.280	0.948	1.402	0.854	1.168	0.612	-0.549	-1.037	0.470	-0.391	-0.795	-0.112	-0.434	-0.614	-0.739	-0.656	-0.495	-0.536	0.001	-0.081	-0.083	0.475	-70.312
-0.034	0.039	-0.098	-0.193	-0.576	-0.241	0.190	0.644	1.214	0.720	1.041	0.518	-0.481	-0.869	0.617	-0.227	-0.741	-0.094	-0.324	-0.399	-0.545	-0.630	-0.421	-0.617	-0.266	-0.284	-0.148	0.369	-66.406
0.123	0.179	-0.003	-0.024	-0.488	-0.207	0.077	0.295	0.928	0.531	0.816	0.340	-0.387	-0.643	0.780	-0.028	-0.663	-0.056	-0.187	-0.133	-0.309	-0.536	-0.321	-0.649	-0.515	-0.493	-0.216	0.218	-62.500
0.330	0.310	0.102	0.142	-0.355	-0.170	-0.036	-0.051	0.587	0.324	0.538	0.109	-0.274	-0.387	0.949	0.183	-0.584	-0.002	-0.050	0.151	-0.063	-0.407	-0.227	-0.642	-0.742	-0.700	-0.285	0.037	-58.594
0.573	0.420	0.214	0.301	-0.181	-0.128	-0.124	-0.354	0.232	0.133	0.250	-0.139	-0.151	-0.124	1.106	0.380	-0.518	0.061	0.064	0.421	0.169	-0.273	-0.170	-0.606	-0.947	-0.893	-0.351	-0.154	-54.688
0.828	0.503	0.328	0.451	0.025	-0.078	-0.172	-0.585	-0.101	-0.017	-0.009	-0.371	-0.025	0.127	1.235	0.543	-0.475	0.128	0.141	0.649	0.367	-0.163	-0.164	-0.550	-1.128	-1.064	-0.405	-0.339	-50.781
1.073	0.559	0.439	0.592	0.246	-0.019	-0.175	-0.730	-0.388	-0.116	-0.215	-0.563	0.097	0.352	1.323	0.659	-0.453	0.194	0.176	0.816	0.520	-0.092	-0.214	-0.482	-1.282	-1.201	-0.443	-0.503	-46.875
1.281	0.591	0.538	0.724	0.464	0.048	-0.137	-0.791	-0.620	-0.163	-0.359	-0.703	0.205	0.542	1.363	0.724	-0.447	0.257	0.175	0.916	0.626	-0.064	-0.307	-0.411	-1.402	-1.297	-0.461	-0.639	-42.969
1.431	0.602	0.620	0.843	0.658	0.119	-0.075	-0.783	-0.794	-0.169	-0.444	-0.790	0.292	0.692	1.356	0.741	-0.448	0.313	0.150	0.954	0.690	-0.073	-0.423	-0.341	-1.476	-1.343	-0.458	-0.743	-39.062
1.506	0.599	0.676	0.944	0.809	0.190	-0.010	-0.728	-0.915	-0.148	-0.486	-0.831	0.350	0.798	1.308	0.718	-0.450	0.361	0.116	0.942	0.716	-0.106	-0.535	-0.281	-1.492	-1.335	-0.436	-0.814	-35.156
1.500	0.588	0.702	1.017	0.903	0.258	0.037	-0.652	-0.989	-0.113	-0.501	-0.838	0.373	0.857	1.227	0.667	-0.453	0.398	0.084	0.893	0.713	-0.146	-0.617	-0.236	-1.441	-1.273	-0.399	-0.853	-31.250
1.414	0.572	0.696	1.055	0.937	0.321	0.051	-0.574	-1.017	-0.072	-0.503	-0.821	0.359	0.866	1.123	0.594	-0.461	0.419	0.060	0.821	0.682	-0.179	-0.650	-0.211	-1.322	-1.160	-0.353	-0.860	-27.344
1.256	0.554	0.661	1.049	0.915	0.380	0.025	-0.502	-0.997	-0.023	-0.496	-0.786	0.311	0.825	1.002	0.506	-0.480	0.418	0.046	0.734	0.626	-0.194	-0.628	-0.207	-1.144	-1.007	-0.303	-0.837	-23.438
1.043	0.534	0.604	1.001	0.849	0.436	-0.034	-0.432	-0.923	0.041	-0.476	-0.735	0.237	0.735	0.866	0.407	-0.516	0.388	0.039	0.635	0.546	-0.185	-0.552	-0.225	-0.926	-0.825	-0.255	-0.786	-19.531
0.789	0.510	0.532	0.914	0.755	0.490	-0.112	-0.353	-0.789	0.130	-0.431	-0.665	0.151	0.605	0.714	0.301	-0.573	0.323	0.035	0.524	0.443	-0.150	-0.439	-0.257	-0.694	-0.629	-0.207	-0.708	-15.625
0.511	0.477	0.455	0.798	0.647	0.539	-0.190	-0.252	-0.591	0.255	-0.343	-0.569	0.067	0.448	0.543	0.189	-0.648	0.221	0.029	0.399	0.324	-0.094	-0.309	-0.294	-0.476	-0.431	-0.158	-0.602	-11.719
0.224	0.431	0.376	0.663	0.537	0.579	-0.248	-0.121	-0.335	0.422	-0.201	-0.439	0.002	0.282	0.350	0.075	-0.734	0.085	0.015	0.259	0.195	-0.022	-0.187	-0.323	-0.292	-0.239	-0.099	-0.469	-7.812
-0.061	0.366	0.301	0.521	0.432	0.603	-0.272	0.043	-0.031	0.630	0.003	-0.273	-0.030	0.124	0.135	-0.039	-0.819	-0.080	-0.007	0.106	0.068	0.060	-0.093	-0.331	-0.157	-0.058	-0.022	-0.306	-3.906
-0.332	0.280	0.230	0.381	0.331	0.603	-0.255	0.230	0.298	0.868	0.260	-0.073	-0.024	-0.006	-0.097	-0.148	-0.892	-0.260	-0.036	-0.057	-0.048	0.145	-0.040	-0.309	-0.073	0.107	0.077	-0.118	0.000
-0.574	0.179	0.164	0.248	0.235	0.572	-0.200	0.424	0.625	1.120	0.551	0.148	0.021	-0.098	-0.333	-0.246	-0.938	-0.439	-0.066	-0.221	-0.147	0.229	-0.030	-0.253	-0.036	0.253	0.197	0.087	3.906
-0.774	0.073	0.105	0.131	0.142	0.505	-0.120	0.602	0.918	1.362	0.840	0.366	0.094	-0.147	-0.556	-0.327	-0.947	-0.597	-0.089	-0.375	-0.225	0.308	-0.056	-0.170	-0.036	0.370	0.326	0.294	7.812
-0.918	-0.020	0.054	0.037	0.055	0.404	-0.030	0.742	1.146	1.568	1.092	0.551	0.178	-0.157	-0.748	-0.385	-0.910	-0.712	-0.095	-0.507	-0.281	0.381	-0.100	-0.073	-0.064	0.447	0.446	0.479	11.719
-0.995	-0.082	0.016	-0.029	-0.023	0.278	0.051	0.823	1.285	1.717	1.268	0.675	0.255	-0.137	-0.891	-0.415	-0.826	-0.764	-0.078	-0.605	-0.319	0.446	-0.142	0.018	-0.111	0.473	0.535	0.618	15.625
-1.000	-0.097	-0.006	-0.062	-0.086	0.139	0.109	0.831	1.320	1.794	1.344	0.718	0.305	-0.101	-0.973	-0.413	-0.698	-0.743	-0.031	-0.663	-0.343	0.499	-0.161	0.087	-0.173	0.437	0.573	0.691	19.531
-0.938	-0.059	-0.012	-0.064	-0.127	0.001	0.133	0.761	1.251	1.793	1.311	0.673	0.318	-0.063	-0.988	-0.381	-0.541	-0.647	0.044	-0.680	-0.357	0.538	-0.145	0.120	-0.245	0.341	0.550	0.687	23.438
-0.823	0.026	-0.003	-0.042	-0.148	-0.122	0.120	0.614	1.088	1.721	1.180	0.554	0.291	-0.036	-0.941	-0.322	-0.371	-0.486	0.138	-0.662	-0.364	0.557	-0.090	0.112	-0.323	0.194	0.472	0.611	27.344
-0.678	0.141	0.015	-0.008	-0.150	-0.217	0.073	0.406	0.856	1.595	0.980	0.389	0.233	-0.027	-0.845	-0.247	-0.214	-0.283	0.240	-0.620	-0.368	0.553	-0.002	0.073	-0.402	0.021	0.362	0.483	31.250
-0.536	0.263	0.035	0.025	-0.145	-0.278	0.004	0.158	0.588	1.442	0.754	0.218	0.160	-0.038	-0.726	-0.170	-0.092	-0.068	0.332	-0.572	-0.370	0.524	0.102	0.019	-0.473	-0.143	0.258	0.337	35.156
-0.431	0.364	0.047	0.041	-0.143	-0.307	-0.074	-0.101	0.322	1.295	0.548	0.081	0.096	-0.067	-0.615	-0.105	-0.027	0.126	0.399	-0.537	-0.377	0.470	0.202	-0.024	-0.526	-0.258	0.204	0.215	39.062
-0.391	0.419	0.043	0.031	-0.159	-0.310	-0.144	-0.335	0.099	1.186	0.405	0.011	0.059	-0.109	-0.545	-0.070	-0.034	0.266	0.425	-0.534	-0.391	0.390	0.275	-0.033	-0.547	-0.284	0.246	0.154	42.969
-0.436	0.411	0.017	-0.015	-0.205	-0.298	-0.190	-0.508	-0.042	1.144	0.359	0.025	0.063	-0.158	-0.546	-0.083	-0.121	0.330	0.400	-0.579	-0.423	0.285	0.303	0.010	-0.526	-0.189	0.413	0.184	46.875
-0.571	0.332	-0.034	-0.099	-0.290	-0.284	-0.202	-0.584	-0.063	1.188	0.429	0.121	0.108	-0.213	-0.638	-0.156	-0.290	0.306	0.316	-0.684	-0.482	0.155	0.277	0.114	-0.452	0.045	0.719	0.317	50.781
-0.789	0.180	-0.110	-0.223	-0.413	-0.280	-0.173	-0.536	0.066	1.327	0.621	0.283	0.179	-0.276	-0.829	-0.301	-0.536	0.194	0.170	-0.857	-0.582	-0.002	0.193	0.273	-0.317	0.420	1.149	0.548	54.688
-1.077	-0.038	-0.212	-0.386	-0.569	-0.291	-0.107	-0.347	0.363	1.557	0.925	0.483	0.253	-0.355	-1.112	-0.524	-0.850	0.005	-0.039	-1.101	-0.735	-0.186	0.059	0.469	-0.113	0.925	1.668	0.861	58.594
-1.413	-0.316	-0.340	-0.589	-0.748	-0.319	-0.010	-0.011	0.837	1.863	1.322	0.691	0.295	-0.462	-1.468	-0.825	-1.219	-0.243	-0.304	-1.412	-0.951	-0.399	-0.112	0.675	0.162	1.534	2.222	1.224	62.500
-1.776	-0.642	-0.495	-0.829	-0.937	-0.357	0.104	0.463	1.474	2.219	1.784	0.874	0.274	-0.609	-1.869	-1.198	-1.626	-0.522	-0.614	-1.780	-1.232	-0.637	-0.303	0.858	0.510	2.208	2.741	1.602	66.406
-2.146	-1.005	-0.676	-1.101	-1.119	-0.400	0.220	1.051	2.246	2.591	2.276	1.002	0.167	-0.801	-2.276	-1.626	-2.049	-0.802	-0.948	-2.185	-1.571	-0.888	-0.496	0.987	0.922	2.898	3.154	1.950	70.312
-2.500	-1.385	-0.878	-1.389	-1.281	-0.438	0.324	1.718	3.102	2.943	2.758	1.049	-0.035	-1.034	-2.649	-2.083	-2.461	-1.051	-1.280	-2.600	-1.948	-1.137	-0.671	1.035	1.383	3.542	3.389	2.217	74.219
-2.815	-1.757	-1.092	-1.670	-1.407	-0.463	0.404	2.414	3.976	3.238	3.184	0.990	-0.321	-1.289	-2.949	-2.533	-2.828	-1.242	-1.577	-2.990	-2.329	-1.360	-0.813	0.985	1.866	4.073	3.391	2.351	78.125
-3.068	-2.089	-1.302	-1.912	-1.487	-0.468	0.449	3.081	4.787	3.442	3.505	0.806	-0.664	-1.537	-3.141	-2.933	-3.118	-1.351	-1.806	-3.314	-2.675	-1.531	-0.907	0.834	2.338	4.426	3.124	2.305	82.031
-3.234	-2.344	-1.485	-2.078	-1.508	-0.447	0.457	3.654	5.449	3.532	3.675	0.487	-1.020	-1.737	-3.207	-3.238	-3.300	-1.366	-1.932	-3.531	-2.940	-1.622	-0.940	0.594	2.759	4.545	2.586	2.044	85.938
-3.290	-2.487	-1.616	-2.134	-1.460	-0.397	0.428	4.065	5.880	3.491	3.652	0.032	-1.335	-1.845	-3.139	-3.410	-3.350	-1.283	-1.930	-3.608	-3.079	-1.608	-0.903	0.294	3.089	4.394	1.808	1.555	89.844
-3.221	-2.491	-1.672	-2.053	-1.333	-0.315	0.368	4.253	6.002	3.318	3.402	-0.547	-1.555	-1.819	-2.941	-3.416	-3.254	-1.110	-1.781	-3.516	-3.056	-1.468	-0.784	-0.024	3.287	3.959	0.853	0.849	93.750
-3.017	-2.337	-1.631	-1.820	-1.120	-0.198	0.287	4.169	5.757	3.022	2.906	-1.232	-1.631	-1.627	-2.628	-3.239	-3.009	-0.858	-1.481	-3.241	-2.842	-1.190	-0.580	-0.310	3.320	3.252	-0.190	-0.041	97.656
-2.685	-2.020	-1.481	-1.434	-0.816	-0.046	0.199	3.784	5.107	2.622	2.164	-1.993	-1.526	-1.247	-2.219	-2.874	-2.621	-0.541	-1.035	-2.780	-2.427	-0.772	-0.291	-0.516	3.157	2.306	-1.225	-1.062	101.562
-2.240	-1.547	-1.220	-0.907	-0.418	0.144	0.118	3.089	4.045	2.144	1.195	-2.800	-1.222	-0.676	-1.737	-2.330	-2.107	-0.175	-0.459	-2.142	-1.810	-0.223	0.074	-0.602	2.779	1.171	-2.157	-2.153	105.469
-1.708	-0.939	-0.854	-0.263	0.066	0.367	0.061	2.103	2.597	1.618	0.041	-3.622	-0.718	0.076	-1.205	-1.628	-1.492	0.225	0.219	-1.347	-1.009	0.437	0.496	-0.540	2.175	-0.092	-2.907	-3.247	109.375
-1.121	-0.224	-0.399	0.467	0.620	0.620	0.037	0.862	0.824	1.078	-1.239	-4.426	-0.034	0.981	-0.648	-0.801	-0.804	0.645	0.965	-0.425	-0.054	1.175	0.949	-0.323	1.349	-1.415	-3.421	-4.284	113.281
-0.513	0.556	0.121	1.241	1.217	0.892	0.054	-0.573	-1.177	0.554	-2.571	-5.181	0.793	2.000	-0.091	0.112	-0.078	1.069	1.742	0.583	1.010	1.955	1.400	0.038	0.324	-2.730	-3.675	-5.209	117.188
0.082	1.356	0.674	2.014	1.816	1.167	0.112	-2.121	-3.282	0.076	-3.868	-5.849	1.708	3.077	0.438	1.061	0.651	1.481	2.506	1.624	2.126	2.731	1.817	0.516	-0.859	-3.965	-3.669	-5.974	121.094
0.636	2.121	1.225	2.737	2.371	1.423	0.202	-3.689	-5.349	-0.330	-5.042	-6.389	2.649	4.147	0.913	1.989	1.340	1.857	3.214	2.636	3.227	3.458	2.168	1.072	-2.131	-5.051	-3.420	-6.532	125.000
1.122	2.797	1.736	3.358	2.831	1.633	0.312	-5.172	-7.228	-0.641	-6.003	-6.752	3.546	5.137	1.304	2.836	1.945	2.166	3.823	3.547	4.236	4.092	2.429	1.658	-3.407	-5.917	-2.958	-6.842	128.906
1.515	3.332	2.168	3.830	3.148	1.768	0.425	-6.467	-8.780	-0.838	-6.674	-6.887	4.332	5.974	1.589	3.539	2.423	2.378	4.290	4.283	5.079	4.592	2.584	2.229	-4.583	-6.497	-2.318	-6.867	132.812
1.795	3.681	2.487	4.115	3.285	1.802	0.525	-7.483	-9.893	-0.906	-6.995	-6.751	4.950	6.592	1.749	4.041	2.734	2.463	4.580	4.779	5.684	4.927	2.625	2.743	-5.557	-6.735	-1.534	-6.581	136.719
1.948	3.811	2.666	4.187	3.221	1.716	0.597	-8.154	-10.495	-0.840	-6.937	-6.321	5.357	6.937	1.772	4.298	2.846	2.403	4.665	4.983	5.998	5.075	2.553	3.170	-6.234	-6.594	-0.641	-5.977	140.625
1.968	3.710	2.689	4.037	2.956	1.504	0.629	-8.445	-10.560	-0.644	-6.503	-5.598	5.528	6.981	1.657	4.285	2.745	2.193	4.533	4.871	5.993	5.026	2.379	3.486	-6.543	-6.062	0.325	-5.070	144.531
1.857	3.382	2.554	3.677	2.510	1.172	0.616	-8.360	-10.116	-0.334	-5.735	-4.618	5.455	6.719	1.414	4.001	2.432	1.848	4.188	4.445	5.666	4.786	2.118	3.683	-6.446	-5.159	1.329	-3.902	148.438
1.625	2.857	2.272	3.134	1.915	0.742	0.558	-7.936	-9.232	0.060	-4.702	-3.445	5.150	6.173	1.058	3.470	1.927	1.400	3.650	3.741	5.046	4.372	1.791	3.760	-5.943	-3.931	2.332	-2.541	152.344
1.292	2.177	1.866	2.452	1.219	0.246	0.459	-7.239	-8.009	0.503	-3.496	-2.163	4.636	5.386	0.612	2.733	1.268	0.892	2.958	2.815	4.182	3.815	1.421	3.727	-5.071	-2.452	3.294	-1.068	156.250
0.877	1.397	1.367	1.682	0.468	-0.277	0.325	-6.346	-6.562	0.956	-2.215	-0.866	3.949	4.419	0.102	1.850	0.500	0.374	2.157	1.739	3.142	3.149	1.031	3.601	-3.897	-0.809	4.179	0.429	160.156
0.404	0.574	0.810	0.875	-0.290	-0.788	0.165	-5.337	-5.001	1.381	-0.944	0.364	3.127	3.336	-0.446	0.881	-0.325	-0.111	1.299	0.590	1.997	2.417	0.645	3.402	-2.511	0.905	4.956	1.868	164.062
-0.106	-0.242	0.229	0.077	-1.019	-1.254	-0.014	-4.280	-3.421	1.751	0.247	1.460	2.209	2.201	-1.005	-0.115	-1.160	-0.529	0.434	-0.564	0.815	1.657	0.279	3.148	-1.011	2.601	5.600	3.178	167.969
-0.634	-1.009	-0.344	-0.678	-1.695	-1.648	-0.201	-3.219	-1.893	2.052	1.319	2.383	1.233	1.067	-1.551	-1.088	-1.964	-0.859	-0.396	-1.669	-0.350	0.908	-0.050	2.858	0.505	4.205	6.097	4.315	171.875
-1.160	-1.703	-0.886	-1.373	-2.304	-1.956	-0.389	-2.183	-0.461	2.280	2.254	3.120	0.233	-0.028	-2.063	-2.006	-2.708	-1.095	-1.158	-2.690	-1.459	0.198	-0.335	2.549	1.954	5.662	6.446	5.256	175.781
-1.670	-2.312	-1.381	-2.002	-2.848	-2.172	-0.568	-1.179	0.852	2.447	3.056	3.684	-0.760	-1.058	-2.524	-2.851	-3.372	-1.239	-1.832	-3.614	-2.491	-0.447	-0.569	2.232	3.269	6.937	6.657	6.003	179.688
-2.149	-2.842	-1.820	-2.572	-3.330	-2.303	-0.729	-0.212	2.037	2.572	3.741	4.103	-1.717	-2.011	-2.921	-3.619	-3.949	-1.304	-2.408	-4.442	-3.441	-1.011	-0.753	1.917	4.407	8.015	6.750	6.577	183.594
-2.582	-3.305	-2.200	-3.093	-3.760	-2.360	-0.863	0.712	3.094	2.678	4.329	4.413	-2.608	-2.878	-3.242	-4.314	-4.436	-1.307	-2.885	-5.187	-4.308	-1.486	-0.890	1.616	5.346	8.897	6.759	7.011	187.500
-2.956	-3.714	-2.520	-3.573	-4.142	-2.360	-0.961	1.579	4.021	2.788	4.833	4.648	-3.406	-3.654	-3.482	-4.944	-4.840	-1.268	-3.267	-5.864	-5.094	-1.867	-0.984	1.339	6.083	9.595	6.720	7.339	191.406
-3.257	-4.084	-2.781	-4.018	-4.477	-2.322	-1.017	2.359	4.816	2.923	5.263	4.834	-4.080	-4.331	-3.639	-5.516	-5.165	-1.205	-3.561	-6.481	-5.795	-2.153	-1.040	1.099	6.629	10.123	6.668	7.589	195.312
-3.468	-4.420	-2.981	-4.422	-4.758	-2.263	-1.024	3.016	5.468	3.092	5.617	4.985	-4.602	-4.893	-3.715	-6.031	-5.420	-1.137	-3.775	-7.042	-6.403	-2.345	-1.060	0.909	7.001	10.494	6.634	7.775	199.219
-3.579	-4.721	-3.120	-4.776	-4.972	-2.197	-0.982	3.516	5.966	3.299	5.891	5.104	-4.946	-5.325	-3.719	-6.488	-5.615	-1.077	-3.917	-7.539	-6.900	-2.447	-1.044	0.783	7.222	10.721	6.638	7.903	203.125
-3.587	-4.983	-3.197	-5.070	-5.106	-2.136	-0.888	3.833	6.301	3.541	6.077	5.186	-5.094	-5.607	-3.667	-6.884	-5.758	-1.034	-3.994	-7.958	-7.269	-2.463	-0.995	0.735	7.315	10.816	6.689	7.969	207.031
-3.501	-5.201	-3.215	-5.294	-5.150	-2.085	-0.743	3.961	6.473	3.807	6.175	5.225	-5.036	-5.725	-3.584	-7.220	-5.863	-1.018	-4.017	-8.286	-7.496	-2.405	-0.914	0.774	7.303	10.795	6.786	7.968	210.938
-3.345	-5.377	-3.182	-5.446	-5.101	-2.046	-0.549	3.915	6.494	4.087	6.190	5.218	-4.771	-5.671	-3.500	-7.498	-5.943	-1.034	-3.998	-8.516	-7.575	-2.287	-0.810	0.904	7.209	10.680	6.923	7.902	214.844
-3.151	-5.515	-3.110	-5.530	-4.964	-2.015	-0.310	3.734	6.389	4.370	6.137	5.170	-4.314	-5.449	-3.449	-7.726	-6.014	-1.083	-3.950	-8.647	-7.510	-2.126	-0.697	1.122	7.052	10.496	7.089	7.781	218.750
-2.957	-5.626	-3.011	-5.556	-4.756	-1.982	-0.033	3.467	6.193	4.645	6.034	5.087	-3.692	-5.077	-3.455	-7.916	-6.088	-1.169	-3.888	-8.688	-7.318	-1.941	-0.593	1.418	6.854	10.271	7.269	7.619	222.656
-2.795	-5.723	-2.902	-5.539	-4.497	-1.940	0.271	3.168	5.946	4.900	5.900	4.982	-2.947	-4.581	-3.530	-8.078	-6.171	-1.291	-3.823	-8.657	-7.022	-1.748	-0.515	1.771	6.635	10.028	7.447	7.434	226.562
-2.686	-5.815	-2.793	-5.492	-4.212	-1.876	0.587	2.886	5.688	5.124	5.747	4.862	-2.130	-4.001	-3.671	-8.220	-6.265	-1.444	-3.765	-8.578	-6.651	-1.559	-0.476	2.152	6.415	9.784	7.601	7.238	230.469
-2.634	-5.906	-2.691	-5.426	-3.923	-1.785	0.898	2.661	5.453	5.306	5.584	4.731	-1.302	-3.378	-3.858	-8.346	-6.364	-1.619	-3.716	-8.474	-6.238	-1.382	-0.481	2.529	6.210	9.548	7.709	7.039	234.375
-2.626	-5.994	-2.600	-5.346	-3.646	-1.665	1.184	2.517	5.265	5.436	5.412	4.586	-0.527	-2.758	-4.064	-8.453	-6.459	-1.801	-3.677	-8.369	-5.812	-1.218	-0.523	2.866	6.035	9.318	7.745	6.836	238.281
-2.639	-6.070	-2.517	-5.253	-3.389	-1.518	1.430	2.470	5.139	5.506	5.230	4.422	0.136	-2.183	-4.256	-8.539	-6.536	-1.972	-3.644	-8.280	-5.402	-1.068	-0.590	3.131	5.898	9.088	7.685	6.620	242.188
-2.648	-6.124	-2.441	-5.141	-3.152	-1.351	1.623	2.524	5.083	5.513	5.039	4.229	0.641	-1.688	-4.409	-8.597	-6.589	-2.113	-3.613	-8.217	-5.029	-0.930	-0.659	3.300	5.802	8.847	7.511	6.380	246.094
-2.633	-6.146	-2.367	-5.006	-2.929	-1.172	1.758	2.679	5.094	5.460	4.842	4.001	0.954	-1.296	-4.509	-8.625	-6.612	-2.210	-3.576	-8.181	-4.710	-0.803	-0.709	3.358	5.744	8.586	7.213	6.103	250.000
-2.585	-6.132	-2.294	-4.847	-2.711	-0.991	1.838	2.926	5.164	5.353	4.643	3.734	1.064	-1.019	-4.553	-8.627	-6.606	-2.252	-3.528	-8.164	-4.451	-0.685	-0.717	3.302	5.721	8.303	6.795	5.782	253.906
-2.506	-6.083	-2.225	-4.665	-2.492	-0.815	1.871	3.252	5.282	5.207	4.451	3.430	0.981	-0.855	-4.553	-8.608	-6.576	-2.242	-3.461	-8.151	-4.251	-0.569	-0.666	3.148	5.727	8.003	6.276	5.418	257.812
-2.413	-6.009	-2.162	-4.473	-2.270	-0.651	1.872	3.638	5.431	5.036	4.273	3.098	0.736	-0.789	-4.529	-8.580	-6.531	-2.186	-3.371	-8.129	-4.100	-0.450	-0.547	2.922	5.762	7.703	5.693	5.023	261.719
-2.326	-5.925	-2.111	-4.287	-2.049	-0.506	1.856	4.055	5.595	4.859	4.117	2.753	0.375	-0.795	-4.507	-8.557	-6.480	-2.102	-3.256	-8.085	-3.985	-0.318	-0.357	2.664	5.828	7.426	5.096	4.619	265.625
-2.268	-5.851	-2.080	-4.128	-1.844	-0.385	1.842	4.470	5.757	4.696	3.987	2.417	-0.042	-0.842	-4.513	-8.552	-6.434	-2.005	-3.117	-8.011	-3.890	-0.166	-0.108	2.421	5.930	7.201	4.544	4.237	269.531
-2.264	-5.807	-2.076	-4.016	-1.669	-0.297	1.844	4.844	5.903	4.567	3.885	2.113	-0.450	-0.896	-4.572	-8.579	-6.402	-1.916	-2.961	-7.911	-3.802	0.010	0.183	2.237	6.076	7.056	4.095	3.910	273.438
-2.331	-5.812	-2.107	-3.969	-1.542	-0.250	1.875	5.141	6.019	4.487	3.814	1.864	-0.786	-0.923	-4.702	-8.649	-6.391	-1.848	-2.797	-7.793	-3.709	0.209	0.493	2.157	6.272	7.013	3.802	3.671	277.344
-2.483	-5.878	-2.176	-3.994	-1.474	-0.250	1.943	5.333	6.098	4.470	3.771	1.687	-0.993	-0.897	-4.911	-8.764	-6.406	-1.813	-2.635	-7.673	-3.606	0.429	0.799	2.209	6.520	7.083	3.700	3.544	281.250
-2.729	-6.009	-2.286	-4.087	-1.469	-0.302	2.054	5.403	6.131	4.519	3.753	1.591	-1.030	-0.797	-5.201	-8.922	-6.449	-1.817	-2.483	-7.560	-3.489	0.661	1.080	2.411	6.816	7.262	3.803	3.542	285.156
-3.070	-6.199	-2.433	-4.230	-1.517	-0.406	2.207	5.350	6.113	4.633	3.753	1.580	-0.875	-0.611	-5.562	-9.107	-6.514	-1.863	-2.343	-7.461	-3.352	0.896	1.322	2.758	7.144	7.529	4.101	3.661	289.062
-3.496	-6.430	-2.608	-4.395	-1.600	-0.554	2.397	5.188	6.038	4.801	3.762	1.647	-0.527	-0.338	-5.974	-9.297	-6.592	-1.951	-2.214	-7.370	-3.191	1.127	1.519	3.229	7.478	7.851	4.559	3.884	292.969
-3.990	-6.675	-2.796	-4.546	-1.690	-0.731	2.614	4.941	5.901	5.004	3.770	1.776	-0.008	0.015	-6.411	-9.461	-6.665	-2.075	-2.088	-7.271	-2.999	1.344	1.669	3.787	7.784	8.181	5.124	4.177	296.875
-4.522	-6.904	-2.978	-4.650	-1.759	-0.919	2.845	4.640	5.701	5.220	3.767	1.947	0.644	0.434	-6.840	-9.567	-6.713	-2.230	-1.956	-7.143	-2.767	1.543	1.776	4.380	8.024	8.467	5.730	4.497	300.781
-5.052	-7.083	-3.133	-4.679	-1.782	-1.096	3.073	4.315	5.437	5.423	3.739	2.133	1.374	0.895	-7.226	-9.581	-6.715	-2.406	-1.809	-6.961	-2.489	1.716	1.843	4.953	8.162	8.658	6.306	4.794	304.688
-5.535	-7.182	-3.240	-4.620	-1.741	-1.239	3.278	3.987	5.115	5.587	3.677	2.307	2.124	1.373	-7.538	-9.478	-6.648	-2.592	-1.640	-6.705	-2.162	1.861	1.873	5.454	8.168	8.712	6.785	5.020	308.594
-5.925	-7.176	-3.281	-4.472	-1.631	-1.331	3.436	3.672	4.741	5.688	3.569	2.437	2.834	1.841	-7.752	-9.242	-6.501	-2.772	-1.447	-6.364	-1.790	1.975	1.867	5.839	8.028	8.601	7.115	5.133	312.500
-6.180	-7.048	-3.245	-4.243	-1.456	-1.359	3.530	3.375	4.323	5.705	3.406	2.498	3.455	2.275	-7.852	-8.869	-6.267	-2.931	-1.234	-5.937	-1.383	2.057	1.824	6.076	7.742	8.318	7.262	5.104	316.406
-6.269	-6.792	-3.125	-3.951	-1.227	-1.316	3.543	3.094	3.875	5.623	3.180	2.468	3.945	2.651	-7.836	-8.371	-5.951	-3.052	-1.007	-5.439	-0.957	2.109	1.743	6.152	7.327	7.875	7.214	4.923	320.312
-6.184	-6.412	-2.925	-3.613	-0.960	-1.202	3.467	2.826	3.411	5.436	2.890	2.335	4.279	2.954	-7.715	-7.770	-5.568	-3.123	-0.779	-4.890	-0.531	2.132	1.626	6.072	6.813	7.305	6.980	4.597	324.219
-5.936	-5.923	-2.655	-3.247	-0.673	-1.024	3.303	2.571	2.949	5.145	2.541	2.100	4.445	3.172	-7.512	-7.100	-5.140	-3.138	-0.561	-4.317	-0.128	2.132	1.476	5.853	6.237	6.653	6.585	4.153	328.125
-5.560	-5.352	-2.335	-2.864	-0.384	-0.796	3.063	2.335	2.508	4.764	2.145	1.775	4.445	3.298	-7.255	-6.399	-4.692	-3.096	-0.365	-3.747	0.232	2.113	1.303	5.523	5.643	5.973	6.069	3.629	332.031
-5.108	-4.734	-1.991	-2.479	-0.109	-0.536	2.765	2.128	2.105	4.315	1.724	1.385	4.292	3.333	-6.979	-5.706	-4.248	-3.003	-0.196	-3.204	0.532	2.084	1.120	5.116	5.069	5.318	5.476	3.072	335.938
-4.641	-4.113	-1.654	-2.106	0.138	-0.266	2.435	1.963	1.757	3.827	1.307	0.965	4.008	3.280	-6.714	-5.060	-3.829	-2.868	-0.056	-2.708	0.762	2.054	0.946	4.670	4.550	4.733	4.851	2.533	339.844
-4.218	-3.533	-1.354	-1.761	0.345	-0.010	2.098	1.848	1.474	3.336	0.925	0.559	3.623	3.146	-6.481	-4.489	-3.449	-2.705	0.056	-2.270	0.916	2.030	0.796	4.220	4.111	4.254	4.239	2.059	343.750
-3.887	-3.036	-1.117	-1.463	0.503	0.213	1.780	1.788	1.263	2.877	0.610	0.207	3.169	2.944	-6.293	-4.014	-3.114	-2.528	0.148	-1.899	0.995	2.021	0.684	3.795	3.766	3.901	3.677	1.690	347.656
-3.676	-2.657	-0.959	-1.230	0.607	0.384	1.501	1.775	1.126	2.487	0.387	-0.054	2.683	2.692	-6.152	-3.646	-2.826	-2.350	0.227	-1.599	1.006	2.031	0.616	3.423	3.518	3.678	3.198	1.452	351.562
-3.591	-2.417	-0.888	-1.075	0.652	0.491	1.277	1.797	1.057	2.196	0.274	-0.198	2.200	2.410	-6.052	-3.387	-2.582	-2.187	0.298	-1.370	0.962	2.066	0.594	3.123	3.362	3.576	2.828	1.354	355.469
-3.621	-2.323	-0.900	-1.004	0.641	0.527	1.117	1.835	1.050	2.029	0.280	-0.215	1.760	2.123	-5.981	-3.231	-2.377	-2.051	0.366	-1.214	0.876	2.125	0.611	2.912	3.286	3.577	2.584	1.392	359.375
-3.741	-2.371	-0.983	-1.018	0.575	0.491	1.029	1.871	1.097	2.001	0.401	-0.105	1.397	1.862	-5.931	-3.169	-2.209	-1.954	0.431	-1.131	0.765	2.208	0.656	2.800	3.272	3.657	2.478	1.547	363.281
-3.922	-2.543	-1.119	-1.112	0.460	0.386	1.013	1.892	1.187	2.115	0.626	0.118	1.144	1.654	-5.894	-3.191	-2.078	-1.904	0.489	-1.122	0.646	2.312	0.715	2.795	3.303	3.798	2.516	1.795	367.188
-4.138	-2.813	-1.290	-1.276	0.304	0.219	1.070	1.891	1.311	2.361	0.936	0.435	1.027	1.525	-5.870	-3.285	-1.988	-1.904	0.533	-1.185	0.535	2.431	0.775	2.899	3.365	3.983	2.694	2.110	371.094
-4.366	-3.153	-1.479	-1.501	0.117	0.002	1.195	1.869	1.460	2.719	1.305	0.819	1.063	1.495	-5.862	-3.439	-1.943	-1.956	0.553	-1.313	0.445	2.559	0.825	3.110	3.443	4.202	3.003	2.469	375.000
-4.592	-3.530	-1.671	-1.772	-0.093	-0.255	1.378	1.835	1.621	3.156	1.707	1.246	1.256	1.572	-5.876	-3.641	-1.948	-2.054	0.542	-1.495	0.384	2.687	0.858	3.416	3.530	4.451	3.428	2.855	378.906
-4.808	-3.915	-1.854	-2.077	-0.314	-0.535	1.605	1.800	1.783	3.632	2.114	1.695	1.595	1.750	-5.915	-3.880	-2.006	-2.193	0.493	-1.717	0.357	2.807	0.873	3.801	3.622	4.725	3.945	3.260	382.812
-5.008	-4.281	-2.022	-2.397	-0.536	-0.827	1.858	1.773	1.935	4.106	2.506	2.155	2.057	2.012	-5.983	-4.141	-2.116	-2.363	0.405	-1.962	0.363	2.910	0.872	4.241	3.715	5.021	4.528	3.682	386.719
-5.189	-4.604	-2.166	-2.716	-0.748	-1.117	2.115	1.760	2.069	4.541	2.871	2.624	2.606	2.328	-6.076	-4.410	-2.274	-2.556	0.281	-2.213	0.394	2.988	0.859	4.707	3.809	5.329	5.149	4.128	390.625
-5.345	-4.871	-2.285	-3.015	-0.945	-1.397	2.352	1.756	2.177	4.905	3.207	3.108	3.199	2.663	-6.189	-4.673	-2.470	-2.763	0.130	-2.451	0.441	3.038	0.838	5.172	3.899	5.640	5.780	4.602	394.531
-5.470	-5.075	-2.377	-3.279	-1.120	-1.657	2.545	1.751	2.259	5.178	3.513	3.614	3.791	2.981	-6.310	-4.917	-2.688	-2.971	-0.036	-2.663	0.491	3.059	0.817	5.606	3.983	5.937	6.393	5.108	398.438
-5.556	-5.218	-2.442	-3.492	-1.267	-1.890	2.672	1.731	2.312	5.347	3.792	4.139	4.333	3.250	-6.425	-5.129	-2.910	-3.167	-0.199	-2.835	0.535	3.057	0.800	5.981	4.053	6.202	6.960	5.634	402.344
-5.594	-5.304	-2.480	-3.644	-1.382	-2.089	2.717	1.686	2.336	5.409	4.040	4.671	4.786	3.446	-6.518	-5.300	-3.116	-3.336	-0.343	-2.959	0.566	3.037	0.793	6.275	4.103	6.414	7.451	6.159	406.250
-5.573	-5.338	-2.491	-3.732	-1.461	-2.245	2.671	1.611	2.331	5.366	4.246	5.176	5.116	3.557	-6.570	-5.422	-3.283	-3.461	-0.452	-3.026	0.579	3.006	0.798	6.468	4.126	6.554	7.838	6.645	410.156
-5.484	-5.325	-2.475	-3.753	-1.499	-2.352	2.533	1.508	2.294	5.228	4.392	5.611	5.301	3.584	-6.571	-5.488	-3.396	-3.532	-0.516	-3.034	0.577	2.973	0.813	6.548	4.114	6.604	8.094	7.049	414.062
-5.325	-5.265	-2.430	-3.713	-1.493	-2.405	2.314	1.391	2.227	5.006	4.460	5.926	5.330	3.536	-6.514	-5.497	-3.442	-3.542	-0.531	-2.985	0.560	2.939	0.832	6.510	4.066	6.558	8.198	7.325	417.969
-5.103	-5.156	-2.357	-3.621	-1.442	-2.400	2.031	1.276	2.133	4.716	4.436	6.076	5.207	3.429	-6.407	-5.449	-3.419	-3.493	-0.501	-2.885	0.533	2.907	0.848	6.356	3.983	6.421	8.138	7.438	421.875
-4.832	-4.996	-2.259	-3.485	-1.349	-2.340	1.707	1.182	2.019	4.374	4.315	6.034	4.940	3.280	-6.265	-5.351	-3.332	-3.392	-0.438	-2.745	0.498	2.874	0.850	6.096	3.875	6.213	7.916	7.373	425.781
-4.538	-4.786	-2.142	-3.317	-1.222	-2.229	1.366	1.123	1.897	3.999	4.103	5.791	4.550	3.103	-6.109	-5.211	-3.192	-3.253	-0.356	-2.578	0.458	2.835	0.834	5.746	3.755	5.962	7.551	7.135	429.688
-4.247	-4.529	-2.013	-3.128	-1.073	-2.075	1.030	1.110	1.779	3.607	3.817	5.368	4.059	2.908	-5.958	-5.040	-3.016	-3.091	-0.271	-2.402	0.412	2.785	0.797	5.326	3.639	5.701	7.074	6.753	433.594
-3.983	-4.239	-1.882	-2.928	-0.920	-1.891	0.717	1.142	1.678	3.216	3.485	4.805	3.497	2.699	-5.830	-4.853	-2.821	-2.920	-0.198	-2.234	0.359	2.719	0.744	4.859	3.539	5.462	6.524	6.271	437.500
-3.762	-3.933	-1.757	-2.725	-0.782	-1.691	0.441	1.212	1.607	2.842	3.140	4.162	2.895	2.474	-5.731	-4.665	-2.625	-2.751	-0.146	-2.090	0.296	2.634	0.684	4.370	3.464	5.265	5.949	5.744	441.406
-3.592	-3.633	-1.647	-2.528	-0.674	-1.494	0.211	1.308	1.571	2.502	2.819	3.507	2.286	2.232	-5.661	-4.490	-2.445	-2.594	-0.123	-1.979	0.223	2.529	0.624	3.880	3.413	5.119	5.394	5.230	445.312
-3.468	-3.362	-1.557	-2.345	-0.610	-1.316	0.033	1.412	1.575	2.215	2.556	2.910	1.703	1.974	-5.614	-4.341	-2.291	-2.458	-0.133	-1.909	0.136	2.406	0.572	3.411	3.381	5.024	4.901	4.780	449.219
-3.380	-3.140	-1.488	-2.183	-0.596	-1.175	-0.090	1.503	1.615	1.999	2.378	2.432	1.183	1.703	-5.578	-4.227	-2.173	-2.348	-0.173	-1.876	0.037	2.272	0.528	2.985	3.355	4.970	4.502	4.435	453.125
-3.316	-2.983	-1.442	-2.049	-0.630	-1.080	-0.157	1.560	1.682	1.869	2.303	2.119	0.755	1.432	-5.545	-4.152	-2.092	-2.269	-0.237	-1.873	-0.070	2.134	0.488	2.620	3.324	4.946	4.222	4.221	457.031
-3.265	-2.896	-1.416	-1.950	-0.704	-1.038	-0.171	1.565	1.761	1.832	2.330	1.991	0.448	1.177	-5.508	-4.111	-2.049	-2.224	-0.316	-1.886	-0.176	2.005	0.442	2.335	3.278	4.939	4.071	4.147	460.938
-3.219	-2.878	-1.407	-1.889	-0.806	-1.048	-0.138	1.502	1.833	1.889	2.443	2.044	0.279	0.961	-5.466	-4.094	-2.038	-2.213	-0.396	-1.895	-0.266	1.900	0.383	2.147	3.213	4.941	4.047	4.202	464.844
-3.176	-2.917	-1.409	-1.864	-0.919	-1.105	-0.068	1.364	1.878	2.026	2.608	2.244	0.256	0.808	-5.422	-4.085	-2.051	-2.236	-0.463	-1.878	-0.322	1.833	0.307	2.064	3.132	4.944	4.132	4.358	468.750
-3.140	-2.993	-1.418	-1.867	-1.023	-1.196	0.025	1.155	1.878	2.220	2.783	2.538	0.375	0.738	-5.384	-4.064	-2.076	-2.289	-0.501	-1.815	-0.322	1.817	0.215	2.088	3.042	4.941	4.298	4.570	472.656
-3.115	-3.083	-1.429	-1.888	-1.101	-1.307	0.127	0.890	1.822	2.439	2.923	2.857	0.615	0.764	-5.361	-4.013	-2.100	-2.369	-0.497	-1.691	-0.251	1.862	0.115	2.210	2.954	4.928	4.503	4.787	476.562
-3.112	-3.161	-1.437	-1.911	-1.141	-1.420	0.220	0.597	1.708	2.647	2.986	3.130	0.946	0.889	-5.359	-3.917	-2.110	-2.469	-0.443	-1.500	-0.100	1.966	0.021	2.409	2.881	4.901	4.706	4.952	480.469
-3.138	-3.207	-1.439	-1.921	-1.132	-1.518	0.294	0.315	1.548	2.812	2.948	3.295	1.328	1.103	-5.385	-3.771	-2.095	-2.580	-0.338	-1.245	0.127	2.122	-0.051	2.657	2.831	4.856	4.864	5.017	484.375
-3.202	-3.205	-1.434	-1.907	-1.073	-1.582	0.343	0.088	1.362	2.909	2.800	3.313	1.719	1.385	-5.438	-3.576	-2.045	-2.693	-0.189	-0.940	0.415	2.313	-0.086	2.918	2.809	4.793	4.945	4.951	488.281
-3.310	-3.151	-1.422	-1.862	-0.967	-1.599	0.365	-0.045	1.177	2.927	2.553	3.166	2.078	1.705	-5.517	-3.347	-1.957	-2.794	-0.008	-0.609	0.738	2.517	-0.075	3.157	2.816	4.711	4.929	4.741	492.188
-3.462	-3.049	-1.403	-1.786	-0.824	-1.555	0.368	-0.057	1.023	2.867	2.233	2.866	2.369	2.027	-5.619	-3.105	-1.833	-2.876	0.189	-0.282	1.060	2.709	-0.018	3.341	2.849	4.615	4.813	4.397	496.094
-3.648	-2.916	-1.379	-1.685	-0.659	-1.447	0.360	0.064	0.927	2.744	1.877	2.447	2.569	2.316	-5.737	-2.876	-1.682	-2.933	0.380	0.006	1.346	2.866	0.081	3.447	2.903	4.512	4.609	3.950	500.000
-3.848	-2.773	-1.350	-1.573	-0.491	-1.275	0.350	0.306	0.906	2.576	1.527	1.958	2.662	2.539	-5.860	-2.686	-1.518	-2.964	0.546	0.224	1.562	2.968	0.207	3.461	2.972	4.412	4.344	3.447	503.906
-4.033	-2.642	-1.316	-1.463	-0.338	-1.048	0.344	0.640	0.968	2.387	1.220	1.456	2.646	2.669	-5.975	-2.559	-1.356	-2.969	0.668	0.347	1.683	3.002	0.345	3.382	3.052	4.323	4.050	2.943	507.812
-4.169	-2.543	-1.275	-1.369	-0.216	-0.781	0.343	1.026	1.103	2.194	0.983	0.998	2.528	2.693	-6.069	-2.508	-1.215	-2.950	0.732	0.361	1.695	2.960	0.476	3.220	3.135	4.254	3.762	2.490	511.719
-4.226	-2.485	-1.225	-1.299	-0.133	-0.492	0.339	1.415	1.290	2.006	0.828	0.630	2.325	2.609	-6.127	-2.536	-1.107	-2.905	0.732	0.268	1.601	2.845	0.586	2.992	3.216	4.208	3.511	2.138	515.625
-4.179	-2.463	-1.162	-1.254	-0.091	-0.198	0.319	1.761	1.492	1.822	0.749	0.386	2.058	2.428	-6.138	-2.631	-1.039	-2.829	0.668	0.086	1.418	2.668	0.664	2.719	3.286	4.184	3.318	1.918	519.531
-4.015	-2.459	-1.081	-1.225	-0.082	0.082	0.267	2.023	1.663	1.629	0.727	0.280	1.751	2.175	-6.092	-2.768	-1.008	-2.711	0.552	-0.151	1.175	2.446	0.706	2.422	3.331	4.172	3.190	1.844	523.438
-3.732	-2.445	-0.976	-1.202	-0.093	0.339	0.165	2.173	1.755	1.409	0.728	0.305	1.426	1.883	-5.983	-2.913	-1.004	-2.543	0.401	-0.401	0.910	2.202	0.710	2.118	3.336	4.155	3.120	1.909	527.344
-3.341	-2.389	-0.842	-1.169	-0.107	0.568	0.001	2.194	1.723	1.137	0.713	0.438	1.102	1.584	-5.807	-3.030	-1.006	-2.317	0.242	-0.621	0.659	1.961	0.681	1.816	3.283	4.109	3.083	2.082	531.250
-2.856	-2.263	-0.675	-1.114	-0.109	0.771	-0.231	2.088	1.535	0.796	0.643	0.637	0.793	1.311	-5.561	-3.086	-0.990	-2.030	0.100	-0.774	0.458	1.747	0.626	1.520	3.153	4.004	3.047	2.318	535.156
-2.297	-2.051	-0.476	-1.027	-0.088	0.954	-0.526	1.869	1.177	0.377	0.488	0.855	0.507	1.086	-5.242	-3.057	-0.934	-1.686	0.001	-0.835	0.328	1.578	0.558	1.226	2.932	3.811	2.970	2.554	539.062
-1.689	-1.750	-0.244	-0.906	-0.036	1.130	-0.868	1.567	0.662	-0.114	0.233	1.041	0.250	0.921	-4.849	-2.936	-0.820	-1.298	-0.037	-0.797	0.279	1.467	0.488	0.926	2.612	3.501	2.814	2.727	542.969
-1.056	-1.374	0.012	-0.751	0.050	1.309	-1.229	1.222	0.024	-0.656	-0.120	1.154	0.026	0.821	-4.385	-2.729	-0.639	-0.882	-0.008	-0.670	0.311	1.418	0.429	0.615	2.191	3.056	2.549	2.780	546.875
-0.424	-0.949	0.285	-0.566	0.169	1.500	-1.576	0.875	-0.679	-1.211	-0.545	1.166	-0.157	0.779	-3.859	-2.459	-0.400	-0.461	0.085	-0.477	0.410	1.427	0.389	0.290	1.678	2.468	2.159	2.674	550.781
0.182	-0.509	0.563	-0.360	0.318	1.707	-1.871	0.568	-1.377	-1.731	-1.004	1.071	-0.294	0.788	-3.286	-2.157	-0.120	-0.062	0.228	-0.248	0.558	1.484	0.374	-0.043	1.093	1.748	1.647	2.393	554.688
0.740	-0.093	0.833	-0.145	0.490	1.927	-2.081	0.334	-2.000	-2.165	-1.448	0.878	-0.375	0.838	-2.691	-1.857	0.172	0.287	0.397	-0.017	0.734	1.576	0.381	-0.373	0.464	0.926	1.034	1.952	558.594
1.234	0.264	1.083	0.067	0.674	2.151	-2.183	0.196	-2.485	-2.471	-1.831	0.611	-0.394	0.922	-2.104	-1.593	0.442	0.564	0.568	0.187	0.916	1.691	0.406	-0.680	-0.170	0.049	0.358	1.388	562.500
1.653	0.535	1.300	0.257	0.856	2.361	-2.169	0.161	-2.794	-2.621	-2.119	0.299	-0.350	1.029	-1.555	-1.389	0.661	0.754	0.716	0.342	1.084	1.815	0.441	-0.944	-0.768	-0.821	-0.335	0.759	566.406
1.991	0.701	1.474	0.408	1.022	2.537	-2.046	0.226	-2.911	-2.604	-2.292	-0.028	-0.249	1.151	-1.076	-1.261	0.805	0.849	0.821	0.437	1.219	1.941	0.479	-1.145	-1.285	-1.618	-0.996	0.126	570.312
2.248	0.758	1.593	0.502	1.154	2.655	-1.831	0.375	-2.842	-2.431	-2.347	-0.345	-0.104	1.276	-0.691	-1.214	0.863	0.856	0.871	0.465	1.307	2.061	0.512	-1.270	-1.685	-2.284	-1.581	-0.452	574.219
2.425	0.709	1.652	0.522	1.237	2.698	-1.555	0.589	-2.615	-2.127	-2.295	-0.634	0.067	1.394	-0.415	-1.246	0.835	0.788	0.859	0.430	1.336	2.167	0.535	-1.311	-1.941	-2.773	-2.054	-0.932	578.125
2.524	0.569	1.645	0.459	1.258	2.657	-1.251	0.843	-2.268	-1.730	-2.159	-0.883	0.240	1.489	-0.249	-1.343	0.733	0.668	0.787	0.334	1.298	2.252	0.543	-1.273	-2.041	-3.063	-2.393	-1.288	582.031
2.548	0.357	1.574	0.306	1.210	2.530	-0.954	1.113	-1.845	-1.287	-1.965	-1.086	0.395	1.549	-0.182	-1.489	0.579	0.522	0.664	0.184	1.192	2.306	0.536	-1.168	-1.990	-3.156	-2.592	-1.514	585.938
2.507	0.100	1.446	0.071	1.089	2.329	-0.695	1.377	-1.392	-0.842	-1.742	-1.239	0.512	1.558	-0.192	-1.664	0.400	0.379	0.504	-0.014	1.019	2.321	0.513	-1.015	-1.812	-3.078	-2.657	-1.621	589.844
2.413	-0.172	1.272	-0.233	0.902	2.072	-0.501	1.613	-0.953	-0.440	-1.520	-1.342	0.576	1.507	-0.250	-1.846	0.225	0.266	0.323	-0.255	0.787	2.291	0.478	-0.839	-1.541	-2.871	-2.606	-1.631	593.750
2.291	-0.433	1.073	-0.578	0.662	1.786	-0.390	1.802	-0.565	-0.120	-1.322	-1.397	0.580	1.389	-0.322	-2.013	0.080	0.205	0.142	-0.525	0.513	2.216	0.439	-0.666	-1.222	-2.590	-2.468	-1.572	597.656
2.168	-0.654	0.870	-0.931	0.393	1.500	-0.373	1.929	-0.266	0.090	-1.172	-1.409	0.521	1.206	-0.378	-2.145	-0.015	0.209	-0.020	-0.809	0.215	2.103	0.404	-0.520	-0.899	-2.291	-2.278	-1.472	601.562
2.076	-0.815	0.688	-1.253	0.120	1.246	-0.453	1.983	-0.084	0.166	-1.089	-1.388	0.405	0.966	-0.391	-2.222	-0.047	0.283	-0.143	-1.086	-0.084	1.964	0.381	-0.421	-0.615	-2.028	-2.073	-1.358	605.469
2.047	-0.901	0.552	-1.502	-0.125	1.050	-0.627	1.962	-0.047	0.097	-1.089	-1.349	0.242	0.686	-0.340	-2.229	-0.010	0.424	-0.213	-1.329	-0.357	1.821	0.379	-0.382	-0.402	-1.842	-1.891	-1.253	609.375
2.104	-0.899	0.479	-1.646	-0.316	0.932	-0.884	1.869	-0.173	-0.120	-1.184	-1.311	0.044	0.388	-0.210	-2.156	0.096	0.626	-0.218	-1.510	-0.579	1.695	0.402	-0.411	-0.286	-1.764	-1.766	-1.181	613.281
2.259	-0.804	0.481	-1.659	-0.430	0.902	-1.208	1.713	-0.471	-0.479	-1.384	-1.302	-0.171	0.099	0.002	-1.997	0.267	0.880	-0.152	-1.600	-0.729	1.610	0.451	-0.510	-0.281	-1.817	-1.727	-1.165	617.188
2.517	-0.614	0.565	-1.533	-0.455	0.964	-1.579	1.503	-0.939	-0.964	-1.692	-1.348	-0.388	-0.153	0.296	-1.750	0.498	1.173	-0.011	-1.575	-0.787	1.584	0.523	-0.676	-0.395	-2.011	-1.796	-1.228	621.094
2.869	-0.332	0.725	-1.277	-0.390	1.111	-1.976	1.249	-1.560	-1.555	-2.108	-1.475	-0.592	-0.342	0.663	-1.417	0.781	1.493	0.201	-1.421	-0.740	1.629	0.614	-0.905	-0.627	-2.348	-1.988	-1.391	625.000
3.298	0.035	0.953	-0.914	-0.243	1.331	-2.376	0.953	-2.304	-2.224	-2.622	-1.702	-0.773	-0.448	1.088	-1.005	1.109	1.826	0.478	-1.131	-0.583	1.746	0.719	-1.188	-0.967	-2.819	-2.309	-1.668	628.906
3.784	0.473	1.234	-0.479	-0.030	1.606	-2.760	0.614	-3.131	-2.941	-3.221	-2.038	-0.921	-0.459	1.553	-0.526	1.472	2.154	0.807	-0.714	-0.318	1.928	0.835	-1.516	-1.396	-3.404	-2.751	-2.063	632.812
4.301	0.965	1.550	-0.011	0.230	1.918	-3.111	0.229	-3.993	-3.675	-3.883	-2.479	-1.034	-0.372	2.041	0.004	1.857	2.461	1.172	-0.193	0.043	2.158	0.958	-1.874	-1.888	-4.073	-3.299	-2.564	636.719
4.823	1.487	1.879	0.454	0.514	2.247	-3.411	-0.199	-4.839	-4.389	-4.581	-3.007	-1.108	-0.197	2.531	0.560	2.248	2.732	1.555	0.401	0.481	2.415	1.086	-2.244	-2.407	-4.788	-3.924	-3.147	640.625
5.321	2.011	2.202	0.886	0.805	2.572	-3.648	-0.658	-5.617	-5.045	-5.277	-3.591	-1.144	0.050	3.002	1.116	2.623	2.954	1.934	1.025	0.967	2.676	1.216	-2.605	-2.915	-5.505	-4.590	-3.775	644.531
5.765	2.504	2.498	1.261	1.087	2.874	-3.806	-1.125	-6.278	-5.604	-5.930	-4.186	-1.136	0.345	3.430	1.637	2.957	3.122	2.286	1.633	1.466	2.920	1.340	-2.931	-3.374	-6.176	-5.250	-4.401	648.438
6.128	2.934	2.749	1.564	1.345	3.134	-3.873	-1.561	-6.781	-6.023	-6.489	-4.739	-1.080	0.662	3.789	2.089	3.221	3.229	2.588	2.182	1.943	3.130	1.452	-3.192	-3.748	-6.758	-5.853	-4.971	652.344
6.385	3.271	2.940	1.784	1.565	3.328	-3.839	-1.922	-7.093	-6.266	-6.906	-5.191	-0.968	0.976	4.049	2.441	3.392	3.269	2.820	2.632	2.358	3.293	1.542	-3.360	-4.007	-7.208	-6.344	-5.430	656.250
6.519	3.488	3.059	1.908	1.733	3.437	-3.701	-2.166	-7.197	-6.307	-7.136	-5.487	-0.795	1.266	4.187	2.667	3.451	3.237	2.964	2.953	2.682	3.407	1.602	-3.407	-4.130	-7.493	-6.674	-5.728	660.156
6.524	3.567	3.097	1.928	1.833	3.439	-3.464	-2.264	-7.094	-6.135	-7.152	-5.586	-0.562	1.517	4.187	2.755	3.391	3.129	3.015	3.129	2.891	3.475	1.632	-3.313	-4.109	-7.588	-6.802	-5.829	664.062
6.409	3.501	3.052	1.831	1.846	3.317	-3.147	-2.209	-6.807	-5.760	-6.946	-5.470	-0.278	1.717	4.048	2.705	3.222	2.945	2.977	3.157	2.974	3.505	1.636	-3.073	-3.943	-7.485	-6.707	-5.715	667.969
6.196	3.296	2.927	1.614	1.759	3.064	-2.780	-2.020	-6.376	-5.217	-6.539	-5.144	0.039	1.859	3.789	2.535	2.967	2.695	2.865	3.047	2.933	3.512	1.625	-2.692	-3.645	-7.191	-6.387	-5.395	671.875
5.918	2.974	2.731	1.277	1.569	2.680	-2.401	-1.744	-5.856	-4.557	-5.973	-4.646	0.360	1.939	3.443	2.275	2.660	2.397	2.699	2.824	2.781	3.510	1.613	-2.193	-3.237	-6.731	-5.866	-4.903	675.781
5.614	2.568	2.478	0.840	1.280	2.183	-2.051	-1.442	-5.309	-3.845	-5.313	-4.032	0.653	1.955	3.058	1.964	2.340	2.079	2.504	2.519	2.540	3.509	1.612	-1.613	-2.752	-6.146	-5.187	-4.294	679.688
5.322	2.123	2.192	0.333	0.915	1.606	-1.765	-1.180	-4.795	-3.148	-4.632	-3.375	0.887	1.910	2.685	1.644	2.044	1.772	2.303	2.168	2.241	3.518	1.627	-0.998	-2.229	-5.486	-4.412	-3.634	683.594
5.078	1.687	1.896	-0.199	0.503	0.993	-1.570	-1.013	-4.364	-2.527	-3.998	-2.750	1.035	1.807	2.378	1.355	1.803	1.510	2.115	1.809	1.914	3.537	1.659	-0.400	-1.714	-4.811	-3.614	-2.995	687.500
4.908	1.302	1.618	-0.706	0.084	0.397	-1.480	-0.978	-4.047	-2.027	-3.468	-2.222	1.081	1.653	2.182	1.128	1.639	1.319	1.950	1.474	1.587	3.561	1.701	0.131	-1.254	-4.180	-2.865	-2.443	691.406
4.826	1.003	1.383	-1.139	-0.305	-0.131	-1.493	-1.085	-3.856	-1.673	-3.076	-1.838	1.022	1.458	2.126	0.984	1.560	1.218	1.815	1.190	1.284	3.579	1.742	0.549	-0.892	-3.647	-2.233	-2.029	695.312
4.838	0.809	1.208	-1.457	-0.632	-0.547	-1.595	-1.315	-3.782	-1.471	-2.834	-1.622	0.867	1.236	2.222	0.933	1.566	1.212	1.711	0.978	1.024	3.582	1.769	0.824	-0.663	-3.255	-1.769	-1.787	699.219
4.934	0.727	1.107	-1.637	-0.872	-0.820	-1.764	-1.630	-3.805	-1.412	-2.732	-1.577	0.635	1.002	2.459	0.972	1.643	1.294	1.637	0.847	0.819	3.560	1.772	0.939	-0.588	-3.027	-1.504	-1.725	703.125
5.097	0.750	1.081	-1.670	-1.016	-0.936	-1.974	-1.978	-3.897	-1.475	-2.750	-1.684	0.353	0.772	2.807	1.090	1.772	1.447	1.588	0.803	0.674	3.506	1.746	0.895	-0.669	-2.969	-1.445	-1.836	707.031
5.301	0.863	1.126	-1.566	-1.063	-0.899	-2.201	-2.307	-4.030	-1.634	-2.858	-1.914	0.050	0.565	3.221	1.267	1.933	1.646	1.561	0.840	0.592	3.423	1.687	0.711	-0.891	-3.067	-1.575	-2.090	710.938
5.519	1.042	1.228	-1.354	-1.027	-0.731	-2.425	-2.574	-4.181	-1.863	-3.029	-2.227	-0.248	0.394	3.652	1.481	2.102	1.864	1.552	0.946	0.570	3.314	1.602	0.417	-1.218	-3.287	-1.860	-2.447	714.844
5.727	1.261	1.369	-1.074	-0.927	-0.465	-2.631	-2.750	-4.332	-2.138	-3.237	-2.584	-0.517	0.270	4.053	1.707	2.266	2.079	1.559	1.102	0.601	3.191	1.501	0.052	-1.609	-3.586	-2.251	-2.861	718.750
5.906	1.492	1.527	-0.776	-0.792	-0.144	-2.809	-2.828	-4.473	-2.436	-3.459	-2.947	-0.740	0.200	4.389	1.924	2.415	2.270	1.583	1.285	0.678	3.066	1.397	-0.343	-2.016	-3.917	-2.693	-3.284	722.656
6.045	1.710	1.681	-0.510	-0.650	0.187	-2.957	-2.816	-4.599	-2.735	-3.677	-3.282	-0.905	0.182	4.640	2.112	2.547	2.422	1.624	1.470	0.788	2.953	1.305	-0.729	-2.394	-4.233	-3.134	-3.673	726.562
6.142	1.892	1.812	-0.318	-0.527	0.486	-3.072	-2.739	-4.707	-3.014	-3.877	-3.564	-1.006	0.213	4.807	2.259	2.665	2.526	1.681	1.631	0.916	2.866	1.240	-1.070	-2.710	-4.498	-3.529	-3.996	730.469
6.201	2.025	1.908	-0.226	-0.446	0.722	-3.154	-2.627	-4.803	-3.254	-4.046	-3.772	-1.044	0.280	4.903	2.356	2.774	2.576	1.754	1.751	1.048	2.816	1.212	-1.340	-2.941	-4.684	-3.843	-4.227	734.375
6.233	2.101	1.964	-0.245	-0.419	0.877	-3.205	-2.515	-4.892	-3.439	-4.176	-3.898	-1.021	0.373	4.951	2.405	2.875	2.574	1.837	1.819	1.168	2.811	1.226	-1.522	-3.081	-4.779	-4.053	-4.354	738.281
6.249	2.120	1.982	-0.364	-0.450	0.943	-3.224	-2.433	-4.982	-3.556	-4.265	-3.940	-0.944	0.477	4.977	2.411	2.965	2.528	1.922	1.833	1.265	2.854	1.281	-1.605	-3.132	-4.780	-4.149	-4.375	742.188
6.265	2.088	1.968	-0.561	-0.535	0.924	-3.211	-2.410	-5.080	-3.596	-4.310	-3.905	-0.818	0.584	4.999	2.384	3.035	2.451	1.997	1.800	1.331	2.941	1.369	-1.588	-3.109	-4.695	-4.127	-4.295	746.094
6.287	2.012	1.927	-0.806	-0.663	0.828	-3.167	-2.465	-5.191	-3.557	-4.312	-3.807	-0.651	0.687	5.026	2.331	3.071	2.362	2.047	1.734	1.364	3.060	1.475	-1.471	-3.025	-4.534	-3.994	-4.128	750.000
6.313	1.898	1.867	-1.070	-0.819	0.669	-3.092	-2.605	-5.310	-3.440	-4.272	-3.661	-0.447	0.788	5.052	2.261	3.059	2.276	2.062	1.649	1.368	3.197	1.585	-1.260	-2.897	-4.308	-3.756	-3.887	753.906
6.333	1.750	1.788	-1.327	-0.988	0.463	-2.987	-2.827	-5.425	-3.250	-4.191	-3.480	-0.211	0.889	5.066	2.177	2.986	2.203	2.032	1.558	1.349	3.335	1.682	-0.965	-2.736	-4.028	-3.424	-3.588	757.812
6.328	1.573	1.692	-1.558	-1.157	0.222	-2.856	-3.112	-5.521	-2.995	-4.066	-3.277	0.050	0.994	5.049	2.081	2.849	2.147	1.955	1.471	1.315	3.457	1.754	-0.598	-2.551	-3.700	-3.011	-3.243	761.719
6.282	1.367	1.579	-1.755	-1.315	-0.037	-2.706	-3.432	-5.576	-2.691	-3.898	-3.058	0.326	1.106	4.990	1.971	2.651	2.099	1.834	1.389	1.272	3.549	1.793	-0.178	-2.351	-3.334	-2.530	-2.864	765.625
6.184	1.136	1.452	-1.913	-1.453	-0.302	-2.546	-3.748	-5.573	-2.354	-3.687	-2.825	0.604	1.222	4.881	1.844	2.404	2.044	1.678	1.308	1.224	3.601	1.795	0.269	-2.144	-2.936	-2.000	-2.460	769.531
6.036	0.885	1.317	-2.030	-1.567	-0.557	-2.386	-4.020	-5.499	-2.004	-3.435	-2.579	0.865	1.333	4.724	1.698	2.126	1.958	1.502	1.221	1.170	3.608	1.760	0.717	-1.937	-2.515	-1.440	-2.037	773.438
5.849	0.622	1.185	-2.107	-1.652	-0.790	-2.234	-4.212	-5.346	-1.659	-3.146	-2.316	1.093	1.429	4.522	1.534	1.837	1.819	1.319	1.116	1.108	3.570	1.693	1.139	-1.738	-2.078	-0.867	-1.598	777.344
5.644	0.357	1.066	-2.144	-1.703	-0.994	-2.095	-4.297	-5.117	-1.332	-2.822	-2.031	1.277	1.499	4.286	1.351	1.554	1.606	1.143	0.984	1.035	3.490	1.600	1.514	-1.553	-1.629	-0.297	-1.145	781.250
5.440	0.097	0.970	-2.145	-1.719	-1.167	-1.971	-4.267	-4.821	-1.032	-2.468	-1.720	1.409	1.536	4.025	1.154	1.288	1.309	0.981	0.820	0.948	3.374	1.486	1.830	-1.383	-1.172	0.261	-0.677	785.156
5.252	-0.150	0.900	-2.113	-1.704	-1.311	-1.859	-4.129	-4.472	-0.757	-2.089	-1.382	1.496	1.540	3.746	0.944	1.044	0.929	0.838	0.623	0.848	3.229	1.357	2.091	-1.227	-0.706	0.808	-0.191	789.062
5.087	-0.387	0.853	-2.059	-1.667	-1.437	-1.755	-3.912	-4.088	-0.500	-1.691	-1.020	1.548	1.518	3.459	0.727	0.819	0.484	0.710	0.398	0.737	3.067	1.221	2.309	-1.081	-0.232	1.347	0.313	792.969
4.940	-0.618	0.819	-1.998	-1.620	-1.556	-1.653	-3.654	-3.691	-0.252	-1.283	-0.641	1.584	1.480	3.170	0.505	0.605	-0.001	0.593	0.155	0.619	2.900	1.084	2.507	-0.939	0.249	1.885	0.831	796.875
