FP1	F3	F7	FC3	C3	C5	P3	P7	PO7	PO3	O1	Oz	Pz	CPz	FP2	Fz	F4	F8	FC4	FCz	Cz	C4	C6	P4	P8	PO8	PO4	O2	time
-1.626	-0.231	-0.732	0.199	-0.696	-1.444	-0.421	-0.758	0.563	0.017	0.125	0.906	0.272	-0.150	-1.519	-0.106	-0.611	-1.375	-0.119	0.736	0.052	0.904	0.509	0.656	1.433	1.630	1.184	1.334	-199.219
-1.341	-0.246	-0.573	0.180	-0.311	-1.023	-0.321	-0.323	0.436	-0.000	0.089	0.499	0.342	0.018	-1.147	0.119	-0.445	-1.164	-0.111	0.795	0.198	0.691	0.312	0.539	1.110	1.082	0.904	0.698	-195.312
-1.069	-0.251	-0.419	0.169	0.048	-0.643	-0.228	0.051	0.314	-0.017	0.055	0.138	0.411	0.180	-0.795	0.324	-0.280	-0.977	-0.094	0.861	0.341	0.506	0.140	0.437	0.784	0.563	0.653	0.119	-191.406
-0.818	-0.238	-0.278	0.172	0.353	-0.336	-0.146	0.319	0.200	-0.034	0.018	-0.145	0.476	0.331	-0.473	0.497	-0.115	-0.822	-0.063	0.939	0.479	0.373	0.015	0.362	0.456	0.096	0.451	-0.361	-187.500
-0.593	-0.205	-0.152	0.194	0.586	-0.118	-0.082	0.455	0.096	-0.051	-0.025	-0.333	0.537	0.465	-0.194	0.627	0.048	-0.701	-0.014	1.029	0.611	0.305	-0.052	0.319	0.129	-0.302	0.308	-0.718	-183.594
-0.391	-0.151	-0.040	0.239	0.736	0.012	-0.035	0.454	0.003	-0.071	-0.070	-0.426	0.589	0.575	0.032	0.713	0.203	-0.612	0.052	1.128	0.733	0.304	-0.061	0.306	-0.190	-0.619	0.218	-0.947	-179.688
-0.211	-0.078	0.060	0.308	0.804	0.069	-0.004	0.335	-0.076	-0.090	-0.116	-0.436	0.630	0.658	0.194	0.760	0.339	-0.543	0.130	1.228	0.843	0.360	-0.024	0.313	-0.490	-0.853	0.167	-1.060	-175.781
-0.049	0.010	0.151	0.398	0.799	0.078	0.018	0.131	-0.142	-0.107	-0.157	-0.386	0.657	0.710	0.288	0.775	0.448	-0.483	0.210	1.321	0.938	0.455	0.041	0.326	-0.758	-1.004	0.133	-1.080	-171.875
0.095	0.109	0.235	0.500	0.734	0.065	0.039	-0.112	-0.194	-0.119	-0.190	-0.305	0.669	0.733	0.317	0.771	0.525	-0.419	0.282	1.394	1.016	0.569	0.115	0.333	-0.979	-1.081	0.100	-1.035	-167.969
0.219	0.211	0.310	0.603	0.627	0.050	0.068	-0.352	-0.236	-0.125	-0.217	-0.218	0.667	0.731	0.293	0.759	0.569	-0.338	0.339	1.441	1.072	0.679	0.179	0.324	-1.141	-1.098	0.054	-0.956	-164.062
0.324	0.310	0.372	0.693	0.493	0.041	0.113	-0.550	-0.277	-0.125	-0.243	-0.151	0.651	0.711	0.239	0.749	0.585	-0.234	0.376	1.455	1.104	0.771	0.220	0.292	-1.235	-1.073	-0.011	-0.868	-160.156
0.410	0.398	0.417	0.757	0.347	0.040	0.174	-0.684	-0.328	-0.126	-0.278	-0.123	0.622	0.680	0.183	0.750	0.581	-0.104	0.391	1.435	1.110	0.831	0.237	0.237	-1.261	-1.028	-0.096	-0.795	-156.250
0.483	0.469	0.440	0.789	0.203	0.039	0.245	-0.746	-0.402	-0.135	-0.333	-0.143	0.581	0.647	0.151	0.764	0.570	0.048	0.390	1.386	1.089	0.855	0.232	0.160	-1.223	-0.986	-0.196	-0.749	-152.344
0.546	0.522	0.442	0.788	0.073	0.028	0.317	-0.747	-0.504	-0.159	-0.418	-0.213	0.529	0.615	0.157	0.793	0.558	0.211	0.381	1.317	1.043	0.845	0.216	0.065	-1.137	-0.963	-0.305	-0.739	-148.438
0.603	0.559	0.424	0.762	-0.030	-0.001	0.377	-0.706	-0.637	-0.204	-0.533	-0.325	0.471	0.588	0.205	0.834	0.551	0.373	0.372	1.239	0.979	0.807	0.198	-0.041	-1.019	-0.969	-0.417	-0.763	-144.531
0.653	0.586	0.392	0.727	-0.096	-0.049	0.415	-0.650	-0.787	-0.268	-0.671	-0.463	0.411	0.566	0.280	0.878	0.548	0.518	0.370	1.161	0.904	0.752	0.185	-0.150	-0.892	-1.005	-0.522	-0.809	-140.625
0.690	0.610	0.354	0.697	-0.115	-0.112	0.424	-0.603	-0.935	-0.344	-0.815	-0.606	0.355	0.548	0.360	0.918	0.545	0.631	0.376	1.088	0.829	0.689	0.179	-0.253	-0.776	-1.062	-0.611	-0.862	-136.719
0.708	0.635	0.320	0.688	-0.082	-0.176	0.403	-0.578	-1.055	-0.422	-0.947	-0.736	0.310	0.534	0.421	0.941	0.537	0.700	0.391	1.018	0.763	0.629	0.179	-0.339	-0.686	-1.122	-0.675	-0.902	-132.812
0.699	0.659	0.294	0.701	-0.002	-0.224	0.357	-0.576	-1.122	-0.489	-1.044	-0.836	0.280	0.521	0.443	0.936	0.514	0.720	0.407	0.943	0.713	0.580	0.182	-0.399	-0.628	-1.167	-0.703	-0.914	-128.906
0.658	0.676	0.279	0.731	0.114	-0.241	0.295	-0.587	-1.116	-0.534	-1.092	-0.894	0.266	0.504	0.419	0.889	0.472	0.692	0.418	0.851	0.677	0.548	0.187	-0.425	-0.600	-1.178	-0.688	-0.883	-125.000
0.585	0.673	0.272	0.757	0.248	-0.220	0.224	-0.590	-1.032	-0.550	-1.082	-0.908	0.262	0.479	0.355	0.793	0.407	0.624	0.416	0.728	0.646	0.531	0.192	-0.412	-0.589	-1.139	-0.624	-0.804	-121.094
0.484	0.634	0.263	0.752	0.371	-0.161	0.151	-0.564	-0.878	-0.536	-1.015	-0.877	0.256	0.436	0.265	0.640	0.317	0.533	0.393	0.561	0.605	0.525	0.201	-0.359	-0.577	-1.038	-0.510	-0.675	-117.188
0.362	0.546	0.241	0.688	0.454	-0.078	0.077	-0.492	-0.674	-0.496	-0.898	-0.806	0.236	0.364	0.168	0.431	0.203	0.441	0.346	0.345	0.536	0.521	0.217	-0.268	-0.537	-0.870	-0.348	-0.498	-113.281
0.229	0.405	0.195	0.544	0.473	0.011	-0.001	-0.366	-0.448	-0.439	-0.742	-0.699	0.184	0.252	0.082	0.172	0.069	0.368	0.275	0.080	0.422	0.508	0.244	-0.147	-0.450	-0.633	-0.148	-0.278	-109.375
0.095	0.214	0.117	0.313	0.409	0.082	-0.090	-0.194	-0.228	-0.374	-0.559	-0.560	0.090	0.092	0.022	-0.123	-0.078	0.332	0.183	-0.225	0.251	0.476	0.280	-0.008	-0.300	-0.336	0.073	-0.026	-105.469
-0.029	-0.007	0.008	0.008	0.260	0.117	-0.195	0.005	-0.038	-0.312	-0.362	-0.397	-0.051	-0.120	-0.007	-0.434	-0.230	0.338	0.077	-0.552	0.022	0.417	0.324	0.134	-0.085	0.006	0.297	0.244	-101.562
-0.132	-0.233	-0.125	-0.347	0.038	0.105	-0.322	0.203	0.110	-0.260	-0.158	-0.215	-0.235	-0.376	-0.003	-0.736	-0.376	0.378	-0.034	-0.880	-0.254	0.328	0.368	0.263	0.183	0.372	0.497	0.515	-97.656
-0.203	-0.434	-0.266	-0.714	-0.232	0.047	-0.467	0.369	0.210	-0.223	0.040	-0.026	-0.448	-0.661	0.031	-1.005	-0.504	0.435	-0.141	-1.182	-0.557	0.209	0.403	0.363	0.482	0.732	0.651	0.768	-93.750
-0.234	-0.583	-0.396	-1.054	-0.513	-0.045	-0.623	0.480	0.264	-0.205	0.222	0.159	-0.668	-0.949	0.090	-1.217	-0.606	0.489	-0.235	-1.435	-0.858	0.067	0.418	0.423	0.778	1.054	0.735	0.979	-89.844
-0.218	-0.662	-0.495	-1.330	-0.768	-0.148	-0.774	0.522	0.281	-0.203	0.374	0.321	-0.870	-1.208	0.171	-1.355	-0.669	0.520	-0.310	-1.617	-1.128	-0.092	0.405	0.432	1.031	1.303	0.734	1.129	-85.938
-0.156	-0.665	-0.549	-1.510	-0.958	-0.236	-0.903	0.498	0.269	-0.215	0.482	0.443	-1.027	-1.406	0.271	-1.408	-0.686	0.519	-0.360	-1.715	-1.335	-0.255	0.358	0.387	1.205	1.447	0.642	1.197	-82.031
-0.057	-0.599	-0.549	-1.577	-1.058	-0.284	-0.990	0.425	0.238	-0.232	0.534	0.510	-1.120	-1.516	0.388	-1.375	-0.651	0.484	-0.383	-1.724	-1.457	-0.410	0.276	0.290	1.268	1.459	0.466	1.173	-78.125
0.062	-0.479	-0.495	-1.524	-1.054	-0.274	-1.017	0.326	0.199	-0.244	0.526	0.515	-1.138	-1.517	0.511	-1.261	-0.562	0.423	-0.376	-1.646	-1.478	-0.543	0.162	0.151	1.203	1.330	0.224	1.055	-74.219
0.178	-0.329	-0.395	-1.360	-0.947	-0.199	-0.973	0.232	0.159	-0.236	0.461	0.457	-1.077	-1.405	0.625	-1.082	-0.422	0.349	-0.335	-1.495	-1.396	-0.641	0.028	-0.018	1.008	1.067	-0.056	0.854	-70.312
0.267	-0.175	-0.262	-1.102	-0.753	-0.066	-0.854	0.168	0.129	-0.197	0.353	0.349	-0.947	-1.189	0.709	-0.858	-0.240	0.274	-0.263	-1.287	-1.224	-0.692	-0.111	-0.198	0.701	0.694	-0.340	0.592	-66.406
0.308	-0.038	-0.116	-0.781	-0.498	0.110	-0.662	0.151	0.115	-0.117	0.223	0.209	-0.764	-0.894	0.741	-0.613	-0.029	0.207	-0.162	-1.047	-0.986	-0.695	-0.239	-0.372	0.311	0.255	-0.593	0.300	-62.500
0.289	0.067	0.027	-0.428	-0.211	0.305	-0.410	0.188	0.123	0.006	0.096	0.063	-0.549	-0.553	0.703	-0.374	0.189	0.155	-0.043	-0.799	-0.713	-0.653	-0.341	-0.522	-0.117	-0.199	-0.787	0.012	-58.594
0.210	0.133	0.152	-0.079	0.075	0.493	-0.120	0.272	0.158	0.168	-0.002	-0.063	-0.329	-0.208	0.591	-0.166	0.391	0.119	0.079	-0.568	-0.442	-0.580	-0.409	-0.636	-0.535	-0.613	-0.906	-0.237	-54.688
0.084	0.161	0.245	0.232	0.331	0.647	0.184	0.386	0.221	0.356	-0.049	-0.149	-0.128	0.102	0.412	-0.009	0.553	0.096	0.185	-0.378	-0.211	-0.499	-0.439	-0.707	-0.894	-0.936	-0.943	-0.421	-50.781
-0.071	0.156	0.299	0.475	0.533	0.746	0.471	0.507	0.310	0.553	-0.033	-0.176	0.033	0.343	0.187	0.085	0.652	0.080	0.256	-0.243	-0.047	-0.433	-0.436	-0.735	-1.149	-1.128	-0.905	-0.520	-46.875
-0.230	0.127	0.312	0.631	0.662	0.780	0.714	0.607	0.420	0.735	0.051	-0.138	0.140	0.492	-0.056	0.110	0.670	0.063	0.275	-0.176	0.032	-0.404	-0.411	-0.720	-1.265	-1.163	-0.802	-0.523	-42.969
-0.370	0.080	0.283	0.688	0.708	0.745	0.887	0.664	0.542	0.882	0.196	-0.034	0.186	0.542	-0.290	0.070	0.599	0.036	0.235	-0.178	0.021	-0.426	-0.377	-0.667	-1.222	-1.032	-0.650	-0.428	-39.062
-0.475	0.022	0.220	0.645	0.665	0.648	0.976	0.665	0.664	0.977	0.386	0.128	0.172	0.496	-0.491	-0.023	0.442	-0.012	0.134	-0.243	-0.069	-0.502	-0.348	-0.579	-1.014	-0.742	-0.461	-0.243	-35.156
-0.537	-0.044	0.129	0.511	0.537	0.505	0.976	0.608	0.770	1.011	0.598	0.333	0.108	0.373	-0.643	-0.152	0.212	-0.087	-0.015	-0.358	-0.220	-0.624	-0.334	-0.460	-0.653	-0.314	-0.245	0.019	-31.250
-0.554	-0.116	0.023	0.304	0.338	0.335	0.893	0.506	0.845	0.981	0.804	0.561	0.008	0.196	-0.739	-0.296	-0.065	-0.192	-0.195	-0.506	-0.403	-0.775	-0.339	-0.315	-0.168	0.215	-0.009	0.338	-27.344
-0.534	-0.189	-0.087	0.049	0.089	0.159	0.745	0.377	0.870	0.892	0.976	0.787	-0.108	-0.004	-0.781	-0.434	-0.357	-0.323	-0.382	-0.666	-0.591	-0.932	-0.356	-0.147	0.397	0.799	0.242	0.688	-23.438
-0.488	-0.262	-0.191	-0.226	-0.183	-0.007	0.553	0.247	0.835	0.755	1.090	0.988	-0.221	-0.199	-0.778	-0.551	-0.630	-0.467	-0.550	-0.821	-0.756	-1.069	-0.374	0.038	0.987	1.387	0.504	1.035	-19.531
-0.427	-0.329	-0.280	-0.494	-0.449	-0.151	0.348	0.138	0.737	0.588	1.131	1.145	-0.312	-0.363	-0.742	-0.635	-0.855	-0.611	-0.679	-0.957	-0.881	-1.165	-0.379	0.232	1.544	1.927	0.770	1.350	-15.625
-0.362	-0.390	-0.348	-0.734	-0.679	-0.266	0.154	0.065	0.581	0.409	1.095	1.245	-0.365	-0.475	-0.686	-0.686	-1.011	-0.736	-0.758	-1.066	-0.957	-1.208	-0.364	0.427	2.011	2.375	1.033	1.605	-11.719
-0.300	-0.444	-0.392	-0.928	-0.852	-0.351	-0.005	0.034	0.385	0.239	0.992	1.286	-0.370	-0.524	-0.623	-0.708	-1.090	-0.829	-0.787	-1.148	-0.982	-1.193	-0.326	0.612	2.348	2.700	1.283	1.784	-7.812
-0.243	-0.493	-0.412	-1.071	-0.951	-0.407	-0.114	0.040	0.174	0.094	0.843	1.276	-0.323	-0.507	-0.565	-0.709	-1.100	-0.884	-0.775	-1.205	-0.964	-1.125	-0.274	0.781	2.527	2.886	1.507	1.880	-3.906
-0.190	-0.535	-0.408	-1.158	-0.968	-0.434	-0.162	0.071	-0.022	-0.011	0.674	1.229	-0.227	-0.428	-0.522	-0.700	-1.055	-0.900	-0.739	-1.240	-0.911	-1.018	-0.220	0.924	2.541	2.933	1.692	1.898	0.000
-0.142	-0.569	-0.380	-1.188	-0.903	-0.430	-0.149	0.111	-0.173	-0.064	0.515	1.166	-0.091	-0.299	-0.498	-0.688	-0.977	-0.887	-0.699	-1.255	-0.832	-0.889	-0.180	1.033	2.399	2.850	1.824	1.851	3.906
-0.097	-0.586	-0.328	-1.163	-0.764	-0.390	-0.076	0.148	-0.255	-0.059	0.392	1.103	0.075	-0.134	-0.493	-0.678	-0.888	-0.858	-0.672	-1.248	-0.737	-0.756	-0.168	1.103	2.122	2.653	1.888	1.755	7.812
-0.059	-0.580	-0.253	-1.082	-0.560	-0.310	0.050	0.175	-0.252	0.003	0.325	1.054	0.255	0.048	-0.503	-0.672	-0.804	-0.830	-0.667	-1.218	-0.631	-0.636	-0.189	1.126	1.740	2.363	1.877	1.622	11.719
-0.035	-0.542	-0.156	-0.948	-0.306	-0.182	0.220	0.192	-0.161	0.121	0.322	1.023	0.434	0.231	-0.522	-0.666	-0.738	-0.816	-0.687	-1.161	-0.515	-0.541	-0.243	1.101	1.287	2.002	1.788	1.463	15.625
-0.032	-0.472	-0.040	-0.769	-0.019	-0.007	0.424	0.208	0.006	0.284	0.381	1.004	0.598	0.400	-0.541	-0.660	-0.691	-0.822	-0.726	-1.079	-0.394	-0.480	-0.322	1.027	0.800	1.593	1.627	1.283	19.531
-0.055	-0.374	0.086	-0.555	0.283	0.215	0.651	0.237	0.225	0.479	0.488	0.985	0.737	0.544	-0.557	-0.651	-0.660	-0.846	-0.774	-0.975	-0.271	-0.454	-0.413	0.909	0.313	1.160	1.408	1.080	23.438
-0.108	-0.258	0.214	-0.325	0.582	0.470	0.887	0.289	0.462	0.689	0.623	0.953	0.841	0.655	-0.569	-0.639	-0.640	-0.882	-0.819	-0.857	-0.152	-0.463	-0.500	0.756	-0.139	0.728	1.157	0.857	27.344
-0.188	-0.138	0.334	-0.096	0.858	0.740	1.119	0.367	0.687	0.896	0.766	0.897	0.909	0.729	-0.585	-0.626	-0.623	-0.918	-0.854	-0.739	-0.046	-0.505	-0.573	0.583	-0.527	0.323	0.904	0.619	31.250
-0.294	-0.028	0.433	0.108	1.091	0.997	1.334	0.464	0.872	1.089	0.902	0.822	0.939	0.764	-0.615	-0.615	-0.609	-0.947	-0.878	-0.634	0.034	-0.576	-0.623	0.407	-0.826	-0.024	0.688	0.384	35.156
-0.420	0.057	0.500	0.267	1.261	1.209	1.519	0.565	1.005	1.259	1.029	0.745	0.938	0.756	-0.676	-0.614	-0.599	-0.965	-0.897	-0.558	0.076	-0.670	-0.651	0.247	-1.017	-0.283	0.548	0.180	39.062
-0.564	0.102	0.523	0.357	1.348	1.342	1.662	0.651	1.086	1.408	1.152	0.693	0.910	0.703	-0.779	-0.633	-0.601	-0.974	-0.923	-0.529	0.066	-0.781	-0.658	0.125	-1.085	-0.423	0.523	0.043	42.969
-0.726	0.094	0.492	0.355	1.335	1.370	1.759	0.707	1.135	1.544	1.288	0.699	0.864	0.602	-0.937	-0.687	-0.628	-0.982	-0.969	-0.560	-0.012	-0.901	-0.653	0.062	-1.022	-0.412	0.646	0.011	46.875
-0.914	0.016	0.398	0.238	1.209	1.276	1.808	0.730	1.182	1.683	1.458	0.791	0.806	0.450	-1.155	-0.794	-0.695	-1.000	-1.050	-0.665	-0.165	-1.022	-0.641	0.075	-0.822	-0.226	0.940	0.120	50.781
-1.140	-0.144	0.236	-0.011	0.965	1.063	1.814	0.736	1.266	1.843	1.684	0.987	0.739	0.247	-1.433	-0.969	-0.816	-1.041	-1.174	-0.851	-0.401	-1.137	-0.631	0.175	-0.490	0.155	1.412	0.389	54.688
-1.419	-0.396	0.006	-0.396	0.609	0.749	1.790	0.754	1.431	2.043	1.983	1.286	0.664	-0.005	-1.767	-1.228	-0.999	-1.121	-1.343	-1.123	-0.718	-1.240	-0.625	0.365	-0.033	0.734	2.051	0.820	58.594
-1.768	-0.738	-0.286	-0.908	0.157	0.368	1.750	0.823	1.713	2.297	2.362	1.664	0.578	-0.300	-2.151	-1.576	-1.247	-1.247	-1.552	-1.476	-1.109	-1.327	-0.624	0.637	0.529	1.495	2.821	1.393	62.500
-2.195	-1.154	-0.623	-1.515	-0.358	-0.040	1.710	0.982	2.137	2.606	2.814	2.079	0.474	-0.625	-2.575	-2.005	-1.551	-1.424	-1.787	-1.895	-1.556	-1.397	-0.630	0.969	1.169	2.401	3.664	2.059	66.406
-2.695	-1.610	-0.984	-2.165	-0.896	-0.427	1.684	1.264	2.708	2.961	3.313	2.467	0.347	-0.963	-3.027	-2.492	-1.894	-1.645	-2.033	-2.355	-2.030	-1.451	-0.640	1.329	1.848	3.389	4.497	2.747	70.312
-3.248	-2.059	-1.338	-2.789	-1.402	-0.751	1.680	1.685	3.408	3.339	3.816	2.752	0.191	-1.289	-3.491	-3.001	-2.253	-1.893	-2.265	-2.822	-2.496	-1.489	-0.649	1.674	2.521	4.373	5.222	3.366	74.219
-3.817	-2.445	-1.651	-3.315	-1.823	-0.972	1.704	2.239	4.196	3.703	4.266	2.858	0.007	-1.578	-3.950	-3.484	-2.597	-2.145	-2.463	-3.253	-2.911	-1.514	-0.651	1.956	3.140	5.253	5.734	3.817	78.125
-4.354	-2.719	-1.893	-3.678	-2.108	-1.066	1.754	2.897	5.010	4.011	4.597	2.716	-0.200	-1.800	-4.383	-3.892	-2.895	-2.368	-2.604	-3.604	-3.234	-1.523	-0.636	2.135	3.665	5.931	5.938	4.005	82.031
-4.808	-2.846	-2.043	-3.837	-2.225	-1.022	1.825	3.612	5.780	4.222	4.751	2.284	-0.417	-1.934	-4.768	-4.181	-3.118	-2.534	-2.669	-3.839	-3.431	-1.511	-0.595	2.181	4.065	6.325	5.767	3.858	85.938
-5.136	-2.814	-2.091	-3.784	-2.161	-0.845	1.907	4.324	6.437	4.303	4.686	1.552	-0.625	-1.960	-5.084	-4.320	-3.245	-2.617	-2.647	-3.931	-3.480	-1.471	-0.515	2.081	4.328	6.386	5.197	3.341	89.844
-5.311	-2.638	-2.045	-3.543	-1.930	-0.557	1.992	4.966	6.920	4.240	4.386	0.555	-0.803	-1.875	-5.313	-4.300	-3.263	-2.604	-2.533	-3.871	-3.376	-1.395	-0.389	1.849	4.461	6.106	4.255	2.465	93.750
-5.328	-2.353	-1.922	-3.165	-1.568	-0.193	2.073	5.481	7.190	4.036	3.868	-0.636	-0.927	-1.679	-5.442	-4.129	-3.169	-2.493	-2.334	-3.670	-3.131	-1.275	-0.216	1.519	4.484	5.519	3.024	1.294	97.656
-5.204	-2.005	-1.750	-2.717	-1.123	0.206	2.146	5.822	7.232	3.719	3.177	-1.916	-0.975	-1.388	-5.470	-3.836	-2.975	-2.298	-2.067	-3.354	-2.770	-1.106	-0.002	1.142	4.428	4.702	1.628	-0.063	101.562
-4.975	-1.643	-1.557	-2.265	-0.650	0.597	2.214	5.960	7.050	3.331	2.379	-3.162	-0.926	-1.019	-5.401	-3.462	-2.700	-2.047	-1.756	-2.964	-2.328	-0.892	0.237	0.777	4.323	3.754	0.220	-1.465	105.469
-4.690	-1.309	-1.368	-1.865	-0.196	0.942	2.284	5.885	6.672	2.925	1.556	-4.254	-0.767	-0.592	-5.255	-3.052	-2.371	-1.776	-1.433	-2.542	-1.839	-0.643	0.476	0.485	4.198	2.788	-1.042	-2.765	109.375
-4.399	-1.031	-1.202	-1.552	0.201	1.205	2.366	5.605	6.137	2.558	0.787	-5.087	-0.489	-0.128	-5.057	-2.646	-2.020	-1.528	-1.129	-2.129	-1.338	-0.374	0.689	0.311	4.071	1.910	-2.019	-3.827	113.281
-4.148	-0.821	-1.072	-1.341	0.517	1.363	2.471	5.146	5.493	2.278	0.143	-5.588	-0.096	0.356	-4.836	-2.278	-1.676	-1.339	-0.871	-1.757	-0.848	-0.109	0.850	0.287	3.953	1.207	-2.606	-4.546	117.188
-3.971	-0.681	-0.982	-1.227	0.742	1.402	2.604	4.546	4.790	2.122	-0.320	-5.718	0.400	0.842	-4.626	-1.971	-1.367	-1.240	-0.679	-1.447	-0.388	0.130	0.940	0.421	3.849	0.742	-2.742	-4.859	121.094
-3.892	-0.605	-0.932	-1.196	0.872	1.315	2.764	3.854	4.073	2.107	-0.572	-5.478	0.975	1.313	-4.456	-1.740	-1.115	-1.247	-0.566	-1.211	0.028	0.321	0.951	0.705	3.761	0.555	-2.416	-4.747	125.000
-3.920	-0.589	-0.923	-1.229	0.910	1.111	2.946	3.121	3.387	2.235	-0.598	-4.899	1.597	1.750	-4.354	-1.591	-0.940	-1.362	-0.535	-1.056	0.387	0.443	0.886	1.114	3.694	0.658	-1.655	-4.225	128.906
-4.056	-0.630	-0.955	-1.312	0.859	0.802	3.134	2.402	2.773	2.491	-0.408	-4.035	2.223	2.129	-4.340	-1.530	-0.855	-1.577	-0.587	-0.987	0.671	0.483	0.756	1.611	3.660	1.050	-0.523	-3.340	132.812
-4.292	-0.734	-1.029	-1.443	0.719	0.413	3.312	1.748	2.272	2.851	-0.018	-2.956	2.807	2.420	-4.428	-1.564	-0.873	-1.876	-0.718	-1.012	0.857	0.428	0.581	2.158	3.681	1.715	0.897	-2.156	136.719
-4.618	-0.911	-1.151	-1.625	0.490	-0.032	3.464	1.207	1.920	3.286	0.548	-1.731	3.305	2.591	-4.628	-1.700	-1.001	-2.237	-0.926	-1.144	0.920	0.274	0.381	2.718	3.784	2.631	2.512	-0.745	140.625
-5.024	-1.175	-1.326	-1.875	0.168	-0.506	3.573	0.817	1.754	3.769	1.266	-0.420	3.675	2.615	-4.942	-1.950	-1.243	-2.640	-1.207	-1.397	0.831	0.022	0.175	3.258	3.999	3.770	4.231	0.825	144.531
-5.497	-1.539	-1.560	-2.209	-0.250	-0.984	3.631	0.602	1.801	4.278	2.114	0.926	3.888	2.471	-5.365	-2.322	-1.599	-3.064	-1.560	-1.787	0.571	-0.319	-0.021	3.756	4.350	5.099	5.972	2.490	148.438
-6.025	-2.014	-1.857	-2.643	-0.762	-1.450	3.634	0.571	2.078	4.797	3.072	2.273	3.929	2.150	-5.885	-2.820	-2.062	-3.493	-1.980	-2.322	0.133	-0.735	-0.196	4.200	4.855	6.583	7.668	4.200	152.344
-6.593	-2.598	-2.216	-3.186	-1.360	-1.893	3.585	0.718	2.588	5.316	4.121	3.596	3.797	1.662	-6.482	-3.440	-2.621	-3.911	-2.463	-2.999	-0.478	-1.205	-0.345	4.584	5.512	8.180	9.264	5.910	156.250
-7.183	-3.280	-2.633	-3.838	-2.031	-2.312	3.489	1.023	3.316	5.826	5.237	4.879	3.505	1.028	-7.130	-4.167	-3.259	-4.304	-2.999	-3.806	-1.236	-1.706	-0.468	4.907	6.307	9.840	10.722	7.582	160.156
-7.774	-4.036	-3.094	-4.585	-2.750	-2.710	3.356	1.455	4.228	6.322	6.391	6.103	3.077	0.282	-7.794	-4.971	-3.950	-4.662	-3.572	-4.713	-2.105	-2.212	-0.569	5.172	7.208	11.507	12.011	9.176	164.062
-8.337	-4.830	-3.584	-5.397	-3.488	-3.090	3.197	1.972	5.275	6.792	7.545	7.247	2.542	-0.535	-8.436	-5.815	-4.668	-4.975	-4.163	-5.682	-3.038	-2.702	-0.653	5.378	8.174	13.118	13.110	10.652	167.969
-8.845	-5.617	-4.077	-6.236	-4.210	-3.452	3.021	2.532	6.396	7.225	8.656	8.282	1.928	-1.384	-9.019	-6.657	-5.380	-5.235	-4.746	-6.664	-3.987	-3.156	-0.725	5.524	9.156	14.609	14.006	11.965	171.875
-9.270	-6.349	-4.547	-7.055	-4.878	-3.790	2.837	3.094	7.522	7.604	9.676	9.175	1.263	-2.226	-9.506	-7.451	-6.055	-5.432	-5.296	-7.607	-4.905	-3.562	-0.791	5.607	10.106	15.921	14.691	13.071	175.781
-9.590	-6.983	-4.968	-7.808	-5.460	-4.092	2.654	3.625	8.586	7.913	10.559	9.888	0.571	-3.032	-9.872	-8.159	-6.663	-5.560	-5.787	-8.465	-5.752	-3.909	-0.852	5.624	10.981	17.008	15.162	13.934	179.688
-9.793	-7.487	-5.319	-8.458	-5.932	-4.341	2.476	4.102	9.532	8.137	11.266	10.388	-0.127	-3.778	-10.104	-8.752	-7.176	-5.613	-6.196	-9.194	-6.498	-4.194	-0.907	5.573	11.742	17.836	15.425	14.526	183.594
-9.878	-7.844	-5.587	-8.981	-6.282	-4.523	2.311	4.518	10.315	8.269	11.771	10.653	-0.812	-4.447	-10.203	-9.213	-7.572	-5.588	-6.506	-9.765	-7.120	-4.412	-0.952	5.455	12.362	18.391	15.490	14.836	187.500
-9.854	-8.056	-5.765	-9.367	-6.508	-4.625	2.163	4.876	10.910	8.309	12.065	10.678	-1.466	-5.031	-10.179	-9.537	-7.839	-5.491	-6.707	-10.163	-7.608	-4.563	-0.979	5.275	12.821	18.675	15.371	14.873	191.406
-9.739	-8.138	-5.855	-9.619	-6.620	-4.643	2.042	5.188	11.312	8.269	12.158	10.477	-2.068	-5.521	-10.052	-9.733	-7.970	-5.330	-6.798	-10.388	-7.960	-4.651	-0.978	5.043	13.104	18.703	15.092	14.661	195.312
-9.554	-8.116	-5.867	-9.749	-6.630	-4.577	1.954	5.467	11.534	8.168	12.075	10.083	-2.595	-5.912	-9.846	-9.819	-7.973	-5.124	-6.786	-10.457	-8.184	-4.679	-0.941	4.770	13.205	18.502	14.679	14.241	199.219
-9.322	-8.023	-5.811	-9.776	-6.555	-4.432	1.908	5.722	11.601	8.034	11.852	9.547	-3.023	-6.197	-9.576	-9.820	-7.860	-4.889	-6.686	-10.399	-8.291	-4.655	-0.863	4.472	13.122	18.100	14.163	13.662	203.125
-9.056	-7.887	-5.700	-9.719	-6.411	-4.220	1.913	5.950	11.542	7.895	11.531	8.925	-3.327	-6.370	-9.252	-9.764	-7.657	-4.645	-6.517	-10.250	-8.301	-4.587	-0.743	4.164	12.859	17.529	13.576	12.974	207.031
-8.767	-7.733	-5.544	-9.598	-6.214	-3.954	1.974	6.140	11.391	7.775	11.149	8.272	-3.490	-6.425	-8.877	-9.674	-7.389	-4.400	-6.303	-10.052	-8.228	-4.485	-0.588	3.863	12.425	16.816	12.947	12.223	210.938
-8.455	-7.579	-5.353	-9.429	-5.974	-3.645	2.092	6.275	11.175	7.691	10.740	7.635	-3.496	-6.356	-8.447	-9.573	-7.086	-4.162	-6.064	-9.839	-8.089	-4.357	-0.409	3.581	11.835	15.984	12.300	11.446	214.844
-8.121	-7.434	-5.134	-9.224	-5.701	-3.305	2.264	6.336	10.916	7.650	10.328	7.045	-3.344	-6.161	-7.965	-9.471	-6.772	-3.931	-5.821	-9.638	-7.891	-4.212	-0.223	3.329	11.112	15.056	11.653	10.667	218.750
-7.764	-7.302	-4.894	-8.994	-5.402	-2.946	2.483	6.315	10.629	7.647	9.929	6.520	-3.039	-5.846	-7.442	-9.375	-6.470	-3.709	-5.587	-9.461	-7.641	-4.055	-0.049	3.113	10.286	14.058	11.016	9.904	222.656
-7.388	-7.183	-4.639	-8.744	-5.083	-2.578	2.737	6.210	10.324	7.668	9.547	6.063	-2.600	-5.421	-6.902	-9.285	-6.194	-3.498	-5.374	-9.309	-7.338	-3.890	0.093	2.939	9.400	13.021	10.400	9.165	226.562
-7.002	-7.073	-4.377	-8.476	-4.747	-2.213	3.006	6.032	10.005	7.695	9.180	5.667	-2.056	-4.907	-6.379	-9.199	-5.953	-3.305	-5.184	-9.170	-6.985	-3.721	0.191	2.810	8.500	11.984	9.813	8.461	230.469
-6.619	-6.966	-4.115	-8.192	-4.403	-1.870	3.270	5.803	9.672	7.700	8.820	5.320	-1.441	-4.328	-5.908	-9.110	-5.750	-3.133	-5.020	-9.028	-6.586	-3.549	0.239	2.729	7.643	10.992	9.264	7.800	234.375
-6.251	-6.856	-3.865	-7.893	-4.057	-1.562	3.502	5.549	9.325	7.659	8.454	5.002	-0.799	-3.715	-5.519	-9.019	-5.588	-2.988	-4.877	-8.867	-6.152	-3.374	0.242	2.696	6.882	10.092	8.763	7.195	238.281
-5.911	-6.741	-3.635	-7.584	-3.718	-1.306	3.681	5.301	8.965	7.549	8.067	4.698	-0.177	-3.100	-5.229	-8.927	-5.464	-2.870	-4.753	-8.679	-5.698	-3.195	0.214	2.709	6.266	9.327	8.320	6.652	242.188
-5.612	-6.621	-3.436	-7.276	-3.397	-1.109	3.788	5.087	8.599	7.358	7.651	4.390	0.380	-2.513	-5.038	-8.840	-5.378	-2.774	-4.642	-8.463	-5.248	-3.012	0.177	2.763	5.830	8.727	7.938	6.180	246.094
-5.361	-6.503	-3.277	-6.982	-3.102	-0.970	3.816	4.935	8.238	7.080	7.204	4.072	0.833	-1.981	-4.935	-8.771	-5.328	-2.694	-4.542	-8.231	-4.825	-2.821	0.156	2.851	5.592	8.310	7.619	5.782	250.000
-5.169	-6.394	-3.163	-6.719	-2.841	-0.881	3.767	4.863	7.902	6.726	6.737	3.746	1.152	-1.526	-4.903	-8.734	-5.312	-2.624	-4.450	-8.004	-4.454	-2.620	0.172	2.961	5.551	8.080	7.360	5.462	253.906
-5.044	-6.306	-3.096	-6.500	-2.620	-0.830	3.658	4.883	7.618	6.319	6.272	3.424	1.319	-1.164	-4.926	-8.743	-5.331	-2.564	-4.367	-7.803	-4.153	-2.405	0.241	3.085	5.690	8.027	7.158	5.222	257.812
-4.996	-6.247	-3.076	-6.337	-2.439	-0.799	3.511	4.996	7.410	5.891	5.842	3.128	1.336	-0.900	-4.996	-8.809	-5.382	-2.514	-4.292	-7.652	-3.935	-2.175	0.368	3.211	5.976	8.129	7.008	5.067	261.719
-5.031	-6.224	-3.098	-6.235	-2.296	-0.775	3.356	5.192	7.304	5.480	5.483	2.882	1.220	-0.734	-5.114	-8.939	-5.463	-2.483	-4.229	-7.569	-3.803	-1.928	0.548	3.334	6.371	8.358	6.908	4.997	265.625
-5.154	-6.245	-3.158	-6.192	-2.187	-0.749	3.220	5.451	7.315	5.125	5.224	2.704	1.003	-0.655	-5.287	-9.134	-5.568	-2.480	-4.180	-7.568	-3.751	-1.669	0.770	3.450	6.836	8.682	6.859	5.012	269.531
-5.365	-6.314	-3.250	-6.201	-2.108	-0.719	3.128	5.749	7.446	4.859	5.087	2.607	0.726	-0.646	-5.523	-9.392	-5.693	-2.516	-4.146	-7.657	-3.770	-1.401	1.018	3.563	7.338	9.067	6.864	5.103	273.438
-5.658	-6.435	-3.368	-6.250	-2.053	-0.690	3.101	6.061	7.691	4.709	5.079	2.590	0.438	-0.687	-5.828	-9.705	-5.834	-2.599	-4.130	-7.837	-3.844	-1.138	1.275	3.679	7.851	9.485	6.929	5.260	277.344
-6.020	-6.610	-3.507	-6.330	-2.022	-0.670	3.153	6.371	8.033	4.693	5.197	2.648	0.186	-0.751	-6.203	-10.065	-5.987	-2.737	-4.134	-8.103	-3.956	-0.892	1.524	3.811	8.357	9.914	7.062	5.472	281.250
-6.437	-6.839	-3.661	-6.431	-2.013	-0.668	3.290	6.671	8.449	4.821	5.428	2.772	0.015	-0.815	-6.640	-10.460	-6.151	-2.934	-4.159	-8.441	-4.086	-0.680	1.747	3.973	8.845	10.337	7.270	5.729	285.156
-6.892	-7.121	-3.825	-6.550	-2.027	-0.691	3.518	6.960	8.912	5.092	5.752	2.952	-0.042	-0.855	-7.128	-10.879	-6.322	-3.191	-4.205	-8.826	-4.215	-0.518	1.929	4.176	9.303	10.744	7.557	6.025	289.062
-7.368	-7.446	-3.993	-6.685	-2.063	-0.745	3.831	7.245	9.396	5.499	6.148	3.181	0.036	-0.852	-7.648	-11.306	-6.499	-3.504	-4.272	-9.228	-4.325	-0.418	2.054	4.431	9.722	11.126	7.922	6.355	292.969
-7.847	-7.803	-4.159	-6.835	-2.119	-0.832	4.220	7.528	9.879	6.026	6.591	3.453	0.258	-0.792	-8.179	-11.722	-6.676	-3.864	-4.358	-9.608	-4.398	-0.387	2.112	4.740	10.087	11.478	8.354	6.716	296.875
-8.314	-8.171	-4.317	-6.995	-2.188	-0.951	4.671	7.807	10.339	6.647	7.058	3.762	0.620	-0.664	-8.704	-12.106	-6.846	-4.258	-4.460	-9.927	-4.421	-0.425	2.094	5.095	10.384	11.792	8.835	7.100	300.781
-8.758	-8.527	-4.459	-7.159	-2.257	-1.099	5.161	8.071	10.761	7.334	7.528	4.102	1.103	-0.465	-9.205	-12.436	-7.000	-4.673	-4.572	-10.151	-4.381	-0.523	1.998	5.482	10.598	12.060	9.339	7.496	304.688
-9.166	-8.846	-4.581	-7.313	-2.310	-1.271	5.666	8.306	11.133	8.050	7.981	4.463	1.681	-0.195	-9.672	-12.692	-7.130	-5.089	-4.688	-10.251	-4.275	-0.666	1.830	5.881	10.716	12.276	9.837	7.888	308.594
-9.532	-9.102	-4.675	-7.440	-2.328	-1.458	6.158	8.490	11.446	8.755	8.401	4.833	2.318	0.140	-10.098	-12.857	-7.224	-5.489	-4.803	-10.213	-4.105	-0.836	1.605	6.266	10.730	12.430	10.299	8.256	312.500
-9.851	-9.271	-4.737	-7.524	-2.295	-1.650	6.610	8.607	11.696	9.409	8.773	5.195	2.974	0.526	-10.476	-12.922	-7.276	-5.854	-4.906	-10.039	-3.876	-1.013	1.339	6.614	10.639	12.520	10.697	8.577	316.406
-10.119	-9.337	-4.764	-7.547	-2.201	-1.834	6.996	8.645	11.873	9.970	9.082	5.528	3.609	0.948	-10.802	-12.880	-7.279	-6.167	-4.988	-9.740	-3.600	-1.181	1.055	6.902	10.447	12.539	11.011	8.827	320.312
-10.333	-9.293	-4.754	-7.492	-2.038	-1.996	7.292	8.601	11.973	10.402	9.313	5.805	4.184	1.384	-11.066	-12.733	-7.228	-6.412	-5.037	-9.339	-3.290	-1.325	0.775	7.114	10.166	12.485	11.222	8.984	324.219
-10.489	-9.138	-4.706	-7.348	-1.807	-2.120	7.483	8.480	11.984	10.672	9.447	5.999	4.663	1.811	-11.259	-12.487	-7.120	-6.577	-5.040	-8.862	-2.956	-1.434	0.522	7.239	9.818	12.359	11.320	9.030	328.125
-10.585	-8.882	-4.622	-7.108	-1.516	-2.194	7.557	8.294	11.899	10.758	9.467	6.085	5.021	2.205	-11.370	-12.152	-6.956	-6.653	-4.984	-8.335	-2.609	-1.503	0.314	7.275	9.427	12.165	11.303	8.958	332.031
-10.618	-8.546	-4.505	-6.773	-1.179	-2.209	7.509	8.058	11.710	10.651	9.361	6.050	5.237	2.544	-11.391	-11.741	-6.736	-6.640	-4.861	-7.786	-2.256	-1.528	0.164	7.224	9.023	11.916	11.175	8.776	335.938
-10.590	-8.156	-4.366	-6.360	-0.816	-2.166	7.343	7.789	11.420	10.355	9.126	5.893	5.302	2.811	-11.321	-11.274	-6.464	-6.538	-4.666	-7.236	-1.908	-1.510	0.080	7.099	8.641	11.631	10.951	8.509	339.844
-10.510	-7.746	-4.219	-5.897	-0.455	-2.078	7.069	7.502	11.040	9.891	8.774	5.637	5.219	2.992	-11.171	-10.773	-6.150	-6.357	-4.401	-6.708	-1.578	-1.452	0.062	6.915	8.312	11.332	10.654	8.198	343.750
-10.393	-7.349	-4.081	-5.422	-0.127	-1.964	6.702	7.213	10.595	9.295	8.333	5.320	5.000	3.078	-10.962	-10.265	-5.806	-6.110	-4.079	-6.219	-1.282	-1.360	0.108	6.692	8.065	11.046	10.316	7.891	347.656
-10.260	-6.995	-3.970	-4.982	0.138	-1.849	6.267	6.939	10.121	8.616	7.843	4.991	4.666	3.069	-10.721	-9.781	-5.449	-5.813	-3.718	-5.789	-1.038	-1.243	0.207	6.453	7.915	10.796	9.971	7.637	351.562
-10.138	-6.709	-3.901	-4.620	0.318	-1.759	5.791	6.700	9.657	7.911	7.353	4.703	4.250	2.971	-10.479	-9.347	-5.097	-5.488	-3.343	-5.435	-0.862	-1.111	0.344	6.219	7.869	10.597	9.651	7.471	355.469
-10.048	-6.502	-3.883	-4.373	0.400	-1.708	5.309	6.514	9.242	7.238	6.913	4.495	3.794	2.801	-10.264	-8.986	-4.770	-5.158	-2.982	-5.168	-0.765	-0.973	0.502	6.010	7.917	10.453	9.381	7.410	359.375
-10.006	-6.377	-3.915	-4.259	0.382	-1.705	4.854	6.393	8.906	6.653	6.561	4.392	3.343	2.585	-10.096	-8.711	-4.486	-4.846	-2.661	-4.994	-0.747	-0.839	0.663	5.843	8.039	10.360	9.177	7.445	363.281
-10.018	-6.329	-3.992	-4.278	0.278	-1.750	4.459	6.338	8.668	6.199	6.325	4.395	2.946	2.353	-9.984	-8.527	-4.259	-4.574	-2.401	-4.911	-0.799	-0.716	0.811	5.732	8.207	10.306	9.045	7.551	367.188
-10.077	-6.349	-4.099	-4.413	0.108	-1.836	4.151	6.343	8.532	5.907	6.213	4.489	2.645	2.139	-9.928	-8.432	-4.100	-4.360	-2.216	-4.912	-0.902	-0.605	0.936	5.687	8.391	10.283	8.984	7.694	371.094
-10.167	-6.427	-4.224	-4.635	-0.107	-1.961	3.946	6.388	8.488	5.792	6.222	4.650	2.474	1.974	-9.922	-8.415	-4.014	-4.218	-2.114	-4.983	-1.031	-0.509	1.034	5.715	8.569	10.286	8.990	7.844	375.000
-10.269	-6.556	-4.354	-4.909	-0.345	-2.120	3.851	6.445	8.517	5.848	6.335	4.854	2.453	1.881	-9.954	-8.465	-4.002	-4.153	-2.092	-5.109	-1.164	-0.424	1.105	5.821	8.728	10.321	9.062	7.989	378.906
-10.365	-6.731	-4.483	-5.203	-0.591	-2.314	3.857	6.486	8.591	6.055	6.532	5.092	2.582	1.868	-10.012	-8.571	-4.060	-4.166	-2.143	-5.275	-1.283	-0.351	1.154	6.005	8.866	10.399	9.204	8.134	382.812
-10.441	-6.950	-4.606	-5.489	-0.840	-2.544	3.946	6.483	8.684	6.381	6.793	5.367	2.846	1.931	-10.082	-8.721	-4.179	-4.247	-2.254	-5.469	-1.379	-0.287	1.187	6.261	8.992	10.535	9.420	8.305	386.719
-10.493	-7.210	-4.727	-5.749	-1.090	-2.812	4.093	6.419	8.771	6.784	7.102	5.696	3.215	2.053	-10.151	-8.905	-4.346	-4.381	-2.408	-5.681	-1.452	-0.236	1.205	6.573	9.117	10.737	9.714	8.535	390.625
-10.521	-7.503	-4.849	-5.973	-1.345	-3.115	4.265	6.287	8.834	7.217	7.444	6.099	3.647	2.204	-10.202	-9.111	-4.543	-4.547	-2.587	-5.901	-1.508	-0.200	1.212	6.919	9.251	11.003	10.082	8.855	394.531
-10.530	-7.817	-4.973	-6.158	-1.607	-3.445	4.431	6.092	8.860	7.637	7.807	6.594	4.098	2.353	-10.218	-9.326	-4.750	-4.722	-2.769	-6.124	-1.557	-0.184	1.205	7.268	9.397	11.315	10.510	9.280	398.438
-10.520	-8.133	-5.100	-6.303	-1.877	-3.789	4.562	5.852	8.846	8.001	8.178	7.182	4.521	2.469	-10.184	-9.536	-4.945	-4.882	-2.936	-6.340	-1.609	-0.194	1.182	7.582	9.544	11.642	10.967	9.803	402.344
-10.488	-8.423	-5.222	-6.406	-2.147	-4.125	4.635	5.588	8.793	8.276	8.538	7.847	4.875	2.527	-10.086	-9.723	-5.110	-5.004	-3.073	-6.539	-1.669	-0.234	1.140	7.823	9.676	11.944	11.410	10.391	406.250
-10.422	-8.655	-5.326	-6.466	-2.404	-4.431	4.632	5.322	8.705	8.434	8.865	8.549	5.129	2.516	-9.920	-9.871	-5.231	-5.074	-3.174	-6.707	-1.736	-0.308	1.074	7.956	9.767	12.177	11.788	10.991	410.156
-10.304	-8.799	-5.393	-6.476	-2.629	-4.678	4.546	5.075	8.586	8.458	9.129	9.227	5.261	2.434	-9.686	-9.959	-5.296	-5.082	-3.234	-6.825	-1.802	-0.414	0.981	7.954	9.797	12.304	12.048	11.534	414.062
-10.119	-8.827	-5.408	-6.431	-2.797	-4.837	4.375	4.857	8.437	8.337	9.295	9.806	5.261	2.297	-9.395	-9.969	-5.303	-5.026	-3.254	-6.873	-1.849	-0.544	0.863	7.806	9.748	12.301	12.143	11.946	417.969
-9.859	-8.724	-5.359	-6.325	-2.881	-4.887	4.127	4.674	8.251	8.069	9.323	10.208	5.131	2.129	-9.060	-9.886	-5.247	-4.910	-3.238	-6.826	-1.857	-0.684	0.724	7.515	9.616	12.155	12.042	12.165	421.875
-9.527	-8.491	-5.240	-6.154	-2.858	-4.812	3.816	4.520	8.019	7.659	9.180	10.360	4.885	1.962	-8.701	-9.698	-5.130	-4.743	-3.187	-6.665	-1.803	-0.818	0.578	7.100	9.411	11.876	11.730	12.142	425.781
-9.141	-8.137	-5.058	-5.914	-2.713	-4.613	3.458	4.381	7.727	7.121	8.839	10.210	4.545	1.826	-8.339	-9.400	-4.954	-4.537	-3.101	-6.377	-1.667	-0.925	0.439	6.594	9.152	11.486	11.221	11.856	429.688
-8.730	-7.685	-4.825	-5.608	-2.445	-4.303	3.077	4.241	7.370	6.478	8.297	9.738	4.137	1.747	-7.995	-8.995	-4.721	-4.305	-2.978	-5.964	-1.441	-0.991	0.324	6.038	8.865	11.018	10.546	11.318	433.594
-8.324	-7.164	-4.559	-5.241	-2.065	-3.908	2.693	4.082	6.950	5.763	7.575	8.965	3.692	1.739	-7.683	-8.498	-4.438	-4.062	-2.818	-5.440	-1.128	-1.008	0.248	5.475	8.573	10.512	9.760	10.567	437.500
-7.952	-6.607	-4.280	-4.823	-1.601	-3.465	2.331	3.891	6.482	5.022	6.721	7.953	3.240	1.801	-7.419	-7.933	-4.115	-3.822	-2.623	-4.839	-0.748	-0.979	0.218	4.947	8.294	10.007	8.926	9.669	441.406
-7.638	-6.047	-4.004	-4.372	-1.092	-3.013	2.013	3.667	5.998	4.303	5.809	6.799	2.808	1.917	-7.210	-7.335	-3.767	-3.600	-2.403	-4.205	-0.333	-0.915	0.234	4.488	8.034	9.533	8.113	8.709	445.312
-7.391	-5.516	-3.746	-3.910	-0.583	-2.587	1.758	3.419	5.540	3.663	4.926	5.620	2.420	2.062	-7.062	-6.745	-3.412	-3.412	-2.169	-3.590	0.076	-0.834	0.289	4.122	7.790	9.113	7.380	7.776	449.219
-7.215	-5.044	-3.513	-3.460	-0.117	-2.217	1.586	3.167	5.152	3.151	4.163	4.538	2.097	2.208	-6.978	-6.204	-3.071	-3.272	-1.942	-3.046	0.440	-0.753	0.371	3.865	7.550	8.759	6.778	6.954	453.125
-7.110	-4.654	-3.312	-3.042	0.273	-1.917	1.509	2.936	4.873	2.812	3.595	3.657	1.857	2.330	-6.958	-5.749	-2.764	-3.193	-1.739	-2.612	0.724	-0.687	0.465	3.721	7.300	8.474	6.335	6.307	457.031
-7.074	-4.366	-3.145	-2.674	0.564	-1.695	1.536	2.751	4.730	2.672	3.270	3.054	1.717	2.413	-7.002	-5.406	-2.512	-3.185	-1.578	-2.314	0.908	-0.646	0.558	3.690	7.030	8.255	6.066	5.876	460.938
-7.104	-4.192	-3.014	-2.368	0.750	-1.547	1.667	2.631	4.730	2.741	3.204	2.762	1.691	2.455	-7.106	-5.189	-2.334	-3.249	-1.472	-2.160	0.990	-0.630	0.640	3.763	6.737	8.097	5.966	5.673	464.844
-7.203	-4.134	-2.921	-2.131	0.840	-1.465	1.896	2.589	4.861	3.010	3.379	2.776	1.788	2.468	-7.262	-5.100	-2.244	-3.382	-1.426	-2.141	0.978	-0.634	0.705	3.929	6.428	7.992	6.019	5.683	468.750
-7.367	-4.186	-2.868	-1.966	0.852	-1.435	2.210	2.628	5.094	3.449	3.746	3.048	2.012	2.472	-7.461	-5.125	-2.248	-3.574	-1.437	-2.234	0.897	-0.649	0.752	4.167	6.115	7.933	6.198	5.868	472.656
-7.586	-4.329	-2.849	-1.871	0.813	-1.440	2.589	2.742	5.392	4.015	4.238	3.506	2.360	2.493	-7.684	-5.240	-2.346	-3.811	-1.497	-2.406	0.776	-0.666	0.780	4.454	5.815	7.909	6.468	6.168	476.562
-7.842	-4.534	-2.858	-1.840	0.756	-1.462	3.008	2.920	5.710	4.656	4.777	4.059	2.816	2.553	-7.907	-5.417	-2.528	-4.074	-1.593	-2.622	0.644	-0.680	0.788	4.762	5.543	7.907	6.789	6.520	480.469
-8.105	-4.767	-2.881	-1.861	0.710	-1.478	3.442	3.144	6.011	5.312	5.292	4.618	3.353	2.666	-8.104	-5.623	-2.775	-4.344	-1.710	-2.846	0.526	-0.686	0.774	5.057	5.308	7.907	7.115	6.855	484.375
-8.342	-4.992	-2.903	-1.922	0.698	-1.468	3.863	3.397	6.261	5.925	5.719	5.106	3.933	2.833	-8.247	-5.827	-3.063	-4.601	-1.837	-3.046	0.440	-0.686	0.733	5.306	5.115	7.890	7.404	7.120	488.281
-8.519	-5.174	-2.908	-2.004	0.736	-1.416	4.244	3.658	6.436	6.438	6.014	5.466	4.508	3.043	-8.316	-6.005	-3.361	-4.829	-1.961	-3.197	0.394	-0.682	0.663	5.478	4.960	7.837	7.619	7.275	492.188
-8.607	-5.288	-2.883	-2.089	0.829	-1.310	4.555	3.904	6.519	6.801	6.149	5.668	5.028	3.274	-8.300	-6.136	-3.636	-5.013	-2.071	-3.281	0.392	-0.679	0.563	5.551	4.837	7.735	7.732	7.302	496.094
-8.590	-5.316	-2.822	-2.153	0.976	-1.150	4.770	4.111	6.497	6.973	6.112	5.703	5.440	3.495	-8.199	-6.206	-3.857	-5.141	-2.157	-3.288	0.428	-0.675	0.437	5.509	4.738	7.576	7.727	7.204	500.000
-8.459	-5.247	-2.721	-2.174	1.167	-0.939	4.864	4.258	6.356	6.920	5.900	5.579	5.696	3.676	-8.021	-6.204	-3.995	-5.198	-2.208	-3.214	0.495	-0.671	0.299	5.343	4.653	7.358	7.594	6.997	503.906
-8.213	-5.074	-2.581	-2.125	1.393	-0.688	4.815	4.322	6.083	6.620	5.516	5.313	5.759	3.788	-7.772	-6.120	-4.027	-5.170	-2.214	-3.061	0.586	-0.665	0.164	5.052	4.570	7.079	7.328	6.697	507.812
-7.853	-4.793	-2.401	-1.983	1.643	-0.406	4.608	4.289	5.667	6.064	4.967	4.924	5.604	3.810	-7.457	-5.944	-3.932	-5.039	-2.161	-2.833	0.694	-0.657	0.052	4.639	4.471	6.730	6.923	6.317	511.719
-7.381	-4.401	-2.182	-1.729	1.912	-0.100	4.241	4.149	5.097	5.260	4.260	4.426	5.224	3.735	-7.075	-5.665	-3.699	-4.787	-2.041	-2.534	0.818	-0.647	-0.017	4.106	4.335	6.293	6.372	5.861	515.625
-6.798	-3.897	-1.921	-1.354	2.196	0.231	3.722	3.902	4.372	4.232	3.407	3.826	4.633	3.566	-6.619	-5.274	-3.324	-4.401	-1.844	-2.165	0.961	-0.639	-0.033	3.463	4.136	5.745	5.665	5.320	519.531
-6.109	-3.287	-1.616	-0.863	2.494	0.588	3.076	3.555	3.498	3.023	2.424	3.130	3.866	3.324	-6.083	-4.766	-2.811	-3.880	-1.567	-1.728	1.131	-0.635	0.013	2.724	3.849	5.058	4.798	4.679	523.438
-5.326	-2.581	-1.269	-0.275	2.804	0.975	2.340	3.125	2.496	1.689	1.336	2.342	2.976	3.040	-5.466	-4.144	-2.175	-3.232	-1.208	-1.222	1.336	-0.634	0.118	1.910	3.458	4.217	3.777	3.926	527.344
-4.472	-1.802	-0.885	0.377	3.123	1.389	1.560	2.631	1.400	0.301	0.175	1.474	2.032	2.753	-4.774	-3.422	-1.441	-2.481	-0.774	-0.650	1.587	-0.634	0.276	1.052	2.955	3.220	2.622	3.058	531.250
-3.581	-0.982	-0.477	1.049	3.442	1.821	0.788	2.100	0.255	-1.065	-1.012	0.547	1.106	2.503	-4.025	-2.629	-0.645	-1.661	-0.277	-0.021	1.888	-0.624	0.475	0.190	2.348	2.087	1.367	2.086	535.156
-2.694	-0.161	-0.063	1.692	3.748	2.253	0.077	1.557	-0.881	-2.331	-2.174	-0.409	0.271	2.327	-3.248	-1.803	0.174	-0.815	0.266	0.647	2.237	-0.591	0.705	-0.628	1.653	0.857	0.067	1.039	539.062
-1.856	0.619	0.334	2.260	4.029	2.658	-0.528	1.031	-1.948	-3.427	-3.253	-1.355	-0.413	2.253	-2.484	-0.992	0.970	0.009	0.832	1.326	2.625	-0.519	0.953	-1.352	0.903	-0.414	-1.218	-0.042	542.969
-1.115	1.315	0.693	2.719	4.270	3.011	-0.986	0.549	-2.884	-4.296	-4.192	-2.244	-0.900	2.294	-1.781	-0.248	1.701	0.761	1.394	1.979	3.033	-0.393	1.214	-1.937	0.132	-1.657	-2.417	-1.103	546.875
-0.512	1.890	0.997	3.050	4.464	3.291	-1.272	0.139	-3.636	-4.898	-4.940	-3.031	-1.165	2.449	-1.187	0.382	2.323	1.394	1.922	2.564	3.439	-0.205	1.478	-2.342	-0.616	-2.803	-3.460	-2.085	550.781
-0.082	2.316	1.232	3.252	4.604	3.483	-1.374	-0.175	-4.162	-5.211	-5.462	-3.677	-1.200	2.704	-0.750	0.857	2.801	1.867	2.384	3.040	3.815	0.044	1.741	-2.541	-1.296	-3.783	-4.285	-2.929	554.688
0.154	2.577	1.390	3.336	4.685	3.582	-1.296	-0.378	-4.440	-5.238	-5.742	-4.148	-1.021	3.032	-0.506	1.149	3.106	2.153	2.748	3.370	4.132	0.340	1.991	-2.522	-1.862	-4.536	-4.839	-3.580	558.594
0.186	2.668	1.468	3.323	4.707	3.592	-1.058	-0.463	-4.473	-4.999	-5.783	-4.427	-0.656	3.399	-0.476	1.245	3.220	2.239	2.984	3.529	4.366	0.660	2.217	-2.291	-2.270	-5.015	-5.090	-3.995	562.500
0.021	2.598	1.468	3.235	4.667	3.524	-0.693	-0.437	-4.283	-4.535	-5.609	-4.508	-0.148	3.768	-0.658	1.146	3.134	2.133	3.071	3.504	4.498	0.971	2.405	-1.871	-2.487	-5.192	-5.026	-4.151	566.406
-0.318	2.386	1.394	3.090	4.565	3.392	-0.242	-0.317	-3.911	-3.900	-5.260	-4.400	0.452	4.105	-1.031	0.869	2.856	1.860	3.000	3.300	4.515	1.237	2.538	-1.302	-2.489	-5.060	-4.664	-4.042	570.312
-0.796	2.061	1.257	2.903	4.405	3.212	0.249	-0.129	-3.411	-3.157	-4.785	-4.125	1.094	4.382	-1.550	0.439	2.409	1.461	2.778	2.935	4.418	1.425	2.605	-0.634	-2.278	-4.641	-4.048	-3.691	574.219
-1.366	1.658	1.066	2.678	4.189	3.001	0.734	0.096	-2.840	-2.374	-4.238	-3.718	1.726	4.577	-2.158	-0.104	1.832	0.987	2.428	2.439	4.214	1.511	2.603	0.074	-1.871	-3.982	-3.244	-3.144	578.125
-1.975	1.214	0.836	2.417	3.928	2.775	1.174	0.334	-2.257	-1.613	-3.672	-3.223	2.306	4.682	-2.785	-0.717	1.178	0.494	1.987	1.853	3.922	1.486	2.536	0.761	-1.312	-3.154	-2.339	-2.468	582.031
-2.569	0.765	0.582	2.119	3.635	2.550	1.536	0.567	-1.711	-0.931	-3.134	-2.688	2.795	4.692	-3.366	-1.349	0.508	0.038	1.504	1.223	3.564	1.357	2.421	1.371	-0.655	-2.244	-1.425	-1.740	585.938
-3.097	0.346	0.324	1.789	3.329	2.343	1.797	0.784	-1.244	-0.376	-2.665	-2.165	3.165	4.613	-3.839	-1.950	-0.112	-0.334	1.028	0.601	3.167	1.142	2.281	1.856	0.033	-1.345	-0.593	-1.045	589.844
-3.513	-0.016	0.080	1.436	3.030	2.173	1.945	0.985	-0.887	0.021	-2.296	-1.703	3.397	4.451	-4.161	-2.469	-0.625	-0.584	0.607	0.035	2.761	0.870	2.139	2.180	0.689	-0.547	0.079	-0.456	593.750
-3.784	-0.298	-0.129	1.079	2.757	2.057	1.974	1.172	-0.660	0.237	-2.050	-1.343	3.478	4.218	-4.305	-2.864	-0.986	-0.694	0.277	-0.427	2.372	0.574	2.020	2.318	1.253	0.073	0.530	-0.031	597.656
-3.886	-0.482	-0.284	0.747	2.528	2.008	1.888	1.348	-0.574	0.263	-1.942	-1.117	3.405	3.926	-4.262	-3.103	-1.170	-0.658	0.063	-0.749	2.026	0.283	1.937	2.262	1.684	0.462	0.727	0.197	601.562
-3.814	-0.556	-0.372	0.475	2.354	2.035	1.696	1.515	-0.632	0.101	-1.977	-1.043	3.184	3.589	-4.040	-3.167	-1.174	-0.486	-0.026	-0.906	1.744	0.019	1.898	2.014	1.953	0.587	0.659	0.216	605.469
-3.572	-0.512	-0.383	0.301	2.243	2.140	1.411	1.668	-0.828	-0.238	-2.151	-1.125	2.826	3.221	-3.662	-3.052	-1.014	-0.199	0.007	-0.890	1.541	-0.204	1.901	1.587	2.049	0.445	0.337	0.035	609.375
-3.179	-0.349	-0.314	0.257	2.197	2.314	1.049	1.796	-1.147	-0.734	-2.453	-1.352	2.351	2.841	-3.155	-2.770	-0.722	0.179	0.146	-0.707	1.421	-0.386	1.936	1.005	1.980	0.053	-0.211	-0.319	613.281
-2.661	-0.071	-0.169	0.363	2.213	2.547	0.629	1.884	-1.564	-1.359	-2.861	-1.702	1.783	2.466	-2.551	-2.346	-0.338	0.620	0.368	-0.381	1.382	-0.532	1.990	0.297	1.761	-0.554	-0.944	-0.811	617.188
-2.043	0.311	0.043	0.623	2.287	2.820	0.167	1.914	-2.054	-2.084	-3.353	-2.145	1.151	2.112	-1.880	-1.811	0.099	1.095	0.644	0.051	1.415	-0.654	2.046	-0.503	1.419	-1.329	-1.812	-1.398	621.094
-1.355	0.780	0.312	1.025	2.414	3.118	-0.318	1.877	-2.587	-2.874	-3.904	-2.647	0.487	1.798	-1.171	-1.203	0.554	1.580	0.946	0.546	1.505	-0.761	2.092	-1.357	0.983	-2.216	-2.764	-2.039	625.000
-0.623	1.313	0.624	1.542	2.588	3.425	-0.810	1.765	-3.135	-3.695	-4.493	-3.176	-0.174	1.537	-0.455	-0.559	1.004	2.051	1.252	1.062	1.639	-0.861	2.118	-2.227	0.486	-3.161	-3.749	-2.697	628.906
0.125	1.882	0.963	2.133	2.802	3.731	-1.289	1.583	-3.675	-4.513	-5.098	-3.706	-0.799	1.343	0.241	0.089	1.436	2.491	1.545	1.560	1.804	-0.954	2.123	-3.071	-0.044	-4.112	-4.720	-3.339	632.812
0.856	2.454	1.310	2.753	3.046	4.026	-1.735	1.346	-4.186	-5.291	-5.701	-4.216	-1.352	1.226	0.889	0.707	1.841	2.884	1.813	2.013	1.992	-1.032	2.111	-3.850	-0.580	-5.019	-5.630	-3.942	636.719
1.536	2.990	1.647	3.349	3.306	4.299	-2.125	1.076	-4.651	-5.994	-6.281	-4.688	-1.803	1.195	1.464	1.269	2.212	3.219	2.055	2.403	2.202	-1.083	2.091	-4.523	-1.097	-5.844	-6.441	-4.484	640.625
2.129	3.455	1.952	3.875	3.566	4.540	-2.433	0.800	-5.057	-6.584	-6.813	-5.108	-2.122	1.252	1.946	1.750	2.542	3.486	2.268	2.722	2.430	-1.094	2.071	-5.053	-1.576	-6.554	-7.117	-4.950	644.531
2.600	3.814	2.205	4.288	3.804	4.738	-2.636	0.545	-5.392	-7.026	-7.270	-5.459	-2.288	1.394	2.322	2.130	2.818	3.681	2.452	2.968	2.673	-1.055	2.061	-5.409	-1.996	-7.124	-7.631	-5.326	648.438
2.923	4.039	2.386	4.553	4.000	4.879	-2.714	0.331	-5.647	-7.292	-7.624	-5.724	-2.289	1.614	2.580	2.390	3.024	3.800	2.604	3.141	2.922	-0.962	2.062	-5.568	-2.341	-7.535	-7.960	-5.596	652.344
3.079	4.114	2.482	4.651	4.135	4.947	-2.657	0.166	-5.817	-7.363	-7.851	-5.886	-2.124	1.893	2.718	2.520	3.143	3.839	2.718	3.241	3.163	-0.822	2.074	-5.516	-2.595	-7.772	-8.089	-5.743	656.250
3.064	4.035	2.484	4.575	4.192	4.927	-2.467	0.043	-5.899	-7.232	-7.930	-5.927	-1.804	2.209	2.733	2.514	3.162	3.797	2.784	3.267	3.376	-0.648	2.091	-5.254	-2.741	-7.823	-8.011	-5.747	660.156
2.884	3.813	2.393	4.337	4.163	4.810	-2.157	-0.055	-5.892	-6.909	-7.853	-5.833	-1.354	2.535	2.630	2.375	3.077	3.673	2.793	3.215	3.539	-0.460	2.107	-4.797	-2.771	-7.683	-7.726	-5.592	664.062
2.564	3.477	2.219	3.965	4.045	4.592	-1.754	-0.152	-5.800	-6.416	-7.622	-5.601	-0.807	2.845	2.419	2.117	2.894	3.473	2.737	3.083	3.635	-0.280	2.115	-4.174	-2.681	-7.356	-7.248	-5.273	667.969
2.136	3.068	1.981	3.501	3.847	4.283	-1.296	-0.269	-5.627	-5.793	-7.251	-5.242	-0.206	3.114	2.120	1.762	2.631	3.204	2.615	2.871	3.649	-0.129	2.112	-3.429	-2.478	-6.865	-6.603	-4.802	671.875
1.644	2.633	1.703	2.988	3.583	3.899	-0.824	-0.418	-5.385	-5.090	-6.767	-4.785	0.403	3.321	1.755	1.340	2.314	2.886	2.435	2.585	3.576	-0.021	2.098	-2.615	-2.179	-6.243	-5.837	-4.216	675.781
1.136	2.213	1.413	2.470	3.271	3.463	-0.384	-0.599	-5.089	-4.365	-6.210	-4.273	0.974	3.452	1.355	0.883	1.978	2.542	2.212	2.235	3.421	0.040	2.080	-1.791	-1.807	-5.540	-5.003	-3.575	679.688
0.659	1.844	1.132	1.980	2.931	3.006	-0.016	-0.794	-4.761	-3.678	-5.627	-3.761	1.462	3.497	0.952	0.426	1.656	2.202	1.971	1.839	3.197	0.060	2.069	-1.015	-1.387	-4.811	-4.164	-2.948	683.594
0.252	1.541	0.878	1.538	2.579	2.558	0.244	-0.980	-4.428	-3.088	-5.070	-3.305	1.829	3.451	0.576	-0.001	1.379	1.897	1.739	1.417	2.922	0.051	2.079	-0.339	-0.947	-4.107	-3.381	-2.402	687.500
-0.057	1.308	0.661	1.154	2.227	2.146	0.374	-1.126	-4.120	-2.640	-4.586	-2.949	2.046	3.316	0.254	-0.372	1.170	1.656	1.543	0.993	2.617	0.028	2.120	0.195	-0.511	-3.471	-2.705	-1.986	691.406
-0.251	1.137	0.487	0.832	1.883	1.796	0.361	-1.208	-3.862	-2.367	-4.211	-2.719	2.097	3.096	0.011	-0.672	1.040	1.498	1.398	0.596	2.302	0.002	2.198	0.561	-0.104	-2.933	-2.175	-1.723	695.312
-0.326	1.020	0.358	0.572	1.554	1.530	0.212	-1.210	-3.671	-2.280	-3.963	-2.619	1.975	2.802	-0.133	-0.891	0.991	1.432	1.311	0.251	1.995	-0.020	2.306	0.745	0.252	-2.509	-1.812	-1.607	699.219
-0.293	0.948	0.272	0.379	1.251	1.360	-0.054	-1.127	-3.552	-2.369	-3.839	-2.630	1.690	2.450	-0.165	-1.025	1.010	1.452	1.274	-0.017	1.713	-0.042	2.427	0.747	0.538	-2.206	-1.624	-1.606	703.125
-0.165	0.917	0.232	0.256	0.986	1.295	-0.405	-0.969	-3.493	-2.606	-3.820	-2.718	1.266	2.058	-0.079	-1.077	1.080	1.542	1.269	-0.185	1.468	-0.072	2.536	0.579	0.734	-2.023	-1.605	-1.677	707.031
0.033	0.929	0.235	0.207	0.772	1.332	-0.801	-0.754	-3.473	-2.950	-3.874	-2.844	0.741	1.651	0.125	-1.054	1.177	1.677	1.274	-0.243	1.269	-0.124	2.604	0.266	0.832	-1.952	-1.737	-1.773	710.938
0.277	0.985	0.278	0.231	0.620	1.458	-1.201	-0.508	-3.463	-3.352	-3.965	-2.971	0.160	1.254	0.429	-0.968	1.273	1.827	1.264	-0.186	1.122	-0.208	2.606	-0.160	0.828	-1.982	-1.993	-1.857	714.844
0.542	1.084	0.354	0.319	0.539	1.648	-1.564	-0.256	-3.435	-3.762	-4.060	-3.072	-0.423	0.895	0.805	-0.836	1.348	1.965	1.225	-0.026	1.030	-0.328	2.530	-0.657	0.731	-2.095	-2.341	-1.905	718.750
0.803	1.218	0.453	0.452	0.526	1.872	-1.859	-0.021	-3.365	-4.136	-4.131	-3.134	-0.957	0.596	1.211	-0.675	1.386	2.071	1.152	0.216	0.990	-0.479	2.376	-1.181	0.555	-2.268	-2.744	-1.912	722.656
1.041	1.373	0.562	0.602	0.574	2.094	-2.065	0.182	-3.242	-4.441	-4.165	-3.156	-1.395	0.376	1.600	-0.506	1.381	2.130	1.054	0.512	0.999	-0.641	2.164	-1.686	0.324	-2.478	-3.162	-1.888	726.562
1.239	1.528	0.668	0.743	0.668	2.282	-2.170	0.348	-3.066	-4.651	-4.155	-3.148	-1.704	0.248	1.925	-0.346	1.337	2.138	0.947	0.827	1.050	-0.791	1.923	-2.130	0.060	-2.701	-3.561	-1.855	730.469
1.384	1.662	0.757	0.847	0.791	2.415	-2.171	0.483	-2.845	-4.754	-4.105	-3.121	-1.863	0.215	2.151	-0.211	1.265	2.097	0.852	1.127	1.133	-0.902	1.685	-2.476	-0.213	-2.913	-3.906	-1.833	734.375
1.466	1.752	0.821	0.895	0.925	2.478	-2.074	0.598	-2.597	-4.740	-4.020	-3.090	-1.866	0.272	2.259	-0.114	1.180	2.013	0.784	1.382	1.239	-0.953	1.482	-2.697	-0.473	-3.091	-4.171	-1.839	738.281
1.473	1.781	0.849	0.876	1.055	2.469	-1.886	0.706	-2.337	-4.608	-3.905	-3.059	-1.720	0.407	2.244	-0.065	1.094	1.892	0.752	1.568	1.355	-0.935	1.334	-2.775	-0.699	-3.213	-4.332	-1.874	742.188
1.398	1.737	0.837	0.784	1.166	2.393	-1.618	0.815	-2.075	-4.355	-3.757	-3.023	-1.443	0.603	2.119	-0.071	1.015	1.740	0.751	1.668	1.469	-0.851	1.247	-2.701	-0.871	-3.258	-4.370	-1.923	746.094
1.236	1.613	0.780	0.622	1.247	2.257	-1.283	0.927	-1.813	-3.987	-3.568	-2.970	-1.061	0.839	1.904	-0.138	0.942	1.561	0.765	1.671	1.567	-0.717	1.218	-2.479	-0.972	-3.207	-4.275	-1.962	750.000
0.989	1.411	0.677	0.399	1.288	2.069	-0.900	1.041	-1.543	-3.509	-3.326	-2.882	-0.605	1.091	1.623	-0.268	0.866	1.358	0.771	1.575	1.635	-0.562	1.232	-2.124	-0.988	-3.050	-4.043	-1.958	753.906
0.670	1.136	0.531	0.124	1.279	1.837	-0.488	1.149	-1.256	-2.937	-3.017	-2.738	-0.113	1.335	1.302	-0.458	0.774	1.136	0.747	1.385	1.660	-0.413	1.270	-1.663	-0.913	-2.783	-3.678	-1.884	757.812
0.302	0.803	0.346	-0.189	1.213	1.564	-0.075	1.245	-0.941	-2.297	-2.635	-2.525	0.379	1.547	0.965	-0.702	0.655	0.904	0.676	1.117	1.631	-0.296	1.312	-1.133	-0.749	-2.415	-3.198	-1.721	761.719
-0.081	0.431	0.133	-0.525	1.083	1.254	0.311	1.319	-0.598	-1.623	-2.186	-2.238	0.832	1.706	0.638	-0.985	0.504	0.674	0.552	0.794	1.544	-0.227	1.344	-0.576	-0.508	-1.967	-2.628	-1.467	765.625
-0.442	0.043	-0.096	-0.870	0.889	0.910	0.636	1.362	-0.237	-0.962	-1.688	-1.883	1.211	1.798	0.347	-1.284	0.331	0.459	0.387	0.446	1.404	-0.207	1.358	-0.035	-0.212	-1.468	-1.998	-1.131	769.531
-0.745	-0.336	-0.325	-1.208	0.631	0.538	0.870	1.364	0.121	-0.360	-1.169	-1.474	1.490	1.814	0.116	-1.572	0.158	0.272	0.203	0.112	1.223	-0.229	1.357	0.449	0.113	-0.952	-1.344	-0.739	773.438
-0.958	-0.679	-0.541	-1.526	0.319	0.147	0.991	1.315	0.452	0.141	-0.664	-1.031	1.650	1.752	-0.034	-1.819	0.014	0.126	0.032	-0.174	1.018	-0.275	1.345	0.848	0.438	-0.452	-0.696	-0.316	777.344
-1.065	-0.966	-0.730	-1.811	-0.037	-0.256	0.987	1.207	0.732	0.511	-0.201	-0.571	1.688	1.618	-0.090	-2.002	-0.075	0.027	-0.098	-0.383	0.809	-0.326	1.334	1.144	0.739	0.006	-0.079	0.111	781.250
-1.061	-1.185	-0.884	-2.056	-0.425	-0.662	0.861	1.039	0.947	0.742	0.201	-0.108	1.612	1.423	-0.052	-2.108	-0.089	-0.025	-0.168	-0.501	0.612	-0.364	1.329	1.335	1.001	0.408	0.494	0.523	785.156
-0.961	-1.336	-1.003	-2.262	-0.832	-1.068	0.634	0.818	1.098	0.850	0.541	0.350	1.444	1.183	0.069	-2.138	-0.026	-0.037	-0.174	-0.532	0.437	-0.379	1.338	1.437	1.218	0.754	1.024	0.911	789.062
-0.793	-1.436	-1.096	-2.438	-1.249	-1.474	0.337	0.557	1.197	0.871	0.832	0.801	1.215	0.916	0.249	-2.109	0.101	-0.022	-0.124	-0.497	0.283	-0.369	1.359	1.479	1.397	1.058	1.522	1.276	792.969
-0.592	-1.510	-1.175	-2.601	-1.668	-1.882	0.010	0.278	1.270	0.851	1.096	1.248	0.965	0.640	0.455	-2.049	0.266	0.006	-0.039	-0.427	0.145	-0.340	1.391	1.496	1.555	1.339	2.006	1.623	796.875
