FP1	F3	F7	FC3	C3	C5	P3	P7	PO7	PO3	O1	Oz	Pz	CPz	FP2	Fz	F4	F8	FC4	FCz	Cz	C4	C6	P4	P8	PO8	PO4	O2	time
1.436	-0.235	-0.878	-0.429	-0.398	-0.494	-0.519	-0.818	1.630	-0.479	0.777	0.652	-0.015	0.181	-1.647	0.135	-0.189	-0.155	-0.525	0.077	0.119	0.345	0.103	0.375	0.452	0.095	0.411	0.175	-199.219
1.081	0.059	-0.699	-0.040	-0.142	-0.292	-0.495	-0.443	0.804	-0.583	0.228	0.128	-0.143	0.170	-0.751	0.255	0.134	-0.246	-0.202	0.284	0.261	0.405	0.328	0.159	0.155	-0.151	-0.034	-0.179	-195.312
0.758	0.307	-0.531	0.304	0.094	-0.108	-0.467	-0.111	0.072	-0.671	-0.270	-0.357	-0.246	0.164	0.089	0.356	0.403	-0.331	0.080	0.468	0.392	0.459	0.524	-0.026	-0.113	-0.354	-0.422	-0.498	-191.406
0.483	0.484	-0.386	0.570	0.294	0.044	-0.430	0.146	-0.495	-0.731	-0.680	-0.771	-0.301	0.168	0.821	0.427	0.589	-0.400	0.298	0.609	0.503	0.505	0.674	-0.155	-0.329	-0.488	-0.706	-0.754	-187.500
0.263	0.571	-0.273	0.737	0.442	0.149	-0.384	0.306	-0.854	-0.755	-0.976	-1.087	-0.297	0.184	1.403	0.461	0.676	-0.441	0.434	0.695	0.588	0.540	0.762	-0.210	-0.477	-0.535	-0.856	-0.925	-183.594
0.097	0.564	-0.193	0.793	0.529	0.200	-0.329	0.361	-0.993	-0.744	-1.148	-1.290	-0.227	0.213	1.807	0.456	0.667	-0.445	0.483	0.721	0.643	0.561	0.781	-0.186	-0.550	-0.494	-0.862	-1.002	-179.688
-0.024	0.470	-0.141	0.744	0.552	0.192	-0.266	0.320	-0.933	-0.700	-1.201	-1.375	-0.100	0.253	2.022	0.416	0.580	-0.404	0.453	0.689	0.665	0.568	0.734	-0.091	-0.549	-0.378	-0.736	-0.984	-175.781
-0.109	0.307	-0.112	0.607	0.514	0.131	-0.196	0.202	-0.724	-0.632	-1.151	-1.350	0.072	0.297	2.052	0.348	0.449	-0.319	0.368	0.611	0.657	0.558	0.631	0.057	-0.483	-0.214	-0.509	-0.886	-171.875
-0.166	0.105	-0.102	0.410	0.424	0.030	-0.123	0.038	-0.438	-0.549	-1.022	-1.229	0.266	0.341	1.921	0.267	0.312	-0.200	0.259	0.503	0.624	0.537	0.492	0.232	-0.372	-0.034	-0.222	-0.731	-167.969
-0.202	-0.100	-0.110	0.190	0.298	-0.095	-0.048	-0.143	-0.155	-0.461	-0.839	-1.036	0.457	0.377	1.670	0.184	0.204	-0.064	0.159	0.386	0.572	0.508	0.338	0.404	-0.237	0.129	0.079	-0.547	-164.062
-0.221	-0.274	-0.137	-0.017	0.153	-0.224	0.024	-0.315	0.056	-0.378	-0.627	-0.793	0.624	0.400	1.346	0.114	0.150	0.066	0.096	0.278	0.510	0.479	0.192	0.548	-0.104	0.249	0.348	-0.362	-160.156
-0.228	-0.388	-0.179	-0.179	0.008	-0.337	0.089	-0.462	0.148	-0.304	-0.406	-0.526	0.747	0.405	1.005	0.067	0.158	0.164	0.089	0.195	0.448	0.454	0.075	0.641	0.005	0.313	0.554	-0.200	-156.250
-0.223	-0.428	-0.228	-0.274	-0.117	-0.417	0.144	-0.578	0.104	-0.240	-0.192	-0.256	0.815	0.393	0.696	0.047	0.219	0.213	0.138	0.146	0.394	0.438	-0.001	0.669	0.069	0.314	0.673	-0.076	-152.344
-0.209	-0.395	-0.272	-0.296	-0.210	-0.455	0.185	-0.664	-0.057	-0.185	0.006	-0.002	0.827	0.363	0.456	0.054	0.307	0.203	0.230	0.135	0.355	0.427	-0.032	0.631	0.083	0.260	0.698	0.002	-148.438
-0.186	-0.308	-0.295	-0.251	-0.260	-0.445	0.211	-0.724	-0.294	-0.135	0.182	0.223	0.785	0.320	0.305	0.083	0.388	0.141	0.338	0.156	0.332	0.414	-0.022	0.530	0.047	0.165	0.635	0.036	-144.531
-0.156	-0.192	-0.287	-0.160	-0.267	-0.391	0.221	-0.762	-0.550	-0.086	0.335	0.409	0.699	0.267	0.246	0.125	0.428	0.043	0.431	0.200	0.322	0.390	0.018	0.381	-0.023	0.046	0.500	0.037	-140.625
-0.122	-0.076	-0.241	-0.048	-0.234	-0.300	0.216	-0.777	-0.769	-0.035	0.462	0.551	0.581	0.206	0.261	0.172	0.401	-0.063	0.480	0.256	0.322	0.346	0.078	0.201	-0.109	-0.077	0.314	0.017	-136.719
-0.088	0.021	-0.165	0.062	-0.169	-0.185	0.198	-0.768	-0.908	0.016	0.561	0.647	0.444	0.139	0.323	0.216	0.300	-0.149	0.466	0.310	0.322	0.274	0.143	0.011	-0.187	-0.189	0.099	-0.008	-132.812
-0.058	0.089	-0.071	0.150	-0.086	-0.059	0.169	-0.730	-0.942	0.063	0.628	0.694	0.299	0.068	0.393	0.252	0.136	-0.195	0.388	0.353	0.318	0.176	0.203	-0.169	-0.236	-0.278	-0.121	-0.027	-128.906
-0.034	0.131	0.023	0.209	0.001	0.064	0.130	-0.660	-0.871	0.100	0.657	0.694	0.154	-0.007	0.433	0.280	-0.063	-0.193	0.259	0.380	0.305	0.059	0.249	-0.320	-0.245	-0.339	-0.327	-0.035	-125.000
-0.017	0.158	0.101	0.241	0.080	0.173	0.085	-0.555	-0.717	0.122	0.638	0.645	0.018	-0.082	0.411	0.301	-0.260	-0.147	0.106	0.391	0.284	-0.064	0.274	-0.429	-0.210	-0.373	-0.501	-0.032	-121.094
-0.010	0.180	0.151	0.253	0.140	0.260	0.035	-0.418	-0.511	0.121	0.567	0.550	-0.103	-0.156	0.314	0.319	-0.419	-0.077	-0.039	0.386	0.254	-0.178	0.275	-0.486	-0.137	-0.379	-0.630	-0.023	-117.188
-0.018	0.204	0.168	0.254	0.173	0.320	-0.019	-0.253	-0.291	0.095	0.441	0.413	-0.206	-0.226	0.145	0.334	-0.512	-0.007	-0.145	0.368	0.216	-0.268	0.250	-0.491	-0.037	-0.359	-0.701	-0.011	-113.281
-0.045	0.227	0.153	0.249	0.177	0.353	-0.077	-0.067	-0.086	0.043	0.266	0.242	-0.291	-0.291	-0.070	0.344	-0.525	0.042	-0.190	0.336	0.170	-0.325	0.202	-0.447	0.078	-0.310	-0.705	0.000	-109.375
-0.094	0.239	0.111	0.237	0.149	0.359	-0.137	0.131	0.085	-0.031	0.055	0.051	-0.358	-0.349	-0.294	0.341	-0.462	0.057	-0.169	0.286	0.110	-0.347	0.135	-0.363	0.196	-0.226	-0.635	0.016	-105.469
-0.167	0.223	0.053	0.210	0.093	0.340	-0.197	0.328	0.220	-0.118	-0.170	-0.143	-0.409	-0.403	-0.489	0.314	-0.345	0.035	-0.096	0.213	0.032	-0.339	0.057	-0.251	0.312	-0.099	-0.491	0.044	-101.562
-0.257	0.170	-0.010	0.156	0.012	0.298	-0.252	0.513	0.328	-0.204	-0.386	-0.321	-0.444	-0.452	-0.622	0.251	-0.209	-0.014	0.004	0.108	-0.071	-0.313	-0.027	-0.121	0.422	0.076	-0.278	0.096	-97.656
-0.355	0.075	-0.065	0.065	-0.086	0.237	-0.294	0.674	0.426	-0.273	-0.567	-0.464	-0.463	-0.498	-0.674	0.140	-0.094	-0.070	0.094	-0.034	-0.202	-0.285	-0.107	0.015	0.527	0.297	-0.007	0.180	-93.750
-0.442	-0.054	-0.101	-0.070	-0.195	0.159	-0.316	0.804	0.527	-0.308	-0.692	-0.558	-0.464	-0.539	-0.647	-0.023	-0.037	-0.115	0.138	-0.215	-0.358	-0.268	-0.179	0.150	0.630	0.553	0.301	0.299	-89.844
-0.497	-0.208	-0.110	-0.245	-0.305	0.069	-0.308	0.897	0.633	-0.297	-0.747	-0.593	-0.445	-0.573	-0.557	-0.233	-0.067	-0.131	0.109	-0.429	-0.531	-0.271	-0.240	0.279	0.731	0.825	0.621	0.447	-85.938
-0.494	-0.374	-0.089	-0.452	-0.409	-0.027	-0.265	0.949	0.736	-0.234	-0.728	-0.566	-0.399	-0.592	-0.431	-0.480	-0.191	-0.110	-0.004	-0.663	-0.703	-0.295	-0.285	0.400	0.828	1.084	0.924	0.612	-82.031
-0.414	-0.542	-0.044	-0.669	-0.497	-0.119	-0.184	0.963	0.815	-0.120	-0.639	-0.480	-0.324	-0.591	-0.298	-0.741	-0.398	-0.056	-0.192	-0.894	-0.854	-0.333	-0.316	0.513	0.914	1.299	1.180	0.771	-78.125
-0.252	-0.702	0.013	-0.873	-0.561	-0.199	-0.071	0.940	0.846	0.034	-0.492	-0.346	-0.220	-0.561	-0.179	-0.987	-0.653	0.020	-0.426	-1.100	-0.964	-0.370	-0.330	0.611	0.974	1.440	1.364	0.901	-74.219
-0.019	-0.840	0.065	-1.035	-0.594	-0.258	0.062	0.884	0.808	0.211	-0.307	-0.179	-0.091	-0.500	-0.086	-1.186	-0.907	0.099	-0.661	-1.255	-1.013	-0.391	-0.328	0.689	0.989	1.481	1.456	0.979	-70.312
0.253	-0.935	0.096	-1.131	-0.592	-0.290	0.197	0.799	0.695	0.389	-0.104	0.003	0.052	-0.407	-0.023	-1.309	-1.108	0.163	-0.851	-1.336	-0.993	-0.382	-0.312	0.736	0.942	1.405	1.443	0.987	-66.406
0.520	-0.965	0.096	-1.143	-0.552	-0.291	0.315	0.689	0.516	0.548	0.099	0.183	0.196	-0.286	0.010	-1.336	-1.209	0.195	-0.951	-1.333	-0.905	-0.335	-0.284	0.740	0.820	1.210	1.326	0.919	-62.500
0.738	-0.909	0.065	-1.065	-0.476	-0.260	0.400	0.558	0.295	0.672	0.285	0.346	0.324	-0.149	0.012	-1.258	-1.185	0.187	-0.938	-1.243	-0.760	-0.254	-0.250	0.692	0.623	0.910	1.116	0.779	-58.594
0.870	-0.761	0.013	-0.904	-0.371	-0.201	0.443	0.409	0.068	0.752	0.443	0.486	0.421	-0.009	-0.022	-1.083	-1.033	0.144	-0.811	-1.079	-0.581	-0.152	-0.219	0.590	0.364	0.534	0.835	0.586	-54.688
0.895	-0.530	-0.041	-0.679	-0.245	-0.122	0.442	0.249	-0.131	0.789	0.568	0.598	0.475	0.118	-0.096	-0.833	-0.779	0.077	-0.592	-0.860	-0.393	-0.049	-0.198	0.437	0.070	0.122	0.513	0.364	-50.781
0.810	-0.245	-0.076	-0.419	-0.111	-0.031	0.405	0.086	-0.270	0.788	0.658	0.685	0.477	0.219	-0.211	-0.543	-0.464	0.011	-0.323	-0.615	-0.225	0.033	-0.193	0.244	-0.224	-0.281	0.183	0.143	-46.875
0.630	0.051	-0.070	-0.157	0.020	0.062	0.344	-0.072	-0.330	0.760	0.718	0.749	0.425	0.282	-0.364	-0.247	-0.139	-0.032	-0.052	-0.369	-0.095	0.074	-0.207	0.027	-0.481	-0.632	-0.125	-0.049	-42.969
0.383	0.318	-0.013	0.081	0.136	0.145	0.273	-0.214	-0.305	0.714	0.754	0.795	0.323	0.305	-0.545	0.019	0.152	-0.032	0.175	-0.146	-0.017	0.063	-0.240	-0.197	-0.673	-0.898	-0.391	-0.191	-39.062
0.105	0.520	0.093	0.273	0.229	0.211	0.205	-0.328	-0.206	0.659	0.774	0.821	0.178	0.288	-0.740	0.234	0.378	0.018	0.327	0.037	0.010	-0.001	-0.288	-0.413	-0.783	-1.062	-0.600	-0.273	-35.156
-0.167	0.643	0.235	0.409	0.294	0.256	0.151	-0.402	-0.052	0.602	0.780	0.824	0.003	0.240	-0.932	0.383	0.525	0.111	0.394	0.174	-0.005	-0.104	-0.346	-0.606	-0.811	-1.121	-0.748	-0.299	-31.250
-0.397	0.686	0.391	0.489	0.331	0.276	0.114	-0.427	0.125	0.542	0.772	0.796	-0.186	0.174	-1.108	0.466	0.598	0.225	0.382	0.264	-0.049	-0.228	-0.405	-0.764	-0.768	-1.088	-0.837	-0.279	-27.344
-0.558	0.666	0.535	0.519	0.343	0.276	0.097	-0.397	0.295	0.479	0.747	0.731	-0.370	0.105	-1.254	0.491	0.612	0.330	0.312	0.311	-0.105	-0.349	-0.459	-0.874	-0.675	-0.984	-0.866	-0.234	-23.438
-0.630	0.603	0.641	0.505	0.336	0.259	0.095	-0.312	0.429	0.413	0.696	0.625	-0.528	0.048	-1.358	0.469	0.585	0.398	0.213	0.321	-0.160	-0.444	-0.497	-0.927	-0.552	-0.834	-0.836	-0.180	-19.531
-0.610	0.518	0.692	0.455	0.316	0.232	0.103	-0.180	0.505	0.343	0.611	0.481	-0.644	0.015	-1.414	0.412	0.531	0.405	0.110	0.298	-0.207	-0.498	-0.511	-0.914	-0.415	-0.659	-0.745	-0.131	-15.625
-0.506	0.429	0.679	0.377	0.289	0.202	0.114	-0.017	0.515	0.268	0.487	0.307	-0.706	0.011	-1.419	0.333	0.460	0.345	0.022	0.248	-0.244	-0.502	-0.496	-0.829	-0.271	-0.475	-0.589	-0.090	-11.719
-0.338	0.347	0.605	0.278	0.260	0.172	0.118	0.155	0.462	0.190	0.325	0.114	-0.710	0.036	-1.376	0.242	0.374	0.225	-0.041	0.178	-0.271	-0.461	-0.447	-0.676	-0.124	-0.293	-0.371	-0.058	-7.812
-0.137	0.280	0.483	0.168	0.229	0.146	0.106	0.311	0.362	0.110	0.128	-0.083	-0.661	0.082	-1.293	0.148	0.274	0.067	-0.078	0.095	-0.294	-0.385	-0.364	-0.466	0.030	-0.117	-0.098	-0.026	-3.906
0.062	0.228	0.334	0.057	0.198	0.125	0.070	0.431	0.238	0.030	-0.089	-0.272	-0.571	0.140	-1.182	0.062	0.161	-0.100	-0.095	0.007	-0.315	-0.290	-0.255	-0.221	0.192	0.051	0.212	0.009	0.000
0.226	0.190	0.187	-0.042	0.165	0.107	0.008	0.500	0.119	-0.047	-0.309	-0.439	-0.459	0.195	-1.059	-0.009	0.035	-0.246	-0.103	-0.072	-0.336	-0.195	-0.135	0.030	0.358	0.206	0.531	0.054	3.906
0.331	0.164	0.066	-0.119	0.128	0.089	-0.077	0.514	0.028	-0.115	-0.507	-0.571	-0.346	0.234	-0.938	-0.059	-0.098	-0.346	-0.113	-0.133	-0.358	-0.117	-0.024	0.252	0.519	0.346	0.824	0.110	7.812
0.365	0.145	-0.009	-0.167	0.085	0.069	-0.178	0.481	-0.018	-0.168	-0.658	-0.655	-0.253	0.249	-0.832	-0.083	-0.232	-0.388	-0.134	-0.167	-0.379	-0.067	0.055	0.412	0.659	0.464	1.055	0.175	11.719
0.335	0.128	-0.026	-0.188	0.033	0.045	-0.284	0.421	-0.014	-0.199	-0.740	-0.681	-0.193	0.235	-0.751	-0.082	-0.358	-0.371	-0.169	-0.169	-0.399	-0.050	0.085	0.487	0.763	0.553	1.195	0.243	15.625
0.256	0.110	0.011	-0.184	-0.027	0.016	-0.383	0.355	0.031	-0.201	-0.738	-0.643	-0.177	0.194	-0.700	-0.060	-0.466	-0.308	-0.217	-0.143	-0.418	-0.065	0.060	0.466	0.817	0.604	1.226	0.308	19.531
0.153	0.089	0.093	-0.164	-0.096	-0.017	-0.464	0.305	0.104	-0.173	-0.646	-0.540	-0.204	0.130	-0.684	-0.024	-0.543	-0.216	-0.267	-0.096	-0.437	-0.104	-0.014	0.357	0.813	0.613	1.145	0.359	23.438
0.046	0.068	0.202	-0.138	-0.169	-0.051	-0.520	0.286	0.183	-0.117	-0.476	-0.382	-0.269	0.051	-0.704	0.018	-0.574	-0.119	-0.307	-0.038	-0.460	-0.155	-0.122	0.180	0.757	0.577	0.967	0.388	27.344
-0.049	0.054	0.320	-0.112	-0.241	-0.080	-0.550	0.305	0.254	-0.040	-0.250	-0.188	-0.363	-0.036	-0.762	0.058	-0.549	-0.038	-0.322	0.014	-0.490	-0.208	-0.240	-0.035	0.661	0.505	0.720	0.389	31.250
-0.128	0.057	0.431	-0.092	-0.302	-0.099	-0.554	0.361	0.306	0.049	-0.002	0.013	-0.475	-0.124	-0.860	0.088	-0.463	0.014	-0.304	0.047	-0.534	-0.255	-0.343	-0.252	0.552	0.412	0.442	0.360	35.156
-0.190	0.082	0.523	-0.081	-0.346	-0.104	-0.537	0.448	0.343	0.138	0.228	0.186	-0.595	-0.209	-0.993	0.099	-0.328	0.027	-0.253	0.048	-0.595	-0.293	-0.410	-0.437	0.458	0.322	0.175	0.302	39.062
-0.238	0.125	0.591	-0.083	-0.366	-0.093	-0.502	0.560	0.377	0.214	0.400	0.295	-0.715	-0.292	-1.154	0.084	-0.168	0.004	-0.180	0.011	-0.675	-0.322	-0.430	-0.562	0.411	0.265	-0.040	0.223	42.969
-0.279	0.176	0.636	-0.100	-0.363	-0.068	-0.456	0.691	0.424	0.270	0.478	0.305	-0.830	-0.369	-1.328	0.040	-0.020	-0.047	-0.104	-0.069	-0.772	-0.347	-0.398	-0.606	0.437	0.269	-0.171	0.134	46.875
-0.318	0.212	0.662	-0.138	-0.338	-0.033	-0.403	0.840	0.505	0.297	0.440	0.196	-0.937	-0.442	-1.492	-0.036	0.075	-0.112	-0.047	-0.188	-0.881	-0.371	-0.320	-0.558	0.549	0.353	-0.194	0.047	50.781
-0.360	0.212	0.673	-0.200	-0.303	0.003	-0.345	1.009	0.633	0.297	0.278	-0.040	-1.032	-0.510	-1.622	-0.142	0.084	-0.173	-0.032	-0.341	-0.996	-0.396	-0.210	-0.419	0.747	0.526	-0.098	-0.025	54.688
-0.410	0.157	0.669	-0.287	-0.267	0.033	-0.282	1.202	0.818	0.275	0.006	-0.389	-1.115	-0.574	-1.696	-0.275	-0.011	-0.217	-0.070	-0.520	-1.111	-0.425	-0.083	-0.199	1.016	0.781	0.110	-0.070	58.594
-0.465	0.043	0.643	-0.396	-0.243	0.051	-0.213	1.421	1.059	0.247	-0.343	-0.820	-1.185	-0.633	-1.702	-0.431	-0.207	-0.234	-0.163	-0.718	-1.224	-0.458	0.039	0.076	1.325	1.096	0.409	-0.082	62.500
-0.525	-0.118	0.580	-0.519	-0.239	0.054	-0.131	1.668	1.351	0.235	-0.719	-1.284	-1.245	-0.692	-1.646	-0.604	-0.475	-0.221	-0.302	-0.930	-1.337	-0.495	0.136	0.375	1.635	1.438	0.766	-0.060	66.406
-0.583	-0.301	0.469	-0.642	-0.261	0.039	-0.027	1.944	1.682	0.265	-1.058	-1.722	-1.297	-0.756	-1.548	-0.787	-0.773	-0.184	-0.468	-1.156	-1.459	-0.542	0.191	0.656	1.905	1.763	1.138	-0.008	70.312
-0.632	-0.477	0.300	-0.757	-0.312	0.009	0.108	2.246	2.043	0.367	-1.293	-2.071	-1.346	-0.833	-1.439	-0.980	-1.054	-0.137	-0.643	-1.398	-1.603	-0.606	0.189	0.882	2.103	2.035	1.480	0.069	74.219
-0.662	-0.623	0.075	-0.858	-0.393	-0.037	0.282	2.574	2.424	0.564	-1.365	-2.276	-1.395	-0.932	-1.349	-1.187	-1.282	-0.098	-0.815	-1.665	-1.787	-0.701	0.118	1.018	2.212	2.230	1.758	0.171	78.125
-0.659	-0.736	-0.190	-0.952	-0.505	-0.100	0.498	2.921	2.827	0.873	-1.231	-2.293	-1.446	-1.060	-1.299	-1.416	-1.446	-0.086	-0.989	-1.965	-2.022	-0.843	-0.027	1.043	2.234	2.348	1.948	0.301	82.031
-0.612	-0.834	-0.468	-1.059	-0.649	-0.186	0.754	3.276	3.255	1.293	-0.871	-2.099	-1.498	-1.222	-1.294	-1.684	-1.563	-0.118	-1.178	-2.309	-2.319	-1.047	-0.247	0.955	2.196	2.413	2.046	0.472	85.938
-0.509	-0.953	-0.722	-1.203	-0.827	-0.301	1.037	3.619	3.711	1.808	-0.299	-1.693	-1.544	-1.417	-1.321	-2.002	-1.674	-0.202	-1.407	-2.698	-2.673	-1.320	-0.534	0.768	2.139	2.471	2.065	0.696	89.844
-0.348	-1.137	-0.913	-1.407	-1.038	-0.451	1.327	3.925	4.186	2.385	0.442	-1.103	-1.574	-1.636	-1.354	-2.377	-1.827	-0.334	-1.694	-3.126	-3.071	-1.656	-0.871	0.514	2.110	2.568	2.033	0.984	93.750
-0.138	-1.416	-1.008	-1.684	-1.278	-0.638	1.595	4.159	4.652	2.975	1.282	-0.376	-1.576	-1.859	-1.362	-2.801	-2.063	-0.499	-2.045	-3.573	-3.485	-2.035	-1.232	0.234	2.147	2.743	1.984	1.336	97.656
0.104	-1.799	-0.992	-2.028	-1.535	-0.859	1.813	4.286	5.057	3.520	2.137	0.424	-1.536	-2.064	-1.324	-3.247	-2.396	-0.674	-2.440	-4.004	-3.874	-2.422	-1.581	-0.023	2.273	3.008	1.950	1.737	101.562
0.352	-2.258	-0.866	-2.408	-1.789	-1.100	1.953	4.271	5.335	3.965	2.917	1.225	-1.444	-2.220	-1.233	-3.671	-2.802	-0.831	-2.839	-4.375	-4.194	-2.769	-1.882	-0.214	2.479	3.345	1.958	2.160	105.469
0.582	-2.738	-0.654	-2.777	-2.017	-1.345	1.996	4.086	5.413	4.263	3.539	1.956	-1.293	-2.299	-1.102	-4.020	-3.224	-0.943	-3.182	-4.635	-4.400	-3.024	-2.096	-0.306	2.735	3.704	2.018	2.569	109.375
0.776	-3.164	-0.393	-3.077	-2.190	-1.571	1.934	3.713	5.232	4.385	3.943	2.555	-1.084	-2.276	-0.961	-4.240	-3.585	-0.990	-3.409	-4.742	-4.455	-3.143	-2.196	-0.282	2.989	4.020	2.131	2.919	113.281
0.924	-3.464	-0.128	-3.257	-2.283	-1.755	1.775	3.150	4.759	4.324	4.098	2.979	-0.822	-2.136	-0.841	-4.291	-3.806	-0.960	-3.466	-4.665	-4.340	-3.093	-2.162	-0.140	3.182	4.223	2.283	3.174	117.188
1.026	-3.583	0.103	-3.279	-2.277	-1.876	1.539	2.415	4.001	4.098	4.004	3.207	-0.521	-1.876	-0.772	-4.154	-3.827	-0.854	-3.329	-4.397	-4.052	-2.866	-1.995	0.105	3.259	4.255	2.451	3.303	121.094
1.088	-3.494	0.270	-3.132	-2.163	-1.916	1.258	1.543	3.004	3.742	3.692	3.240	-0.199	-1.508	-0.763	-3.840	-3.622	-0.680	-3.004	-3.956	-3.614	-2.475	-1.711	0.425	3.183	4.087	2.612	3.293	125.000
1.119	-3.206	0.366	-2.830	-1.948	-1.870	0.966	0.592	1.852	3.307	3.218	3.103	0.120	-1.058	-0.806	-3.385	-3.209	-0.460	-2.529	-3.382	-3.064	-1.959	-1.345	0.786	2.939	3.720	2.742	3.150	128.906
1.127	-2.758	0.397	-2.410	-1.649	-1.738	0.700	-0.369	0.653	2.849	2.652	2.836	0.415	-0.563	-0.872	-2.846	-2.645	-0.220	-1.970	-2.733	-2.455	-1.372	-0.941	1.147	2.540	3.187	2.827	2.897	132.812
1.120	-2.208	0.386	-1.927	-1.295	-1.533	0.491	-1.267	-0.478	2.423	2.068	2.487	0.661	-0.064	-0.922	-2.293	-2.014	0.006	-1.404	-2.078	-1.848	-0.779	-0.550	1.475	2.021	2.547	2.859	2.569	136.719
1.104	-1.630	0.356	-1.437	-0.923	-1.274	0.361	-2.028	-1.429	2.077	1.536	2.108	0.842	0.392	-0.917	-1.795	-1.409	0.190	-0.909	-1.483	-1.300	-0.243	-0.219	1.738	1.432	1.867	2.839	2.211	140.625
1.088	-1.093	0.331	-0.998	-0.569	-0.988	0.323	-2.586	-2.114	1.848	1.113	1.746	0.944	0.766	-0.835	-1.410	-0.915	0.307	-0.547	-1.006	-0.860	0.182	0.014	1.918	0.831	1.216	2.779	1.864	144.531
1.083	-0.659	0.324	-0.654	-0.270	-0.702	0.381	-2.896	-2.475	1.763	0.840	1.436	0.964	1.024	-0.677	-1.179	-0.595	0.341	-0.356	-0.692	-0.566	0.456	0.124	2.005	0.272	0.653	2.694	1.563	148.438
1.102	-0.375	0.334	-0.440	-0.053	-0.441	0.532	-2.929	-2.490	1.837	0.741	1.208	0.907	1.149	-0.470	-1.123	-0.484	0.287	-0.349	-0.570	-0.442	0.558	0.101	2.003	-0.198	0.222	2.606	1.336	152.344
1.159	-0.270	0.351	-0.376	0.061	-0.228	0.771	-2.685	-2.169	2.073	0.820	1.077	0.788	1.133	-0.258	-1.243	-0.586	0.151	-0.518	-0.650	-0.498	0.485	-0.053	1.926	-0.546	-0.048	2.539	1.200	156.250
1.265	-0.359	0.353	-0.471	0.059	-0.079	1.087	-2.184	-1.550	2.468	1.068	1.053	0.626	0.983	-0.092	-1.526	-0.882	-0.054	-0.837	-0.932	-0.730	0.250	-0.325	1.798	-0.756	-0.145	2.517	1.162	160.156
1.424	-0.638	0.316	-0.721	-0.060	-0.004	1.473	-1.467	-0.691	3.009	1.466	1.136	0.447	0.718	-0.010	-1.952	-1.336	-0.312	-1.273	-1.400	-1.126	-0.122	-0.695	1.649	-0.823	-0.065	2.561	1.224	164.062
1.629	-1.087	0.224	-1.115	-0.290	-0.003	1.918	-0.589	0.340	3.674	1.984	1.322	0.275	0.365	-0.029	-2.496	-1.909	-0.603	-1.793	-2.032	-1.665	-0.603	-1.141	1.505	-0.756	0.183	2.689	1.384	167.969
1.866	-1.678	0.070	-1.631	-0.619	-0.074	2.409	0.390	1.468	4.435	2.592	1.600	0.129	-0.051	-0.133	-3.136	-2.559	-0.910	-2.371	-2.799	-2.320	-1.159	-1.634	1.391	-0.571	0.585	2.909	1.636	171.875
2.107	-2.370	-0.134	-2.239	-1.027	-0.203	2.929	1.411	2.626	5.252	3.252	1.955	0.018	-0.502	-0.285	-3.848	-3.255	-1.217	-2.984	-3.668	-3.064	-1.760	-2.150	1.320	-0.287	1.116	3.219	1.972	175.781
2.321	-3.115	-0.368	-2.906	-1.490	-0.375	3.455	2.424	3.758	6.084	3.930	2.365	-0.064	-0.970	-0.439	-4.614	-3.967	-1.511	-3.616	-4.604	-3.866	-2.381	-2.660	1.296	0.080	1.748	3.603	2.378	179.688
2.474	-3.863	-0.600	-3.592	-1.983	-0.568	3.961	3.391	4.830	6.883	4.591	2.801	-0.133	-1.442	-0.558	-5.409	-4.671	-1.779	-4.255	-5.571	-4.696	-3.000	-3.141	1.313	0.513	2.445	4.038	2.836	183.594
2.538	-4.564	-0.796	-4.258	-2.482	-0.763	4.419	4.289	5.823	7.605	5.203	3.234	-0.215	-1.911	-0.627	-6.210	-5.346	-2.007	-4.884	-6.532	-5.527	-3.599	-3.571	1.357	0.997	3.170	4.490	3.321	187.500
2.503	-5.178	-0.930	-4.869	-2.965	-0.939	4.804	5.110	6.736	8.214	5.739	3.630	-0.336	-2.377	-0.664	-6.990	-5.970	-2.185	-5.487	-7.455	-6.334	-4.162	-3.935	1.412	1.518	3.886	4.926	3.805	191.406
2.370	-5.677	-0.983	-5.395	-3.414	-1.083	5.099	5.857	7.573	8.686	6.179	3.961	-0.522	-2.840	-0.708	-7.724	-6.524	-2.303	-6.045	-8.313	-7.096	-4.674	-4.222	1.460	2.060	4.566	5.312	4.261	195.312
2.161	-6.048	-0.954	-5.817	-3.816	-1.184	5.295	6.537	8.341	9.010	6.510	4.206	-0.786	-3.299	-0.806	-8.389	-6.996	-2.356	-6.541	-9.085	-7.796	-5.125	-4.426	1.488	2.604	5.187	5.623	4.665	199.219
1.903	-6.290	-0.856	-6.127	-4.162	-1.239	5.396	7.156	9.040	9.192	6.726	4.353	-1.128	-3.750	-0.999	-8.966	-7.375	-2.345	-6.956	-9.756	-8.423	-5.502	-4.549	1.490	3.130	5.739	5.845	5.001	203.125
1.624	-6.410	-0.712	-6.323	-4.447	-1.248	5.411	7.713	9.660	9.246	6.829	4.398	-1.529	-4.182	-1.300	-9.441	-7.659	-2.274	-7.278	-10.315	-8.967	-5.796	-4.593	1.467	3.619	6.215	5.976	5.258	207.031
1.347	-6.423	-0.552	-6.411	-4.672	-1.219	5.354	8.196	10.174	9.194	6.822	4.347	-1.956	-4.578	-1.695	-9.805	-7.847	-2.156	-7.495	-10.755	-9.420	-5.999	-4.567	1.430	4.051	6.612	6.030	5.432	210.938
1.082	-6.341	-0.402	-6.402	-4.842	-1.159	5.242	8.582	10.547	9.058	6.713	4.215	-2.364	-4.915	-2.139	-10.052	-7.943	-2.001	-7.601	-11.071	-9.772	-6.104	-4.479	1.396	4.408	6.925	6.028	5.520	214.844
0.838	-6.177	-0.279	-6.311	-4.960	-1.083	5.089	8.847	10.739	8.861	6.511	4.021	-2.702	-5.169	-2.570	-10.185	-7.952	-1.824	-7.595	-11.262	-10.014	-6.108	-4.338	1.386	4.676	7.146	5.999	5.526	218.750
0.616	-5.948	-0.191	-6.155	-5.032	-1.000	4.910	8.963	10.718	8.620	6.230	3.787	-2.923	-5.317	-2.922	-10.209	-7.882	-1.639	-7.484	-11.329	-10.141	-6.010	-4.155	1.420	4.841	7.264	5.970	5.454	222.656
0.420	-5.669	-0.131	-5.955	-5.065	-0.923	4.715	8.916	10.470	8.351	5.891	3.542	-2.989	-5.341	-3.142	-10.134	-7.743	-1.456	-7.277	-11.277	-10.147	-5.817	-3.941	1.512	4.895	7.267	5.962	5.314	226.562
0.260	-5.360	-0.088	-5.731	-5.061	-0.860	4.515	8.706	10.003	8.066	5.517	3.312	-2.879	-5.232	-3.202	-9.976	-7.545	-1.283	-6.992	-11.117	-10.034	-5.542	-3.709	1.665	4.832	7.145	5.985	5.115	230.469
0.148	-5.037	-0.047	-5.499	-5.025	-0.816	4.315	8.347	9.353	7.779	5.138	3.121	-2.594	-4.996	-3.101	-9.750	-7.301	-1.125	-6.652	-10.864	-9.810	-5.204	-3.475	1.872	4.656	6.897	6.036	4.874	234.375
0.100	-4.717	0.000	-5.275	-4.958	-0.790	4.122	7.873	8.583	7.499	4.783	2.989	-2.161	-4.652	-2.871	-9.474	-7.022	-0.984	-6.280	-10.538	-9.491	-4.829	-3.253	2.109	4.375	6.531	6.096	4.606	238.281
0.128	-4.414	0.059	-5.068	-4.863	-0.780	3.937	7.325	7.771	7.236	4.476	2.927	-1.625	-4.229	-2.563	-9.165	-6.723	-0.860	-5.905	-10.161	-9.100	-4.443	-3.057	2.347	4.008	6.065	6.140	4.329	242.188
0.240	-4.139	0.128	-4.884	-4.743	-0.776	3.762	6.755	7.002	6.999	4.236	2.935	-1.047	-3.769	-2.239	-8.841	-6.420	-0.751	-5.551	-9.755	-8.664	-4.075	-2.895	2.550	3.585	5.530	6.135	4.058	246.094
0.433	-3.899	0.201	-4.724	-4.602	-0.770	3.598	6.211	6.355	6.795	4.074	3.005	-0.495	-3.315	-1.953	-8.519	-6.132	-0.656	-5.242	-9.345	-8.215	-3.751	-2.774	2.684	3.139	4.963	6.054	3.805	250.000
0.686	-3.695	0.271	-4.586	-4.443	-0.750	3.448	5.737	5.889	6.625	3.986	3.117	-0.033	-2.907	-1.745	-8.211	-5.876	-0.575	-4.995	-8.949	-7.783	-3.488	-2.691	2.724	2.707	4.403	5.876	3.574	253.906
0.964	-3.518	0.334	-4.459	-4.270	-0.707	3.314	5.365	5.636	6.490	3.960	3.242	0.286	-2.579	-1.635	-7.926	-5.668	-0.505	-4.818	-8.584	-7.394	-3.293	-2.640	2.658	2.321	3.886	5.596	3.366	257.812
1.220	-3.352	0.387	-4.332	-4.089	-0.637	3.198	5.112	5.594	6.384	3.975	3.348	0.433	-2.353	-1.622	-7.667	-5.515	-0.444	-4.710	-8.260	-7.067	-3.164	-2.610	2.490	2.006	3.443	5.225	3.176	261.719
1.410	-3.179	0.434	-4.196	-3.903	-0.539	3.101	4.979	5.727	6.298	4.004	3.407	0.400	-2.235	-1.691	-7.435	-5.418	-0.393	-4.660	-7.979	-6.809	-3.090	-2.590	2.239	1.776	3.098	4.796	3.003	265.625
1.498	-2.985	0.478	-4.043	-3.719	-0.421	3.026	4.951	5.976	6.225	4.021	3.397	0.212	-2.216	-1.813	-7.225	-5.368	-0.355	-4.655	-7.739	-6.622	-3.056	-2.572	1.941	1.634	2.866	4.352	2.846	269.531
1.473	-2.771	0.526	-3.876	-3.544	-0.293	2.976	5.004	6.263	6.162	4.005	3.310	-0.086	-2.272	-1.959	-7.036	-5.350	-0.337	-4.678	-7.536	-6.494	-3.042	-2.557	1.637	1.573	2.753	3.951	2.710	273.438
1.348	-2.550	0.579	-3.707	-3.386	-0.169	2.956	5.106	6.515	6.114	3.945	3.152	-0.432	-2.371	-2.099	-6.871	-5.346	-0.350	-4.714	-7.363	-6.413	-3.032	-2.549	1.375	1.581	2.755	3.648	2.600	277.344
1.162	-2.349	0.638	-3.553	-3.252	-0.063	2.972	5.224	6.672	6.090	3.842	2.942	-0.753	-2.479	-2.208	-6.734	-5.341	-0.404	-4.751	-7.216	-6.362	-3.017	-2.560	1.197	1.641	2.860	3.491	2.523	281.250
0.968	-2.199	0.694	-3.436	-3.148	0.014	3.034	5.331	6.699	6.109	3.706	2.707	-0.985	-2.562	-2.274	-6.634	-5.323	-0.505	-4.782	-7.090	-6.326	-2.992	-2.603	1.136	1.737	3.045	3.513	2.486	285.156
0.823	-2.125	0.736	-3.373	-3.076	0.055	3.150	5.404	6.591	6.188	3.559	2.478	-1.074	-2.594	-2.290	-6.580	-5.290	-0.655	-4.807	-6.987	-6.295	-2.961	-2.688	1.208	1.850	3.284	3.724	2.489	289.062
0.776	-2.141	0.744	-3.375	-3.035	0.059	3.327	5.429	6.368	6.343	3.426	2.288	-0.990	-2.561	-2.254	-6.581	-5.249	-0.847	-4.832	-6.908	-6.265	-2.930	-2.818	1.414	1.965	3.545	4.110	2.532	292.969
0.856	-2.245	0.699	-3.444	-3.022	0.026	3.565	5.402	6.072	6.582	3.331	2.162	-0.727	-2.459	-2.163	-6.638	-5.212	-1.069	-4.864	-6.856	-6.235	-2.910	-2.987	1.735	2.069	3.800	4.637	2.613	296.875
1.067	-2.419	0.582	-3.573	-3.035	-0.040	3.859	5.323	5.750	6.903	3.293	2.119	-0.304	-2.298	-2.011	-6.750	-5.196	-1.304	-4.911	-6.834	-6.210	-2.910	-3.180	2.141	2.150	4.023	5.257	2.729	300.781
1.389	-2.633	0.386	-3.746	-3.067	-0.133	4.195	5.201	5.447	7.289	3.323	2.165	0.238	-2.096	-1.794	-6.908	-5.215	-1.532	-4.978	-6.843	-6.195	-2.934	-3.374	2.592	2.198	4.194	5.912	2.876	304.688
1.783	-2.851	0.120	-3.943	-3.115	-0.247	4.551	5.047	5.192	7.712	3.417	2.295	0.846	-1.874	-1.512	-7.098	-5.277	-1.734	-5.062	-6.882	-6.196	-2.980	-3.541	3.045	2.209	4.299	6.542	3.044	308.594
2.196	-3.035	-0.192	-4.143	-3.174	-0.371	4.898	4.878	5.000	8.135	3.560	2.490	1.459	-1.657	-1.174	-7.301	-5.379	-1.894	-5.158	-6.946	-6.216	-3.040	-3.655	3.462	2.183	4.333	7.092	3.220	312.500
2.575	-3.157	-0.510	-4.326	-3.241	-0.496	5.205	4.709	4.866	8.518	3.727	2.722	2.020	-1.465	-0.798	-7.500	-5.507	-1.999	-5.252	-7.028	-6.256	-3.100	-3.695	3.808	2.126	4.295	7.516	3.384	316.406
2.872	-3.199	-0.793	-4.477	-3.314	-0.610	5.441	4.554	4.778	8.820	3.888	2.959	2.479	-1.315	-0.416	-7.675	-5.639	-2.043	-5.330	-7.117	-6.311	-3.143	-3.652	4.063	2.053	4.191	7.785	3.513	320.312
3.057	-3.159	-1.000	-4.588	-3.393	-0.706	5.584	4.424	4.721	9.013	4.017	3.171	2.804	-1.215	-0.070	-7.813	-5.747	-2.024	-5.378	-7.203	-6.378	-3.156	-3.527	4.214	1.985	4.038	7.885	3.585	324.219
3.122	-3.056	-1.105	-4.659	-3.478	-0.781	5.619	4.327	4.685	9.079	4.096	3.337	2.979	-1.170	0.196	-7.907	-5.806	-1.950	-5.388	-7.280	-6.451	-3.132	-3.333	4.264	1.943	3.855	7.823	3.589	328.125
3.082	-2.919	-1.101	-4.697	-3.572	-0.835	5.547	4.267	4.667	9.019	4.120	3.447	3.006	-1.180	0.339	-7.960	-5.798	-1.834	-5.358	-7.346	-6.531	-3.072	-3.096	4.224	1.951	3.668	7.626	3.527	332.031
2.968	-2.788	-0.995	-4.719	-3.679	-0.876	5.380	4.247	4.670	8.851	4.102	3.509	2.902	-1.240	0.328	-7.983	-5.722	-1.694	-5.296	-7.405	-6.619	-2.988	-2.844	4.118	2.025	3.501	7.338	3.422	335.938
2.826	-2.702	-0.812	-4.744	-3.804	-0.911	5.142	4.264	4.700	8.604	4.065	3.545	2.696	-1.348	0.157	-7.997	-5.596	-1.552	-5.217	-7.468	-6.724	-2.898	-2.604	3.974	2.174	3.382	7.016	3.310	339.844
2.698	-2.691	-0.586	-4.789	-3.952	-0.953	4.860	4.309	4.760	8.316	4.040	3.585	2.424	-1.496	-0.156	-8.022	-5.449	-1.426	-5.141	-7.548	-6.854	-2.822	-2.399	3.823	2.394	3.330	6.721	3.236	343.750
2.616	-2.767	-0.356	-4.869	-4.124	-1.012	4.563	4.370	4.849	8.023	4.054	3.657	2.125	-1.674	-0.565	-8.080	-5.316	-1.331	-5.088	-7.656	-7.018	-2.779	-2.240	3.696	2.670	3.355	6.508	3.241	347.656
2.591	-2.923	-0.159	-4.987	-4.319	-1.093	4.278	4.430	4.954	7.755	4.122	3.781	1.837	-1.871	-1.003	-8.180	-5.231	-1.272	-5.076	-7.800	-7.216	-2.778	-2.127	3.618	2.975	3.458	6.417	3.351	351.562
2.616	-3.127	-0.025	-5.138	-4.529	-1.199	4.023	4.479	5.056	7.532	4.241	3.959	1.592	-2.070	-1.397	-8.325	-5.216	-1.245	-5.114	-7.978	-7.442	-2.821	-2.051	3.606	3.280	3.630	6.469	3.572	355.469
2.668	-3.338	0.027	-5.305	-4.743	-1.324	3.812	4.509	5.129	7.359	4.390	4.175	1.412	-2.251	-1.678	-8.501	-5.279	-1.241	-5.202	-8.180	-7.680	-2.900	-2.001	3.663	3.556	3.858	6.657	3.886	359.375
2.711	-3.507	-0.009	-5.467	-4.944	-1.457	3.651	4.520	5.150	7.230	4.532	4.395	1.312	-2.394	-1.800	-8.688	-5.412	-1.242	-5.331	-8.387	-7.910	-3.000	-1.960	3.784	3.781	4.125	6.951	4.255	363.281
2.710	-3.589	-0.123	-5.597	-5.116	-1.584	3.539	4.520	5.104	7.130	4.626	4.574	1.294	-2.485	-1.751	-8.859	-5.594	-1.234	-5.485	-8.579	-8.107	-3.100	-1.918	3.954	3.945	4.411	7.305	4.625	367.188
2.641	-3.559	-0.293	-5.678	-5.246	-1.687	3.472	4.522	4.991	7.039	4.634	4.667	1.348	-2.513	-1.552	-8.987	-5.791	-1.206	-5.643	-8.735	-8.252	-3.183	-1.867	4.149	4.048	4.701	7.665	4.943	371.094
2.497	-3.417	-0.486	-5.702	-5.326	-1.756	3.441	4.542	4.823	6.943	4.533	4.640	1.459	-2.477	-1.259	-9.058	-5.976	-1.152	-5.789	-8.843	-8.332	-3.234	-1.808	4.346	4.099	4.979	7.980	5.161	375.000
2.297	-3.193	-0.664	-5.674	-5.356	-1.785	3.442	4.593	4.628	6.836	4.325	4.481	1.604	-2.384	-0.944	-9.067	-6.124	-1.078	-5.911	-8.900	-8.347	-3.250	-1.746	4.525	4.118	5.231	8.215	5.249	378.906
2.086	-2.946	-0.793	-5.618	-5.343	-1.780	3.470	4.687	4.443	6.725	4.039	4.213	1.764	-2.250	-0.683	-9.030	-6.229	-0.997	-6.011	-8.916	-8.307	-3.236	-1.693	4.673	4.125	5.445	8.355	5.202	382.812
1.922	-2.748	-0.848	-5.565	-5.303	-1.756	3.525	4.826	4.301	6.631	3.730	3.885	1.921	-2.094	-0.530	-8.975	-6.301	-0.928	-6.097	-8.912	-8.236	-3.205	-1.666	4.781	4.136	5.612	8.411	5.046	386.719
1.856	-2.662	-0.822	-5.550	-5.252	-1.732	3.608	4.997	4.228	6.587	3.466	3.573	2.066	-1.936	-0.509	-8.934	-6.361	-0.892	-6.185	-8.912	-8.160	-3.179	-1.682	4.850	4.159	5.722	8.407	4.825	390.625
1.920	-2.722	-0.725	-5.594	-5.208	-1.729	3.721	5.177	4.233	6.623	3.314	3.358	2.197	-1.791	-0.606	-8.933	-6.437	-0.907	-6.291	-8.937	-8.103	-3.178	-1.757	4.881	4.192	5.766	8.379	4.599	394.531
2.112	-2.922	-0.583	-5.706	-5.178	-1.762	3.864	5.331	4.308	6.765	3.328	3.309	2.319	-1.670	-0.773	-8.987	-6.548	-0.983	-6.427	-8.998	-8.080	-3.219	-1.897	4.880	4.219	5.738	8.361	4.428	398.438
2.399	-3.218	-0.431	-5.873	-5.164	-1.838	4.034	5.420	4.425	7.023	3.535	3.471	2.440	-1.571	-0.946	-9.090	-6.704	-1.123	-6.595	-9.095	-8.093	-3.308	-2.102	4.852	4.222	5.634	8.376	4.356	402.344
2.729	-3.541	-0.304	-6.066	-5.157	-1.947	4.218	5.414	4.546	7.384	3.925	3.847	2.570	-1.488	-1.058	-9.222	-6.894	-1.315	-6.787	-9.211	-8.132	-3.440	-2.357	4.802	4.179	5.457	8.429	4.405	406.250
3.047	-3.814	-0.232	-6.247	-5.143	-2.070	4.402	5.293	4.627	7.811	4.453	4.396	2.713	-1.408	-1.056	-9.349	-7.096	-1.541	-6.983	-9.319	-8.172	-3.597	-2.641	4.733	4.077	5.210	8.508	4.568	410.156
3.308	-3.970	-0.227	-6.378	-5.100	-2.178	4.566	5.061	4.625	8.248	5.045	5.043	2.868	-1.314	-0.916	-9.433	-7.277	-1.777	-7.158	-9.388	-8.179	-3.750	-2.920	4.647	3.911	4.901	8.582	4.809	414.062
3.489	-3.968	-0.286	-6.427	-5.006	-2.238	4.688	4.738	4.509	8.627	5.609	5.687	3.026	-1.191	-0.647	-9.439	-7.403	-1.997	-7.283	-9.383	-8.120	-3.867	-3.162	4.548	3.684	4.540	8.609	5.071	417.969
3.598	-3.797	-0.387	-6.372	-4.847	-2.219	4.747	4.362	4.271	8.880	6.057	6.225	3.169	-1.029	-0.290	-9.344	-7.444	-2.176	-7.333	-9.279	-7.969	-3.915	-3.334	4.434	3.409	4.137	8.545	5.288	421.875
3.664	-3.475	-0.496	-6.209	-4.613	-2.103	4.727	3.980	3.924	8.950	6.320	6.570	3.279	-0.826	0.089	-9.141	-7.386	-2.299	-7.289	-9.063	-7.712	-3.872	-3.414	4.305	3.102	3.704	8.356	5.398	425.781
3.731	-3.046	-0.578	-5.948	-4.307	-1.886	4.621	3.637	3.503	8.806	6.355	6.661	3.336	-0.586	0.419	-8.839	-7.229	-2.355	-7.146	-8.738	-7.350	-3.725	-3.390	4.160	2.782	3.255	8.023	5.357	429.688
3.840	-2.561	-0.604	-5.608	-3.941	-1.582	4.433	3.369	3.056	8.443	6.151	6.478	3.329	-0.322	0.635	-8.460	-6.985	-2.345	-6.907	-8.318	-6.901	-3.474	-3.263	3.999	2.465	2.805	7.550	5.141	433.594
4.012	-2.068	-0.557	-5.214	-3.534	-1.222	4.176	3.192	2.629	7.888	5.725	6.034	3.255	-0.046	0.701	-8.031	-6.673	-2.273	-6.582	-7.828	-6.389	-3.135	-3.045	3.824	2.164	2.366	6.963	4.754	437.500
4.236	-1.601	-0.432	-4.790	-3.112	-0.843	3.874	3.102	2.252	7.192	5.115	5.373	3.128	0.229	0.618	-7.577	-6.315	-2.147	-6.191	-7.293	-5.845	-2.730	-2.760	3.642	1.888	1.951	6.307	4.219	441.406
4.472	-1.174	-0.242	-4.359	-2.695	-0.487	3.555	3.073	1.940	6.424	4.370	4.555	2.969	0.496	0.425	-7.116	-5.931	-1.977	-5.752	-6.739	-5.294	-2.289	-2.431	3.462	1.640	1.570	5.635	3.579	445.312
4.657	-0.784	-0.008	-3.935	-2.304	-0.188	3.247	3.067	1.681	5.654	3.547	3.655	2.809	0.749	0.187	-6.658	-5.538	-1.773	-5.285	-6.183	-4.758	-1.842	-2.087	3.295	1.422	1.226	5.001	2.883	449.219
4.731	-0.420	0.239	-3.530	-1.952	0.032	2.974	3.041	1.452	4.946	2.701	2.742	2.673	0.987	-0.021	-6.210	-5.144	-1.542	-4.812	-5.640	-4.252	-1.417	-1.750	3.149	1.234	0.922	4.448	2.187	453.125
4.652	-0.071	0.465	-3.149	-1.651	0.168	2.750	2.957	1.221	4.349	1.887	1.884	2.583	1.209	-0.139	-5.776	-4.759	-1.289	-4.348	-5.121	-3.785	-1.036	-1.439	3.031	1.075	0.658	4.007	1.542	457.031
4.416	0.266	0.639	-2.801	-1.406	0.226	2.577	2.793	0.962	3.890	1.152	1.133	2.545	1.410	-0.134	-5.363	-4.387	-1.020	-3.909	-4.635	-3.366	-0.713	-1.165	2.944	0.946	0.432	3.689	0.991	460.938
4.056	0.584	0.738	-2.492	-1.220	0.224	2.450	2.548	0.661	3.574	0.535	0.529	2.555	1.583	-0.015	-4.984	-4.032	-0.741	-3.508	-4.195	-3.003	-0.456	-0.935	2.886	0.851	0.244	3.492	0.564	464.844
3.638	0.866	0.752	-2.231	-1.092	0.183	2.354	2.238	0.320	3.389	0.067	0.097	2.598	1.717	0.179	-4.656	-3.702	-0.465	-3.153	-3.817	-2.706	-0.267	-0.754	2.855	0.790	0.097	3.402	0.277	468.750
3.241	1.088	0.684	-2.030	-1.024	0.120	2.275	1.895	-0.043	3.314	-0.231	-0.155	2.654	1.799	0.388	-4.400	-3.405	-0.206	-2.857	-3.517	-2.486	-0.143	-0.625	2.846	0.765	-0.007	3.401	0.134	472.656
2.940	1.227	0.556	-1.900	-1.013	0.049	2.200	1.553	-0.396	3.325	-0.351	-0.229	2.705	1.822	0.550	-4.235	-3.155	0.018	-2.629	-3.312	-2.351	-0.079	-0.548	2.854	0.775	-0.062	3.468	0.126	476.562
2.783	1.267	0.403	-1.851	-1.055	-0.023	2.122	1.245	-0.701	3.399	-0.294	-0.142	2.739	1.781	0.615	-4.174	-2.967	0.192	-2.476	-3.212	-2.308	-0.071	-0.523	2.878	0.815	-0.066	3.583	0.237	480.469
2.782	1.205	0.267	-1.884	-1.145	-0.094	2.038	0.994	-0.924	3.514	-0.079	0.079	2.750	1.682	0.561	-4.217	-2.855	0.306	-2.403	-3.220	-2.354	-0.110	-0.546	2.914	0.877	-0.023	3.726	0.442	484.375
2.908	1.050	0.194	-1.990	-1.273	-0.162	1.949	0.812	-1.043	3.652	0.262	0.397	2.743	1.540	0.393	-4.351	-2.825	0.365	-2.408	-3.325	-2.478	-0.188	-0.607	2.960	0.951	0.055	3.876	0.709	488.281
3.105	0.825	0.214	-2.152	-1.426	-0.227	1.860	0.701	-1.053	3.793	0.679	0.766	2.726	1.376	0.141	-4.549	-2.875	0.382	-2.477	-3.507	-2.656	-0.292	-0.688	3.012	1.024	0.145	4.011	1.002	492.188
3.300	0.564	0.339	-2.340	-1.588	-0.283	1.771	0.656	-0.973	3.914	1.111	1.134	2.705	1.215	-0.149	-4.772	-2.988	0.383	-2.589	-3.733	-2.861	-0.406	-0.768	3.064	1.086	0.219	4.106	1.284	496.094
3.423	0.309	0.559	-2.518	-1.742	-0.323	1.680	0.665	-0.837	3.988	1.494	1.450	2.685	1.079	-0.429	-4.976	-3.133	0.398	-2.714	-3.968	-3.060	-0.510	-0.823	3.107	1.126	0.247	4.136	1.516	500.000
3.421	0.103	0.843	-2.650	-1.870	-0.339	1.583	0.720	-0.685	3.990	1.765	1.668	2.664	0.984	-0.660	-5.122	-3.276	0.456	-2.823	-4.172	-3.222	-0.589	-0.831	3.129	1.142	0.207	4.078	1.666	503.906
3.273	-0.019	1.149	-2.705	-1.957	-0.321	1.473	0.811	-0.555	3.899	1.880	1.757	2.632	0.938	-0.821	-5.177	-3.381	0.578	-2.889	-4.315	-3.324	-0.627	-0.778	3.117	1.131	0.090	3.914	1.710	507.812
2.986	-0.036	1.438	-2.663	-1.994	-0.261	1.347	0.928	-0.470	3.706	1.815	1.697	2.575	0.937	-0.912	-5.129	-3.423	0.770	-2.898	-4.374	-3.352	-0.620	-0.661	3.062	1.100	-0.098	3.639	1.638	511.719
2.602	0.051	1.681	-2.522	-1.973	-0.156	1.207	1.065	-0.437	3.414	1.573	1.489	2.480	0.969	-0.950	-4.981	-3.389	1.020	-2.850	-4.342	-3.305	-0.566	-0.488	2.956	1.054	-0.334	3.261	1.452	515.625
2.176	0.219	1.864	-2.297	-1.896	-0.009	1.061	1.215	-0.444	3.046	1.182	1.153	2.337	1.017	-0.958	-4.758	-3.285	1.304	-2.756	-4.225	-3.193	-0.476	-0.277	2.802	1.002	-0.585	2.801	1.171	519.531
1.773	0.428	1.986	-2.019	-1.768	0.170	0.921	1.370	-0.470	2.635	0.693	0.721	2.142	1.061	-0.961	-4.493	-3.127	1.593	-2.633	-4.044	-3.035	-0.361	-0.049	2.606	0.953	-0.813	2.295	0.825	523.438
1.445	0.632	2.059	-1.726	-1.605	0.364	0.802	1.522	-0.490	2.224	0.167	0.236	1.903	1.085	-0.976	-4.227	-2.943	1.855	-2.500	-3.827	-2.856	-0.238	0.174	2.387	0.912	-0.984	1.786	0.453	527.344
1.222	0.793	2.094	-1.460	-1.425	0.549	0.717	1.658	-0.486	1.855	-0.332	-0.253	1.633	1.075	-1.011	-3.997	-2.758	2.071	-2.372	-3.607	-2.681	-0.118	0.374	2.163	0.881	-1.077	1.322	0.098	531.250
1.110	0.889	2.104	-1.257	-1.250	0.701	0.672	1.767	-0.447	1.564	-0.749	-0.700	1.355	1.027	-1.065	-3.829	-2.593	2.232	-2.258	-3.412	-2.532	-0.013	0.538	1.960	0.862	-1.084	0.947	-0.204	535.156
1.087	0.920	2.095	-1.136	-1.101	0.796	0.667	1.833	-0.377	1.374	-1.042	-1.065	1.095	0.943	-1.131	-3.736	-2.458	2.339	-2.156	-3.265	-2.427	0.072	0.659	1.800	0.854	-1.011	0.699	-0.422	539.062
1.115	0.905	2.071	-1.105	-0.996	0.819	0.695	1.846	-0.291	1.297	-1.188	-1.321	0.880	0.829	-1.205	-3.715	-2.351	2.404	-2.061	-3.179	-2.375	0.135	0.731	1.702	0.856	-0.875	0.599	-0.541	542.969
1.145	0.876	2.036	-1.154	-0.947	0.765	0.743	1.796	-0.210	1.328	-1.186	-1.452	0.732	0.698	-1.281	-3.751	-2.260	2.440	-1.966	-3.153	-2.375	0.174	0.756	1.678	0.870	-0.703	0.652	-0.559	546.875
1.135	0.866	1.990	-1.260	-0.957	0.637	0.798	1.682	-0.153	1.455	-1.050	-1.458	0.667	0.564	-1.354	-3.822	-2.171	2.459	-1.867	-3.180	-2.422	0.192	0.735	1.731	0.896	-0.519	0.846	-0.484	550.781
1.057	0.899	1.937	-1.394	-1.024	0.452	0.850	1.507	-0.132	1.660	-0.808	-1.351	0.688	0.442	-1.422	-3.907	-2.070	2.466	-1.767	-3.247	-2.505	0.187	0.675	1.858	0.935	-0.348	1.152	-0.335	554.688
0.909	0.982	1.877	-1.529	-1.134	0.232	0.893	1.286	-0.148	1.921	-0.492	-1.149	0.792	0.342	-1.479	-3.985	-1.958	2.459	-1.678	-3.335	-2.608	0.161	0.584	2.044	0.981	-0.205	1.529	-0.133	558.594
0.712	1.103	1.806	-1.642	-1.273	0.002	0.926	1.038	-0.193	2.217	-0.133	-0.877	0.961	0.271	-1.516	-4.044	-1.841	2.434	-1.615	-3.428	-2.717	0.114	0.471	2.268	1.029	-0.098	1.930	0.096	562.500
0.509	1.231	1.721	-1.719	-1.419	-0.213	0.951	0.791	-0.250	2.529	0.237	-0.565	1.172	0.230	-1.525	-4.078	-1.738	2.380	-1.595	-3.513	-2.818	0.049	0.347	2.503	1.065	-0.028	2.306	0.330	566.406
0.354	1.326	1.620	-1.760	-1.555	-0.391	0.971	0.571	-0.302	2.835	0.590	-0.240	1.397	0.217	-1.499	-4.087	-1.670	2.293	-1.624	-3.576	-2.900	-0.031	0.223	2.718	1.081	0.011	2.613	0.548	570.312
0.289	1.350	1.504	-1.771	-1.665	-0.518	0.983	0.399	-0.337	3.111	0.903	0.068	1.604	0.222	-1.434	-4.073	-1.653	2.176	-1.703	-3.608	-2.951	-0.119	0.109	2.885	1.067	0.028	2.817	0.733	574.219
0.341	1.279	1.382	-1.763	-1.735	-0.588	0.982	0.288	-0.353	3.330	1.150	0.334	1.767	0.238	-1.333	-4.040	-1.694	2.042	-1.817	-3.602	-2.965	-0.210	0.012	2.979	1.021	0.034	2.899	0.874	578.125
0.508	1.114	1.269	-1.743	-1.757	-0.600	0.957	0.239	-0.358	3.465	1.310	0.535	1.861	0.257	-1.205	-3.986	-1.789	1.910	-1.946	-3.550	-2.937	-0.297	-0.063	2.983	0.947	0.038	2.851	0.962	582.031
0.756	0.877	1.185	-1.711	-1.730	-0.562	0.896	0.246	-0.371	3.489	1.363	0.651	1.876	0.271	-1.063	-3.906	-1.917	1.807	-2.063	-3.444	-2.865	-0.372	-0.111	2.893	0.852	0.043	2.685	0.992	585.938
1.028	0.618	1.150	-1.660	-1.653	-0.484	0.787	0.293	-0.410	3.384	1.295	0.670	1.806	0.279	-0.921	-3.793	-2.048	1.758	-2.141	-3.281	-2.747	-0.430	-0.127	2.718	0.748	0.049	2.422	0.963	589.844
1.256	0.394	1.178	-1.577	-1.533	-0.377	0.621	0.364	-0.492	3.143	1.104	0.585	1.658	0.280	-0.793	-3.635	-2.146	1.778	-2.156	-3.058	-2.587	-0.462	-0.110	2.478	0.646	0.051	2.094	0.874	593.750
1.371	0.261	1.275	-1.450	-1.380	-0.255	0.398	0.438	-0.623	2.776	0.799	0.398	1.448	0.276	-0.692	-3.425	-2.172	1.875	-2.089	-2.778	-2.392	-0.465	-0.057	2.202	0.555	0.041	1.739	0.730	597.656
1.327	0.255	1.434	-1.273	-1.207	-0.132	0.127	0.498	-0.792	2.312	0.406	0.125	1.194	0.272	-0.627	-3.158	-2.098	2.035	-1.935	-2.452	-2.172	-0.435	0.027	1.921	0.483	0.015	1.396	0.541	601.562
1.112	0.383	1.636	-1.050	-1.031	-0.019	-0.175	0.533	-0.976	1.797	-0.035	-0.208	0.923	0.268	-0.609	-2.843	-1.912	2.233	-1.704	-2.094	-1.944	-0.376	0.132	1.667	0.432	-0.031	1.099	0.321	605.469
0.756	0.622	1.850	-0.795	-0.866	0.075	-0.480	0.536	-1.141	1.288	-0.474	-0.567	0.658	0.268	-0.648	-2.495	-1.625	2.430	-1.420	-1.728	-1.723	-0.295	0.237	1.467	0.406	-0.096	0.878	0.092	609.375
0.325	0.923	2.042	-0.535	-0.724	0.145	-0.755	0.512	-1.255	0.846	-0.859	-0.910	0.425	0.270	-0.754	-2.140	-1.272	2.583	-1.122	-1.380	-1.527	-0.208	0.319	1.339	0.407	-0.172	0.752	-0.121	613.281
-0.096	1.221	2.180	-0.298	-0.617	0.187	-0.966	0.469	-1.294	0.528	-1.144	-1.196	0.244	0.273	-0.925	-1.810	-0.903	2.651	-0.857	-1.077	-1.371	-0.132	0.355	1.290	0.431	-0.249	0.729	-0.293	617.188
-0.428	1.457	2.240	-0.113	-0.551	0.200	-1.088	0.419	-1.245	0.373	-1.296	-1.389	0.128	0.274	-1.147	-1.532	-0.580	2.611	-0.668	-0.842	-1.266	-0.083	0.327	1.315	0.474	-0.313	0.807	-0.400	621.094
-0.618	1.587	2.206	-0.003	-0.531	0.181	-1.106	0.373	-1.111	0.400	-1.299	-1.466	0.086	0.269	-1.388	-1.332	-0.356	2.455	-0.589	-0.693	-1.217	-0.072	0.230	1.403	0.529	-0.349	0.975	-0.422	625.000
-0.654	1.592	2.079	0.021	-0.561	0.128	-1.019	0.338	-0.907	0.602	-1.156	-1.418	0.115	0.254	-1.608	-1.219	-0.272	2.200	-0.636	-0.635	-1.226	-0.102	0.070	1.534	0.583	-0.342	1.214	-0.353	628.906
-0.564	1.483	1.872	-0.042	-0.643	0.036	-0.843	0.317	-0.660	0.949	-0.885	-1.252	0.207	0.226	-1.764	-1.193	-0.338	1.882	-0.804	-0.664	-1.288	-0.170	-0.132	1.688	0.628	-0.286	1.503	-0.195	632.812
-0.404	1.293	1.610	-0.180	-0.776	-0.096	-0.604	0.307	-0.400	1.395	-0.520	-0.987	0.349	0.185	-1.827	-1.239	-0.540	1.549	-1.069	-0.767	-1.393	-0.264	-0.350	1.843	0.653	-0.180	1.818	0.037	636.719
-0.237	1.065	1.327	-0.374	-0.955	-0.268	-0.336	0.300	-0.158	1.883	-0.096	-0.652	0.523	0.132	-1.788	-1.336	-0.838	1.247	-1.389	-0.923	-1.529	-0.371	-0.556	1.981	0.653	-0.034	2.137	0.320	640.625
-0.117	0.845	1.060	-0.597	-1.171	-0.473	-0.071	0.290	0.042	2.361	0.347	-0.277	0.711	0.072	-1.664	-1.461	-1.179	1.014	-1.719	-1.107	-1.683	-0.477	-0.733	2.088	0.626	0.137	2.439	0.626	644.531
-0.069	0.671	0.844	-0.824	-1.406	-0.700	0.161	0.269	0.183	2.782	0.777	0.106	0.900	0.010	-1.491	-1.590	-1.506	0.873	-2.016	-1.296	-1.838	-0.573	-0.869	2.155	0.571	0.308	2.706	0.927	648.438
-0.092	0.567	0.702	-1.027	-1.634	-0.928	0.343	0.232	0.254	3.110	1.164	0.472	1.078	-0.043	-1.317	-1.705	-1.772	0.824	-2.245	-1.464	-1.980	-0.655	-0.968	2.178	0.491	0.458	2.922	1.197	652.344
-0.160	0.546	0.647	-1.179	-1.827	-1.134	0.465	0.175	0.252	3.327	1.486	0.800	1.236	-0.079	-1.186	-1.792	-1.945	0.854	-2.388	-1.593	-2.094	-0.724	-1.037	2.156	0.387	0.563	3.076	1.413	656.250
-0.234	0.609	0.672	-1.263	-1.957	-1.294	0.524	0.096	0.178	3.424	1.726	1.072	1.372	-0.091	-1.124	-1.839	-2.014	0.941	-2.440	-1.666	-2.169	-0.780	-1.087	2.092	0.260	0.608	3.157	1.557	660.156
-0.282	0.744	0.757	-1.264	-2.003	-1.386	0.527	-0.004	0.035	3.404	1.873	1.277	1.482	-0.074	-1.138	-1.844	-1.983	1.060	-2.408	-1.675	-2.197	-0.823	-1.126	1.994	0.115	0.580	3.161	1.616	664.062
-0.277	0.928	0.875	-1.184	-1.956	-1.400	0.481	-0.122	-0.168	3.277	1.921	1.406	1.565	-0.030	-1.208	-1.806	-1.871	1.189	-2.309	-1.619	-2.176	-0.853	-1.154	1.873	-0.041	0.478	3.090	1.586	667.969
-0.212	1.128	0.998	-1.036	-1.823	-1.335	0.396	-0.253	-0.413	3.064	1.871	1.456	1.621	0.034	-1.300	-1.731	-1.708	1.314	-2.165	-1.504	-2.110	-0.864	-1.166	1.741	-0.198	0.309	2.951	1.472	671.875
-0.093	1.304	1.104	-0.846	-1.626	-1.204	0.282	-0.389	-0.677	2.788	1.733	1.430	1.648	0.108	-1.370	-1.634	-1.531	1.429	-2.001	-1.349	-2.011	-0.855	-1.155	1.613	-0.339	0.091	2.757	1.290	675.781
0.062	1.418	1.180	-0.649	-1.397	-1.030	0.149	-0.516	-0.927	2.476	1.522	1.336	1.648	0.178	-1.379	-1.532	-1.375	1.533	-1.845	-1.177	-1.896	-0.822	-1.110	1.499	-0.449	-0.149	2.525	1.067	679.688
0.229	1.442	1.224	-0.477	-1.172	-0.840	0.006	-0.622	-1.135	2.153	1.256	1.187	1.623	0.232	-1.301	-1.443	-1.268	1.629	-1.720	-1.015	-1.783	-0.768	-1.028	1.409	-0.513	-0.381	2.275	0.837	683.594
0.379	1.373	1.240	-0.360	-0.984	-0.663	-0.136	-0.695	-1.282	1.845	0.954	0.999	1.579	0.262	-1.127	-1.381	-1.226	1.723	-1.643	-0.885	-1.689	-0.698	-0.909	1.347	-0.522	-0.575	2.028	0.634	687.500
0.484	1.232	1.240	-0.308	-0.856	-0.517	-0.267	-0.725	-1.359	1.570	0.634	0.785	1.525	0.268	-0.869	-1.354	-1.251	1.816	-1.619	-0.804	-1.623	-0.622	-0.761	1.316	-0.478	-0.711	1.802	0.483	691.406
0.521	1.058	1.232	-0.319	-0.795	-0.416	-0.379	-0.712	-1.375	1.341	0.312	0.558	1.474	0.259	-0.555	-1.358	-1.325	1.912	-1.642	-0.773	-1.588	-0.548	-0.598	1.313	-0.391	-0.778	1.613	0.399	695.312
0.477	0.902	1.222	-0.378	-0.796	-0.360	-0.462	-0.665	-1.347	1.170	0.004	0.328	1.440	0.247	-0.223	-1.383	-1.418	2.006	-1.695	-0.787	-1.580	-0.486	-0.440	1.338	-0.278	-0.781	1.476	0.380	699.219
0.353	0.804	1.206	-0.463	-0.845	-0.346	-0.510	-0.599	-1.296	1.061	-0.276	0.106	1.436	0.247	0.088	-1.416	-1.499	2.093	-1.753	-0.829	-1.590	-0.442	-0.306	1.387	-0.157	-0.731	1.402	0.413	703.125
0.165	0.784	1.175	-0.554	-0.921	-0.364	-0.518	-0.536	-1.242	1.020	-0.507	-0.093	1.471	0.272	0.350	-1.443	-1.541	2.162	-1.793	-0.885	-1.607	-0.420	-0.214	1.458	-0.044	-0.644	1.398	0.481	707.031
-0.057	0.837	1.117	-0.637	-1.008	-0.407	-0.487	-0.496	-1.199	1.046	-0.671	-0.252	1.549	0.326	0.546	-1.459	-1.529	2.203	-1.799	-0.942	-1.624	-0.419	-0.172	1.549	0.049	-0.536	1.469	0.565	710.938
-0.273	0.928	1.022	-0.712	-1.094	-0.469	-0.421	-0.493	-1.169	1.138	-0.748	-0.353	1.666	0.406	0.676	-1.462	-1.470	2.207	-1.767	-0.993	-1.638	-0.437	-0.184	1.655	0.118	-0.421	1.612	0.655	714.844
-0.442	1.010	0.890	-0.784	-1.175	-0.548	-0.328	-0.530	-1.150	1.288	-0.723	-0.376	1.811	0.502	0.749	-1.460	-1.386	2.169	-1.707	-1.037	-1.650	-0.469	-0.240	1.768	0.163	-0.305	1.815	0.744	718.750
-0.525	1.034	0.729	-0.865	-1.252	-0.642	-0.221	-0.600	-1.129	1.485	-0.587	-0.310	1.970	0.599	0.775	-1.461	-1.308	2.088	-1.639	-1.080	-1.665	-0.512	-0.325	1.879	0.186	-0.197	2.058	0.835	722.656
-0.503	0.967	0.552	-0.961	-1.326	-0.748	-0.114	-0.689	-1.096	1.713	-0.348	-0.152	2.125	0.684	0.764	-1.471	-1.266	1.973	-1.584	-1.126	-1.688	-0.560	-0.420	1.974	0.190	-0.104	2.308	0.926	726.562
-0.376	0.808	0.380	-1.071	-1.400	-0.860	-0.022	-0.782	-1.044	1.947	-0.026	0.084	2.259	0.747	0.729	-1.489	-1.277	1.838	-1.560	-1.176	-1.716	-0.608	-0.503	2.038	0.177	-0.038	2.528	1.012	730.469
-0.173	0.586	0.234	-1.183	-1.468	-0.966	0.043	-0.862	-0.975	2.163	0.344	0.369	2.360	0.785	0.680	-1.506	-1.339	1.703	-1.570	-1.221	-1.745	-0.648	-0.558	2.057	0.142	-0.015	2.676	1.081	734.375
0.052	0.360	0.130	-1.272	-1.521	-1.052	0.069	-0.920	-0.903	2.332	0.711	0.662	2.419	0.803	0.634	-1.504	-1.430	1.593	-1.607	-1.248	-1.763	-0.673	-0.573	2.018	0.078	-0.052	2.713	1.115	738.281
0.238	0.196	0.083	-1.314	-1.543	-1.101	0.052	-0.954	-0.853	2.432	1.023	0.916	2.435	0.813	0.610	-1.461	-1.517	1.531	-1.648	-1.239	-1.753	-0.675	-0.543	1.917	-0.026	-0.165	2.611	1.097	742.188
0.326	0.155	0.097	-1.284	-1.520	-1.102	-0.008	-0.969	-0.848	2.448	1.233	1.091	2.414	0.827	0.631	-1.361	-1.565	1.536	-1.668	-1.177	-1.699	-0.645	-0.470	1.756	-0.180	-0.360	2.361	1.014	746.094
0.284	0.272	0.170	-1.169	-1.440	-1.049	-0.104	-0.977	-0.909	2.375	1.309	1.158	2.367	0.863	0.712	-1.195	-1.549	1.614	-1.645	-1.052	-1.590	-0.576	-0.363	1.551	-0.385	-0.633	1.976	0.865	750.000
0.113	0.544	0.290	-0.973	-1.297	-0.944	-0.225	-0.990	-1.046	2.226	1.240	1.108	2.310	0.933	0.861	-0.971	-1.458	1.756	-1.566	-0.864	-1.422	-0.468	-0.235	1.323	-0.637	-0.968	1.494	0.661	753.906
-0.150	0.932	0.437	-0.716	-1.098	-0.798	-0.353	-1.014	-1.250	2.022	1.041	0.950	2.256	1.041	1.070	-0.708	-1.300	1.938	-1.430	-0.628	-1.202	-0.325	-0.102	1.103	-0.917	-1.336	0.973	0.424	757.812
-0.441	1.363	0.586	-0.432	-0.863	-0.628	-0.471	-1.051	-1.500	1.792	0.744	0.712	2.221	1.185	1.313	-0.440	-1.096	2.129	-1.254	-0.369	-0.951	-0.158	0.022	0.922	-1.198	-1.702	0.483	0.181	761.719
-0.688	1.752	0.711	-0.162	-0.618	-0.456	-0.564	-1.094	-1.762	1.568	0.396	0.428	2.210	1.350	1.558	-0.203	-0.880	2.296	-1.062	-0.121	-0.698	0.016	0.126	0.807	-1.444	-2.027	0.094	-0.041	765.625
-0.830	2.020	0.790	0.050	-0.401	-0.307	-0.624	-1.130	-1.994	1.375	0.051	0.139	2.227	1.516	1.771	-0.030	-0.688	2.414	-0.883	0.084	-0.476	0.182	0.208	0.778	-1.620	-2.276	-0.133	-0.222	769.531
-0.831	2.107	0.807	0.169	-0.247	-0.202	-0.651	-1.145	-2.157	1.229	-0.245	-0.122	2.267	1.659	1.925	0.054	-0.554	2.468	-0.744	0.219	-0.318	0.322	0.274	0.844	-1.694	-2.425	-0.155	-0.353	773.438
-0.688	1.985	0.755	0.172	-0.187	-0.159	-0.654	-1.128	-2.220	1.136	-0.455	-0.330	2.318	1.753	2.012	0.040	-0.503	2.461	-0.665	0.267	-0.251	0.430	0.338	1.002	-1.649	-2.462	0.046	-0.438	777.344
-0.430	1.658	0.634	0.053	-0.240	-0.187	-0.644	-1.073	-2.162	1.088	-0.560	-0.473	2.370	1.782	2.040	-0.066	-0.546	2.405	-0.653	0.229	-0.288	0.501	0.416	1.240	-1.480	-2.396	0.466	-0.490	781.250
-0.102	1.160	0.454	-0.178	-0.407	-0.285	-0.637	-0.979	-1.982	1.072	-0.557	-0.552	2.411	1.739	2.030	-0.245	-0.680	2.318	-0.702	0.114	-0.427	0.540	0.522	1.539	-1.200	-2.245	1.076	-0.530	785.156
0.251	0.538	0.229	-0.497	-0.676	-0.443	-0.643	-0.854	-1.695	1.072	-0.460	-0.578	2.435	1.627	2.006	-0.474	-0.889	2.221	-0.799	-0.057	-0.652	0.557	0.665	1.880	-0.834	-2.040	1.832	-0.574	789.062
0.594	-0.154	-0.024	-0.873	-1.018	-0.643	-0.668	-0.706	-1.329	1.074	-0.299	-0.570	2.442	1.463	1.984	-0.727	-1.148	2.128	-0.927	-0.261	-0.938	0.560	0.844	2.242	-0.414	-1.808	2.678	-0.635	792.969
0.915	-0.866	-0.286	-1.272	-1.396	-0.861	-0.707	-0.546	-0.925	1.070	-0.107	-0.548	2.435	1.273	1.973	-0.985	-1.430	2.045	-1.068	-0.476	-1.251	0.560	1.047	2.606	0.026	-1.572	3.557	-0.713	796.875
