FP1	F3	F7	FC3	C3	C5	P3	P7	PO7	PO3	O1	Oz	Pz	CPz	FP2	Fz	F4	F8	FC4	FCz	Cz	C4	C6	P4	P8	PO8	PO4	O2	time
-0.914	-0.481	-0.021	-0.161	-0.519	-0.735	-0.027	-1.070	-0.740	0.218	0.474	0.467	0.080	-0.180	0.699	-0.118	0.760	0.183	0.236	0.117	-0.111	0.270	0.290	0.502	-0.154	0.687	0.476	1.242	-199.219
-0.644	-0.496	-0.232	-0.042	-0.305	-0.575	-0.011	-0.803	-0.666	0.095	0.411	0.233	0.016	-0.155	0.921	0.042	0.528	0.152	0.281	0.265	0.032	0.257	0.324	0.329	-0.183	0.476	0.235	0.871	-195.312
-0.398	-0.498	-0.417	0.062	-0.110	-0.425	0.002	-0.569	-0.595	-0.019	0.342	0.007	-0.045	-0.135	1.098	0.182	0.334	0.131	0.325	0.392	0.159	0.243	0.351	0.166	-0.199	0.279	0.003	0.517	-191.406
-0.188	-0.473	-0.556	0.147	0.054	-0.289	0.013	-0.386	-0.534	-0.115	0.267	-0.201	-0.101	-0.122	1.189	0.287	0.202	0.126	0.365	0.482	0.254	0.226	0.364	0.018	-0.196	0.110	-0.209	0.196	-187.500
-0.020	-0.421	-0.634	0.207	0.180	-0.172	0.020	-0.260	-0.480	-0.183	0.187	-0.378	-0.150	-0.120	1.177	0.346	0.140	0.136	0.394	0.526	0.309	0.200	0.358	-0.111	-0.176	-0.025	-0.394	-0.079	-183.594
0.106	-0.353	-0.646	0.240	0.261	-0.078	0.028	-0.182	-0.426	-0.218	0.110	-0.515	-0.192	-0.128	1.073	0.353	0.135	0.161	0.403	0.521	0.321	0.164	0.327	-0.222	-0.142	-0.124	-0.546	-0.297	-179.688
0.196	-0.285	-0.599	0.248	0.302	-0.006	0.039	-0.132	-0.361	-0.217	0.046	-0.602	-0.228	-0.147	0.909	0.312	0.160	0.194	0.384	0.475	0.292	0.114	0.269	-0.315	-0.104	-0.195	-0.662	-0.455	-175.781
0.257	-0.227	-0.508	0.238	0.309	0.043	0.057	-0.083	-0.277	-0.182	0.007	-0.632	-0.257	-0.171	0.728	0.234	0.180	0.227	0.330	0.398	0.233	0.052	0.188	-0.395	-0.073	-0.249	-0.743	-0.556	-171.875
0.299	-0.181	-0.397	0.221	0.294	0.075	0.087	-0.016	-0.171	-0.114	0.001	-0.605	-0.277	-0.195	0.569	0.136	0.162	0.253	0.241	0.310	0.157	-0.020	0.087	-0.465	-0.066	-0.300	-0.790	-0.604	-167.969
0.331	-0.137	-0.290	0.211	0.273	0.094	0.129	0.080	-0.049	-0.022	0.032	-0.528	-0.288	-0.210	0.456	0.042	0.088	0.262	0.125	0.229	0.080	-0.096	-0.024	-0.525	-0.092	-0.358	-0.805	-0.608	-164.062
0.362	-0.076	-0.203	0.225	0.259	0.108	0.182	0.198	0.076	0.085	0.092	-0.415	-0.284	-0.209	0.390	-0.026	-0.041	0.247	-0.004	0.173	0.019	-0.167	-0.133	-0.576	-0.160	-0.426	-0.790	-0.579	-160.156
0.394	0.016	-0.148	0.271	0.264	0.122	0.241	0.319	0.184	0.195	0.166	-0.283	-0.263	-0.183	0.353	-0.052	-0.204	0.204	-0.123	0.157	-0.012	-0.225	-0.228	-0.613	-0.266	-0.499	-0.746	-0.529	-156.250
0.428	0.146	-0.121	0.353	0.293	0.139	0.298	0.415	0.251	0.294	0.233	-0.155	-0.220	-0.128	0.317	-0.022	-0.366	0.131	-0.211	0.189	-0.003	-0.261	-0.298	-0.632	-0.398	-0.566	-0.675	-0.471	-152.344
0.462	0.307	-0.114	0.461	0.344	0.159	0.344	0.459	0.259	0.372	0.273	-0.049	-0.151	-0.042	0.258	0.062	-0.489	0.032	-0.251	0.268	0.049	-0.265	-0.334	-0.627	-0.534	-0.617	-0.577	-0.418	-148.438
0.492	0.475	-0.115	0.575	0.407	0.177	0.371	0.429	0.198	0.417	0.270	0.022	-0.059	0.069	0.168	0.188	-0.543	-0.085	-0.236	0.384	0.141	-0.236	-0.333	-0.593	-0.651	-0.640	-0.455	-0.378	-144.531
0.511	0.622	-0.113	0.669	0.469	0.186	0.374	0.321	0.073	0.426	0.223	0.056	0.051	0.196	0.055	0.333	-0.516	-0.208	-0.175	0.517	0.257	-0.178	-0.296	-0.526	-0.720	-0.625	-0.307	-0.354	-140.625
0.515	0.719	-0.104	0.716	0.510	0.178	0.348	0.146	-0.095	0.400	0.140	0.057	0.168	0.321	-0.059	0.466	-0.419	-0.322	-0.088	0.637	0.378	-0.100	-0.232	-0.426	-0.723	-0.566	-0.138	-0.344	-136.719
0.499	0.749	-0.085	0.697	0.515	0.146	0.294	-0.070	-0.274	0.342	0.039	0.037	0.276	0.424	-0.145	0.554	-0.283	-0.410	-0.003	0.714	0.478	-0.020	-0.156	-0.298	-0.646	-0.460	0.048	-0.340	-132.812
0.462	0.706	-0.061	0.602	0.472	0.088	0.212	-0.288	-0.425	0.261	-0.059	0.013	0.357	0.484	-0.182	0.569	-0.150	-0.461	0.050	0.722	0.530	0.044	-0.081	-0.150	-0.488	-0.307	0.244	-0.327	-128.906
0.408	0.600	-0.037	0.439	0.377	0.005	0.108	-0.467	-0.511	0.164	-0.134	-0.002	0.393	0.482	-0.164	0.496	-0.061	-0.465	0.050	0.643	0.513	0.075	-0.021	0.002	-0.256	-0.111	0.435	-0.292	-125.000
0.344	0.445	-0.016	0.225	0.237	-0.093	-0.013	-0.574	-0.510	0.059	-0.175	0.004	0.371	0.409	-0.103	0.334	-0.045	-0.423	-0.011	0.474	0.416	0.063	0.015	0.140	0.030	0.119	0.604	-0.222	-121.094
0.280	0.259	-0.002	-0.013	0.066	-0.194	-0.142	-0.588	-0.417	-0.048	-0.178	0.036	0.285	0.267	-0.023	0.099	-0.112	-0.337	-0.125	0.230	0.242	0.010	0.026	0.244	0.345	0.368	0.734	-0.110	-117.188
0.224	0.056	0.008	-0.244	-0.114	-0.285	-0.270	-0.507	-0.246	-0.154	-0.151	0.093	0.141	0.069	0.043	-0.178	-0.248	-0.219	-0.268	-0.063	0.009	-0.075	0.018	0.299	0.658	0.613	0.806	0.038	-113.281
0.182	-0.148	0.016	-0.439	-0.278	-0.352	-0.387	-0.349	-0.030	-0.256	-0.107	0.167	-0.047	-0.158	0.065	-0.453	-0.422	-0.083	-0.408	-0.363	-0.253	-0.172	0.004	0.295	0.937	0.829	0.809	0.206	-109.375
0.152	-0.338	0.026	-0.573	-0.405	-0.387	-0.481	-0.146	0.190	-0.351	-0.064	0.244	-0.253	-0.379	0.020	-0.682	-0.592	0.053	-0.511	-0.629	-0.505	-0.257	-0.004	0.233	1.151	0.988	0.739	0.371	-105.469
0.125	-0.492	0.045	-0.633	-0.478	-0.385	-0.544	0.063	0.374	-0.437	-0.035	0.311	-0.449	-0.559	-0.099	-0.823	-0.714	0.170	-0.552	-0.822	-0.707	-0.308	0.006	0.122	1.277	1.070	0.602	0.503	-101.562
0.086	-0.590	0.078	-0.615	-0.490	-0.346	-0.567	0.244	0.495	-0.508	-0.030	0.354	-0.607	-0.669	-0.280	-0.851	-0.754	0.252	-0.518	-0.917	-0.827	-0.312	0.038	-0.021	1.297	1.061	0.415	0.578	-97.656
0.016	-0.612	0.130	-0.529	-0.443	-0.277	-0.547	0.370	0.539	-0.553	-0.047	0.365	-0.704	-0.692	-0.494	-0.762	-0.697	0.287	-0.414	-0.905	-0.849	-0.266	0.087	-0.170	1.208	0.961	0.203	0.576	-93.750
-0.096	-0.549	0.200	-0.393	-0.349	-0.185	-0.480	0.431	0.511	-0.562	-0.079	0.343	-0.726	-0.627	-0.699	-0.574	-0.551	0.272	-0.263	-0.799	-0.774	-0.180	0.141	-0.302	1.018	0.780	-0.003	0.497	-89.844
-0.250	-0.407	0.284	-0.232	-0.226	-0.081	-0.370	0.431	0.429	-0.525	-0.111	0.295	-0.669	-0.486	-0.848	-0.324	-0.346	0.212	-0.098	-0.627	-0.621	-0.075	0.183	-0.396	0.751	0.542	-0.177	0.355	-85.938
-0.428	-0.210	0.372	-0.074	-0.095	0.026	-0.222	0.387	0.320	-0.435	-0.127	0.235	-0.541	-0.294	-0.906	-0.062	-0.124	0.118	0.042	-0.429	-0.425	0.023	0.194	-0.437	0.438	0.278	-0.294	0.177	-82.031
-0.599	0.008	0.449	0.058	0.025	0.128	-0.048	0.317	0.214	-0.293	-0.114	0.181	-0.357	-0.084	-0.859	0.161	0.070	0.007	0.127	-0.245	-0.223	0.092	0.164	-0.420	0.117	0.023	-0.344	-0.001	-78.125
-0.721	0.212	0.501	0.147	0.117	0.219	0.136	0.239	0.131	-0.108	-0.067	0.145	-0.139	0.116	-0.720	0.307	0.204	-0.106	0.139	-0.107	-0.050	0.117	0.088	-0.349	-0.177	-0.195	-0.330	-0.146	-74.219
-0.759	0.370	0.518	0.189	0.173	0.293	0.313	0.168	0.082	0.103	0.008	0.136	0.090	0.283	-0.524	0.355	0.265	-0.205	0.082	-0.032	0.070	0.096	-0.025	-0.237	-0.418	-0.359	-0.265	-0.235	-70.312
-0.694	0.465	0.500	0.186	0.193	0.348	0.465	0.108	0.067	0.315	0.097	0.150	0.306	0.403	-0.321	0.307	0.261	-0.279	-0.025	-0.023	0.129	0.040	-0.155	-0.100	-0.590	-0.464	-0.172	-0.261	-66.406
-0.530	0.496	0.451	0.149	0.182	0.382	0.577	0.060	0.078	0.503	0.181	0.179	0.490	0.474	-0.155	0.185	0.218	-0.324	-0.147	-0.067	0.130	-0.030	-0.280	0.044	-0.687	-0.518	-0.077	-0.229	-62.500
-0.296	0.470	0.383	0.091	0.147	0.396	0.639	0.020	0.102	0.645	0.240	0.209	0.630	0.503	-0.059	0.023	0.168	-0.336	-0.249	-0.142	0.091	-0.090	-0.377	0.177	-0.718	-0.535	-0.000	-0.158	-58.594
-0.040	0.402	0.311	0.022	0.098	0.392	0.649	-0.012	0.128	0.725	0.260	0.227	0.718	0.500	-0.038	-0.142	0.141	-0.316	-0.305	-0.224	0.030	-0.120	-0.432	0.288	-0.692	-0.532	0.046	-0.070	-54.688
0.185	0.309	0.245	-0.050	0.042	0.373	0.609	-0.036	0.147	0.737	0.236	0.222	0.752	0.475	-0.079	-0.279	0.153	-0.266	-0.301	-0.295	-0.032	-0.109	-0.438	0.370	-0.623	-0.519	0.061	0.015	-50.781
0.336	0.207	0.189	-0.118	-0.015	0.345	0.527	-0.048	0.157	0.683	0.173	0.193	0.735	0.435	-0.153	-0.367	0.205	-0.193	-0.239	-0.343	-0.081	-0.058	-0.400	0.424	-0.522	-0.499	0.055	0.084	-46.875
0.387	0.111	0.142	-0.180	-0.071	0.313	0.413	-0.045	0.157	0.574	0.082	0.145	0.673	0.384	-0.232	-0.401	0.286	-0.103	-0.137	-0.366	-0.109	0.022	-0.329	0.453	-0.399	-0.470	0.043	0.130	-42.969
0.338	0.031	0.098	-0.236	-0.124	0.279	0.277	-0.023	0.153	0.427	-0.019	0.087	0.574	0.321	-0.293	-0.385	0.373	-0.008	-0.017	-0.368	-0.117	0.113	-0.241	0.466	-0.261	-0.423	0.042	0.154	-39.062
0.211	-0.028	0.049	-0.283	-0.177	0.245	0.129	0.015	0.147	0.260	-0.115	0.030	0.449	0.245	-0.326	-0.332	0.444	0.083	0.096	-0.354	-0.108	0.192	-0.151	0.470	-0.116	-0.350	0.066	0.162	-35.156
0.039	-0.061	-0.006	-0.322	-0.228	0.210	-0.025	0.064	0.141	0.087	-0.195	-0.018	0.308	0.157	-0.335	-0.256	0.482	0.160	0.184	-0.331	-0.088	0.243	-0.067	0.472	0.029	-0.247	0.117	0.164	-31.250
-0.145	-0.068	-0.059	-0.351	-0.277	0.169	-0.181	0.115	0.133	-0.080	-0.257	-0.054	0.161	0.060	-0.328	-0.170	0.482	0.218	0.241	-0.301	-0.063	0.257	0.006	0.473	0.165	-0.113	0.189	0.165	-27.344
-0.315	-0.050	-0.099	-0.367	-0.319	0.121	-0.335	0.158	0.116	-0.234	-0.310	-0.082	0.020	-0.038	-0.320	-0.081	0.449	0.257	0.269	-0.266	-0.036	0.235	0.071	0.471	0.282	0.040	0.264	0.167	-23.438
-0.460	-0.009	-0.111	-0.365	-0.348	0.066	-0.482	0.183	0.084	-0.371	-0.364	-0.111	-0.109	-0.126	-0.324	0.010	0.397	0.280	0.280	-0.220	-0.008	0.187	0.132	0.460	0.369	0.197	0.321	0.167	-19.531
-0.576	0.052	-0.081	-0.339	-0.353	0.010	-0.616	0.185	0.032	-0.491	-0.434	-0.151	-0.215	-0.194	-0.350	0.106	0.350	0.295	0.291	-0.159	0.023	0.127	0.196	0.433	0.417	0.334	0.336	0.161	-15.625
-0.668	0.133	-0.008	-0.281	-0.324	-0.041	-0.729	0.163	-0.039	-0.590	-0.526	-0.207	-0.292	-0.233	-0.406	0.214	0.327	0.303	0.314	-0.078	0.062	0.072	0.265	0.385	0.419	0.427	0.295	0.140	-11.719
-0.739	0.232	0.100	-0.187	-0.255	-0.075	-0.810	0.119	-0.127	-0.664	-0.639	-0.280	-0.335	-0.235	-0.494	0.340	0.344	0.307	0.359	0.025	0.114	0.036	0.337	0.313	0.371	0.455	0.194	0.102	-7.812
-0.789	0.351	0.228	-0.057	-0.143	-0.086	-0.847	0.058	-0.228	-0.706	-0.763	-0.363	-0.341	-0.200	-0.615	0.486	0.407	0.301	0.428	0.150	0.182	0.029	0.408	0.221	0.274	0.406	0.042	0.044	-3.906
-0.812	0.484	0.352	0.102	0.006	-0.069	-0.832	-0.013	-0.333	-0.708	-0.880	-0.447	-0.308	-0.131	-0.762	0.648	0.511	0.277	0.516	0.290	0.267	0.050	0.468	0.120	0.136	0.281	-0.140	-0.030	0.000
-0.807	0.628	0.448	0.278	0.179	-0.025	-0.763	-0.089	-0.436	-0.664	-0.969	-0.517	-0.240	-0.036	-0.922	0.820	0.645	0.225	0.611	0.437	0.367	0.093	0.506	0.018	-0.033	0.093	-0.323	-0.116	3.906
-0.770	0.771	0.499	0.455	0.359	0.043	-0.640	-0.162	-0.526	-0.570	-1.013	-0.563	-0.145	0.072	-1.080	0.987	0.787	0.140	0.699	0.579	0.474	0.147	0.511	-0.073	-0.216	-0.133	-0.484	-0.207	7.812
-0.708	0.901	0.493	0.615	0.528	0.127	-0.475	-0.226	-0.592	-0.429	-1.000	-0.578	-0.032	0.181	-1.216	1.138	0.914	0.024	0.768	0.704	0.577	0.196	0.475	-0.148	-0.399	-0.369	-0.604	-0.299	11.719
-0.635	1.003	0.434	0.742	0.670	0.219	-0.281	-0.272	-0.622	-0.249	-0.930	-0.561	0.086	0.276	-1.311	1.259	1.005	-0.113	0.808	0.799	0.666	0.224	0.394	-0.206	-0.568	-0.589	-0.678	-0.387	15.625
-0.566	1.062	0.338	0.821	0.772	0.310	-0.078	-0.294	-0.609	-0.042	-0.812	-0.515	0.196	0.346	-1.352	1.342	1.042	-0.254	0.812	0.858	0.731	0.218	0.270	-0.252	-0.712	-0.771	-0.711	-0.469	19.531
-0.518	1.067	0.229	0.847	0.828	0.394	0.116	-0.283	-0.545	0.172	-0.662	-0.450	0.286	0.385	-1.332	1.383	1.016	-0.380	0.779	0.878	0.765	0.175	0.114	-0.291	-0.824	-0.901	-0.718	-0.542	23.438
-0.500	1.011	0.135	0.819	0.836	0.461	0.284	-0.238	-0.436	0.374	-0.504	-0.375	0.348	0.390	-1.261	1.382	0.926	-0.476	0.714	0.860	0.767	0.096	-0.057	-0.328	-0.896	-0.973	-0.715	-0.602	27.344
-0.513	0.896	0.081	0.746	0.801	0.505	0.410	-0.160	-0.293	0.543	-0.359	-0.302	0.377	0.366	-1.155	1.347	0.784	-0.534	0.622	0.811	0.740	-0.007	-0.224	-0.360	-0.922	-0.984	-0.716	-0.646	31.250
-0.550	0.735	0.079	0.641	0.730	0.521	0.486	-0.059	-0.132	0.657	-0.253	-0.247	0.374	0.319	-1.045	1.285	0.610	-0.554	0.515	0.743	0.693	-0.118	-0.364	-0.383	-0.897	-0.932	-0.722	-0.671	35.156
-0.601	0.549	0.127	0.523	0.632	0.506	0.503	0.056	0.024	0.698	-0.205	-0.227	0.341	0.262	-0.960	1.209	0.433	-0.543	0.403	0.666	0.636	-0.218	-0.459	-0.385	-0.814	-0.813	-0.725	-0.679	39.062
-0.657	0.365	0.210	0.407	0.517	0.459	0.460	0.171	0.159	0.652	-0.235	-0.262	0.283	0.203	-0.926	1.130	0.282	-0.511	0.299	0.591	0.580	-0.288	-0.497	-0.352	-0.667	-0.623	-0.705	-0.672	42.969
-0.715	0.211	0.305	0.309	0.394	0.383	0.360	0.279	0.259	0.513	-0.357	-0.372	0.205	0.151	-0.951	1.055	0.180	-0.470	0.212	0.526	0.529	-0.316	-0.472	-0.272	-0.455	-0.359	-0.638	-0.656	46.875
-0.774	0.107	0.382	0.234	0.269	0.285	0.213	0.381	0.321	0.287	-0.578	-0.575	0.110	0.108	-1.031	0.987	0.137	-0.430	0.147	0.472	0.486	-0.298	-0.390	-0.138	-0.178	-0.020	-0.501	-0.637	50.781
-0.840	0.064	0.416	0.185	0.150	0.177	0.036	0.485	0.350	-0.009	-0.897	-0.876	-0.000	0.071	-1.146	0.921	0.145	-0.394	0.102	0.423	0.444	-0.243	-0.265	0.050	0.157	0.385	-0.279	-0.618	54.688
-0.916	0.080	0.391	0.157	0.041	0.077	-0.146	0.607	0.364	-0.343	-1.299	-1.270	-0.126	0.032	-1.272	0.848	0.180	-0.364	0.067	0.367	0.390	-0.169	-0.122	0.281	0.538	0.839	0.029	-0.601	58.594
-1.005	0.142	0.304	0.142	-0.054	0.004	-0.303	0.768	0.388	-0.672	-1.755	-1.734	-0.267	-0.021	-1.391	0.753	0.209	-0.335	0.028	0.289	0.311	-0.100	0.014	0.536	0.944	1.314	0.406	-0.589	62.500
-1.101	0.233	0.166	0.134	-0.132	-0.026	-0.409	0.985	0.455	-0.951	-2.223	-2.235	-0.425	-0.101	-1.497	0.623	0.202	-0.306	-0.031	0.171	0.192	-0.068	0.114	0.787	1.351	1.777	0.816	-0.580	66.406
-1.196	0.332	-0.001	0.122	-0.192	0.001	-0.441	1.268	0.599	-1.139	-2.657	-2.726	-0.599	-0.218	-1.596	0.450	0.132	-0.276	-0.125	0.000	0.023	-0.096	0.156	1.005	1.731	2.199	1.214	-0.571	70.312
-1.279	0.417	-0.167	0.099	-0.239	0.084	-0.389	1.618	0.850	-1.206	-3.005	-3.159	-0.784	-0.379	-1.703	0.228	-0.008	-0.251	-0.264	-0.231	-0.202	-0.205	0.122	1.158	2.059	2.558	1.551	-0.552	74.219
-1.343	0.469	-0.303	0.054	-0.278	0.215	-0.255	2.019	1.226	-1.138	-3.224	-3.486	-0.969	-0.581	-1.833	-0.041	-0.216	-0.243	-0.452	-0.524	-0.479	-0.402	0.005	1.228	2.315	2.850	1.787	-0.513	78.125
-1.381	0.469	-0.389	-0.023	-0.318	0.371	-0.051	2.443	1.730	-0.937	-3.281	-3.667	-1.137	-0.814	-1.994	-0.349	-0.478	-0.267	-0.687	-0.873	-0.798	-0.685	-0.195	1.206	2.495	3.086	1.900	-0.434	82.031
-1.391	0.402	-0.413	-0.142	-0.371	0.522	0.202	2.854	2.344	-0.619	-3.157	-3.675	-1.265	-1.062	-2.179	-0.684	-0.776	-0.340	-0.962	-1.266	-1.144	-1.038	-0.471	1.101	2.602	3.291	1.895	-0.298	85.938
-1.369	0.256	-0.380	-0.312	-0.446	0.638	0.480	3.213	3.028	-0.213	-2.855	-3.499	-1.332	-1.302	-2.366	-1.035	-1.092	-0.471	-1.267	-1.685	-1.498	-1.434	-0.805	0.939	2.656	3.495	1.797	-0.091	89.844
-1.311	0.026	-0.308	-0.532	-0.550	0.695	0.759	3.486	3.725	0.246	-2.398	-3.150	-1.315	-1.510	-2.529	-1.388	-1.414	-0.664	-1.589	-2.108	-1.840	-1.839	-1.171	0.757	2.679	3.722	1.649	0.190	93.750
-1.209	-0.280	-0.221	-0.795	-0.680	0.681	1.017	3.649	4.365	0.720	-1.829	-2.656	-1.205	-1.665	-2.637	-1.727	-1.733	-0.908	-1.911	-2.511	-2.147	-2.217	-1.537	0.593	2.694	3.986	1.499	0.535	97.656
-1.058	-0.643	-0.144	-1.080	-0.830	0.600	1.232	3.689	4.874	1.165	-1.209	-2.065	-1.001	-1.749	-2.670	-2.038	-2.040	-1.178	-2.218	-2.866	-2.397	-2.530	-1.868	0.486	2.720	4.284	1.390	0.918	101.562
-0.856	-1.026	-0.096	-1.356	-0.981	0.471	1.386	3.602	5.179	1.536	-0.608	-1.437	-0.715	-1.753	-2.615	-2.300	-2.326	-1.442	-2.487	-3.145	-2.569	-2.745	-2.130	0.462	2.765	4.598	1.349	1.303	105.469
-0.616	-1.380	-0.084	-1.587	-1.111	0.325	1.462	3.392	5.222	1.793	-0.098	-0.834	-0.370	-1.671	-2.476	-2.494	-2.575	-1.660	-2.699	-3.319	-2.643	-2.838	-2.295	0.532	2.826	4.895	1.387	1.650	109.375
-0.361	-1.647	-0.103	-1.736	-1.196	0.195	1.445	3.066	4.964	1.903	0.258	-0.313	0.002	-1.509	-2.269	-2.601	-2.762	-1.800	-2.829	-3.369	-2.606	-2.797	-2.349	0.695	2.889	5.134	1.496	1.920	113.281
-0.125	-1.776	-0.136	-1.774	-1.217	0.110	1.330	2.636	4.398	1.848	0.421	0.085	0.369	-1.277	-2.021	-2.607	-2.860	-1.837	-2.857	-3.285	-2.453	-2.623	-2.287	0.934	2.938	5.279	1.657	2.090	117.188
0.056	-1.728	-0.162	-1.692	-1.166	0.087	1.118	2.117	3.554	1.626	0.377	0.342	0.696	-1.000	-1.766	-2.510	-2.842	-1.769	-2.770	-3.072	-2.196	-2.336	-2.121	1.222	2.956	5.303	1.845	2.151	121.094
0.154	-1.495	-0.161	-1.501	-1.051	0.125	0.821	1.535	2.504	1.258	0.147	0.462	0.954	-0.706	-1.539	-2.322	-2.691	-1.609	-2.570	-2.756	-1.864	-1.968	-1.874	1.527	2.930	5.202	2.036	2.117	125.000
0.154	-1.103	-0.122	-1.234	-0.894	0.212	0.461	0.926	1.352	0.785	-0.220	0.475	1.120	-0.434	-1.366	-2.076	-2.412	-1.390	-2.274	-2.382	-1.501	-1.565	-1.580	1.815	2.864	4.996	2.212	2.022	128.906
0.061	-0.612	-0.043	-0.943	-0.728	0.323	0.070	0.334	0.225	0.263	-0.653	0.424	1.178	-0.223	-1.267	-1.818	-2.037	-1.152	-1.922	-2.008	-1.164	-1.182	-1.279	2.057	2.772	4.733	2.363	1.912	132.812
-0.100	-0.106	0.065	-0.687	-0.591	0.431	-0.314	-0.188	-0.744	-0.244	-1.073	0.360	1.124	-0.106	-1.248	-1.602	-1.623	-0.936	-1.570	-1.698	-0.909	-0.874	-1.012	2.231	2.680	4.478	2.490	1.837	136.719
-0.288	0.322	0.183	-0.522	-0.515	0.510	-0.653	-0.585	-1.442	-0.667	-1.406	0.326	0.963	-0.110	-1.305	-1.482	-1.247	-0.772	-1.280	-1.513	-0.787	-0.686	-0.817	2.326	2.623	4.299	2.600	1.843	140.625
-0.456	0.594	0.287	-0.489	-0.524	0.546	-0.909	-0.809	-1.790	-0.952	-1.595	0.354	0.709	-0.243	-1.425	-1.501	-0.987	-0.679	-1.109	-1.498	-0.828	-0.648	-0.722	2.343	2.634	4.253	2.707	1.957	144.531
-0.562	0.656	0.354	-0.608	-0.625	0.530	-1.055	-0.826	-1.758	-1.057	-1.608	0.460	0.385	-0.499	-1.585	-1.687	-0.908	-0.657	-1.099	-1.677	-1.044	-0.770	-0.740	2.294	2.735	4.375	2.827	2.190	148.438
-0.581	0.494	0.361	-0.878	-0.813	0.467	-1.072	-0.619	-1.367	-0.963	-1.442	0.639	0.020	-0.854	-1.755	-2.042	-1.048	-0.696	-1.268	-2.050	-1.422	-1.038	-0.873	2.199	2.935	4.669	2.972	2.528	152.344
-0.506	0.128	0.296	-1.275	-1.073	0.362	-0.958	-0.196	-0.678	-0.674	-1.117	0.874	-0.355	-1.276	-1.899	-2.549	-1.410	-0.777	-1.607	-2.594	-1.932	-1.424	-1.107	2.085	3.227	5.114	3.156	2.944	156.250
-0.352	-0.393	0.153	-1.766	-1.383	0.226	-0.719	0.412	0.220	-0.215	-0.669	1.142	-0.711	-1.726	-1.986	-3.176	-1.964	-0.878	-2.085	-3.269	-2.531	-1.886	-1.419	1.979	3.589	5.668	3.385	3.403	160.156
-0.149	-1.005	-0.062	-2.311	-1.723	0.066	-0.377	1.157	1.235	0.376	-0.144	1.415	-1.022	-2.167	-1.992	-3.881	-2.653	-0.982	-2.653	-4.025	-3.175	-2.377	-1.781	1.903	3.990	6.275	3.661	3.864	164.062
0.074	-1.644	-0.335	-2.872	-2.074	-0.112	0.044	1.975	2.288	1.051	0.411	1.671	-1.272	-2.568	-1.907	-4.620	-3.407	-1.077	-3.258	-4.813	-3.821	-2.855	-2.162	1.876	4.394	6.885	3.979	4.294	167.969
0.292	-2.260	-0.644	-3.423	-2.420	-0.305	0.513	2.806	3.319	1.763	0.958	1.892	-1.452	-2.912	-1.745	-5.354	-4.157	-1.158	-3.848	-5.589	-4.439	-3.285	-2.536	1.905	4.771	7.453	4.331	4.668	171.875
0.496	-2.821	-0.964	-3.945	-2.755	-0.512	1.000	3.595	4.294	2.468	1.472	2.073	-1.562	-3.190	-1.532	-6.055	-4.852	-1.230	-4.389	-6.321	-5.008	-3.647	-2.878	1.991	5.099	7.954	4.703	4.972	175.781
0.685	-3.312	-1.270	-4.430	-3.073	-0.728	1.480	4.302	5.197	3.132	1.935	2.213	-1.608	-3.405	-1.304	-6.704	-5.460	-1.300	-4.861	-6.989	-5.519	-3.936	-3.176	2.126	5.370	8.377	5.084	5.207	179.688
0.866	-3.736	-1.537	-4.876	-3.374	-0.949	1.933	4.906	6.022	3.734	2.343	2.321	-1.602	-3.566	-1.097	-7.293	-5.974	-1.378	-5.263	-7.584	-5.972	-4.156	-3.423	2.298	5.586	8.728	5.459	5.383	183.594
1.045	-4.100	-1.749	-5.285	-3.656	-1.168	2.344	5.405	6.759	4.262	2.695	2.406	-1.557	-3.685	-0.939	-7.818	-6.402	-1.474	-5.606	-8.108	-6.373	-4.322	-3.617	2.493	5.758	9.022	5.816	5.514	187.500
1.218	-4.415	-1.893	-5.656	-3.923	-1.378	2.706	5.807	7.397	4.714	2.996	2.475	-1.482	-3.771	-0.842	-8.279	-6.760	-1.594	-5.904	-8.567	-6.728	-4.451	-3.765	2.695	5.900	9.273	6.145	5.616	191.406
1.371	-4.684	-1.967	-5.986	-4.172	-1.569	3.017	6.127	7.919	5.094	3.249	2.534	-1.386	-3.834	-0.808	-8.674	-7.059	-1.736	-6.167	-8.968	-7.042	-4.557	-3.870	2.890	6.024	9.491	6.437	5.697	195.312
1.479	-4.905	-1.973	-6.272	-4.405	-1.734	3.279	6.382	8.303	5.410	3.457	2.583	-1.270	-3.875	-0.830	-8.999	-7.301	-1.891	-6.401	-9.318	-7.318	-4.648	-3.939	3.069	6.137	9.674	6.688	5.761	199.219
1.517	-5.070	-1.919	-6.507	-4.617	-1.868	3.497	6.580	8.536	5.670	3.624	2.624	-1.133	-3.892	-0.895	-9.249	-7.480	-2.045	-6.599	-9.619	-7.554	-4.728	-3.973	3.228	6.238	9.815	6.893	5.807	203.125
1.462	-5.163	-1.819	-6.685	-4.803	-1.967	3.677	6.724	8.611	5.881	3.753	2.659	-0.973	-3.883	-0.994	-9.417	-7.585	-2.180	-6.753	-9.873	-7.748	-4.792	-3.975	3.365	6.324	9.901	7.054	5.831	207.031
1.309	-5.174	-1.696	-6.801	-4.959	-2.032	3.824	6.806	8.534	6.048	3.848	2.691	-0.786	-3.842	-1.123	-9.501	-7.608	-2.282	-6.851	-10.077	-7.896	-4.836	-3.944	3.485	6.389	9.925	7.176	5.834	210.938
1.072	-5.094	-1.573	-6.856	-5.080	-2.067	3.943	6.819	8.329	6.173	3.915	2.729	-0.571	-3.767	-1.282	-9.505	-7.551	-2.344	-6.889	-10.231	-7.998	-4.850	-3.883	3.594	6.429	9.890	7.264	5.820	214.844
0.784	-4.929	-1.477	-6.852	-5.165	-2.077	4.035	6.755	8.031	6.257	3.956	2.781	-0.333	-3.659	-1.474	-9.439	-7.425	-2.366	-6.867	-10.335	-8.053	-4.832	-3.796	3.701	6.448	9.811	7.326	5.803	218.750
0.487	-4.696	-1.427	-6.801	-5.216	-2.070	4.099	6.616	7.684	6.297	3.973	2.852	-0.079	-3.521	-1.694	-9.324	-7.254	-2.357	-6.796	-10.393	-8.064	-4.777	-3.688	3.812	6.457	9.710	7.372	5.795	222.656
0.229	-4.425	-1.433	-6.714	-5.236	-2.054	4.134	6.411	7.329	6.289	3.961	2.938	0.178	-3.360	-1.928	-9.182	-7.068	-2.332	-6.692	-10.410	-8.037	-4.686	-3.564	3.932	6.467	9.612	7.407	5.806	226.562
0.043	-4.151	-1.491	-6.609	-5.234	-2.033	4.138	6.163	7.002	6.229	3.913	3.028	0.422	-3.185	-2.150	-9.036	-6.896	-2.304	-6.571	-10.395	-7.976	-4.559	-3.427	4.062	6.493	9.539	7.433	5.837	230.469
-0.053	-3.911	-1.586	-6.500	-5.215	-2.009	4.109	5.901	6.725	6.117	3.820	3.101	0.636	-3.003	-2.328	-8.905	-6.761	-2.282	-6.448	-10.355	-7.886	-4.400	-3.281	4.200	6.544	9.498	7.448	5.880	234.375
-0.063	-3.735	-1.693	-6.396	-5.182	-1.977	4.050	5.661	6.506	5.955	3.673	3.131	0.808	-2.823	-2.427	-8.800	-6.678	-2.270	-6.333	-10.296	-7.771	-4.213	-3.124	4.338	6.618	9.484	7.443	5.915	238.281
-0.005	-3.637	-1.783	-6.301	-5.134	-1.928	3.965	5.472	6.341	5.751	3.468	3.094	0.926	-2.651	-2.425	-8.725	-6.650	-2.264	-6.229	-10.221	-7.636	-4.004	-2.957	4.469	6.707	9.484	7.411	5.917	242.188
0.091	-3.616	-1.827	-6.214	-5.068	-1.852	3.862	5.357	6.223	5.518	3.210	2.969	0.987	-2.491	-2.314	-8.674	-6.671	-2.257	-6.136	-10.132	-7.486	-3.783	-2.782	4.580	6.797	9.478	7.341	5.860	246.094
0.195	-3.652	-1.803	-6.127	-4.978	-1.740	3.751	5.324	6.136	5.273	2.908	2.751	0.992	-2.347	-2.107	-8.639	-6.731	-2.241	-6.052	-10.029	-7.324	-3.559	-2.606	4.663	6.874	9.446	7.230	5.728	250.000
0.282	-3.710	-1.701	-6.032	-4.857	-1.585	3.641	5.370	6.068	5.031	2.578	2.443	0.949	-2.223	-1.836	-8.605	-6.812	-2.216	-5.974	-9.911	-7.155	-3.345	-2.436	4.710	6.925	9.377	7.079	5.514	253.906
0.341	-3.746	-1.525	-5.918	-4.700	-1.387	3.542	5.476	6.003	4.810	2.238	2.064	0.870	-2.119	-1.545	-8.562	-6.892	-2.183	-5.896	-9.773	-6.980	-3.149	-2.286	4.717	6.940	9.265	6.893	5.224	257.812
0.371	-3.721	-1.294	-5.777	-4.505	-1.152	3.459	5.618	5.926	4.622	1.909	1.640	0.771	-2.032	-1.282	-8.496	-6.948	-2.152	-5.813	-9.612	-6.800	-2.977	-2.166	4.685	6.917	9.114	6.685	4.879	261.719
0.388	-3.608	-1.040	-5.607	-4.276	-0.891	3.398	5.767	5.824	4.474	1.608	1.204	0.670	-1.960	-1.089	-8.401	-6.953	-2.137	-5.718	-9.423	-6.614	-2.832	-2.088	4.618	6.854	8.933	6.471	4.511	265.625
0.411	-3.404	-0.800	-5.409	-4.023	-0.620	3.361	5.896	5.688	4.369	1.349	0.789	0.579	-1.896	-0.990	-8.275	-6.885	-2.149	-5.605	-9.204	-6.421	-2.712	-2.058	4.525	6.754	8.737	6.266	4.153	269.531
0.463	-3.129	-0.607	-5.195	-3.760	-0.357	3.347	5.986	5.516	4.307	1.144	0.426	0.513	-1.836	-0.991	-8.120	-6.733	-2.196	-5.470	-8.956	-6.219	-2.615	-2.077	4.416	6.619	8.542	6.087	3.839	273.438
0.559	-2.824	-0.489	-4.980	-3.506	-0.120	3.354	6.021	5.316	4.286	1.000	0.139	0.477	-1.774	-1.075	-7.944	-6.497	-2.275	-5.312	-8.685	-6.011	-2.533	-2.144	4.303	6.455	8.359	5.943	3.592	277.344
0.704	-2.534	-0.455	-4.783	-3.276	0.074	3.379	5.999	5.107	4.301	0.923	-0.056	0.476	-1.708	-1.207	-7.760	-6.197	-2.376	-5.138	-8.398	-5.803	-2.464	-2.249	4.196	6.264	8.193	5.838	3.424	281.250
0.889	-2.298	-0.500	-4.615	-3.085	0.214	3.419	5.922	4.911	4.352	0.915	-0.156	0.509	-1.636	-1.343	-7.580	-5.864	-2.483	-4.957	-8.106	-5.600	-2.405	-2.382	4.105	6.052	8.043	5.771	3.330	285.156
1.094	-2.133	-0.601	-4.484	-2.939	0.295	3.471	5.800	4.747	4.434	0.970	-0.166	0.570	-1.557	-1.444	-7.411	-5.541	-2.577	-4.784	-7.818	-5.405	-2.353	-2.530	4.031	5.822	7.898	5.731	3.295	289.062
1.294	-2.034	-0.724	-4.382	-2.839	0.318	3.533	5.648	4.626	4.545	1.078	-0.102	0.655	-1.471	-1.483	-7.255	-5.266	-2.640	-4.632	-7.537	-5.221	-2.307	-2.681	3.976	5.579	7.745	5.707	3.294	292.969
1.465	-1.973	-0.833	-4.296	-2.776	0.292	3.601	5.482	4.547	4.679	1.222	0.012	0.757	-1.378	-1.453	-7.109	-5.071	-2.662	-4.514	-7.265	-5.046	-2.268	-2.824	3.937	5.326	7.570	5.685	3.299	296.875
1.592	-1.912	-0.897	-4.204	-2.739	0.230	3.673	5.314	4.497	4.829	1.382	0.150	0.870	-1.280	-1.364	-6.964	-4.970	-2.640	-4.434	-6.997	-4.872	-2.236	-2.949	3.908	5.066	7.361	5.654	3.287	300.781
1.669	-1.815	-0.902	-4.088	-2.715	0.148	3.741	5.154	4.457	4.986	1.535	0.285	0.987	-1.178	-1.240	-6.808	-4.955	-2.580	-4.392	-6.724	-4.693	-2.210	-3.049	3.885	4.802	7.113	5.605	3.236	304.688
1.702	-1.658	-0.848	-3.933	-2.693	0.060	3.799	5.011	4.408	5.137	1.662	0.393	1.103	-1.075	-1.111	-6.630	-5.002	-2.495	-4.378	-6.439	-4.502	-2.187	-3.119	3.863	4.535	6.828	5.533	3.137	308.594
1.708	-1.440	-0.753	-3.735	-2.667	-0.021	3.838	4.889	4.335	5.267	1.742	0.453	1.214	-0.975	-1.002	-6.421	-5.073	-2.401	-4.380	-6.136	-4.298	-2.165	-3.158	3.839	4.267	6.515	5.435	2.987	312.500
1.705	-1.176	-0.648	-3.500	-2.636	-0.085	3.849	4.794	4.231	5.360	1.762	0.452	1.314	-0.883	-0.931	-6.179	-5.129	-2.314	-4.384	-5.813	-4.082	-2.142	-3.168	3.814	4.007	6.184	5.312	2.792	316.406
1.716	-0.898	-0.563	-3.244	-2.601	-0.129	3.825	4.731	4.094	5.398	1.713	0.386	1.399	-0.804	-0.908	-5.906	-5.141	-2.250	-4.380	-5.475	-3.860	-2.116	-3.153	3.787	3.765	5.855	5.169	2.565	320.312
1.757	-0.646	-0.524	-2.990	-2.572	-0.152	3.764	4.705	3.934	5.371	1.595	0.259	1.465	-0.745	-0.935	-5.616	-5.094	-2.217	-4.363	-5.133	-3.646	-2.087	-3.119	3.762	3.556	5.543	5.013	2.326	324.219
1.833	-0.451	-0.539	-2.764	-2.558	-0.160	3.667	4.719	3.760	5.273	1.420	0.088	1.510	-0.709	-1.009	-5.323	-4.990	-2.220	-4.338	-4.807	-3.456	-2.057	-3.071	3.739	3.397	5.268	4.857	2.100	328.125
1.934	-0.335	-0.601	-2.586	-2.570	-0.156	3.543	4.770	3.588	5.110	1.209	-0.100	1.534	-0.700	-1.126	-5.049	-4.849	-2.258	-4.311	-4.518	-3.307	-2.031	-3.015	3.723	3.303	5.048	4.716	1.913	332.031
2.034	-0.304	-0.688	-2.472	-2.618	-0.151	3.403	4.849	3.428	4.900	0.995	-0.270	1.541	-0.720	-1.281	-4.815	-4.705	-2.324	-4.298	-4.291	-3.217	-2.015	-2.954	3.718	3.283	4.898	4.609	1.791	335.938
2.097	-0.345	-0.770	-2.432	-2.708	-0.150	3.265	4.943	3.289	4.673	0.818	-0.381	1.536	-0.769	-1.464	-4.640	-4.594	-2.408	-4.314	-4.150	-3.202	-2.016	-2.889	3.726	3.340	4.831	4.556	1.759	339.844
2.085	-0.439	-0.814	-2.463	-2.844	-0.162	3.145	5.033	3.179	4.464	0.719	-0.392	1.526	-0.846	-1.666	-4.539	-4.553	-2.500	-4.375	-4.113	-3.273	-2.043	-2.825	3.750	3.468	4.855	4.571	1.837	343.750
1.969	-0.557	-0.799	-2.559	-3.024	-0.190	3.058	5.105	3.105	4.313	0.737	-0.271	1.519	-0.950	-1.875	-4.522	-4.610	-2.591	-4.493	-4.192	-3.434	-2.104	-2.764	3.793	3.653	4.969	4.667	2.035	347.656
1.744	-0.678	-0.713	-2.707	-3.242	-0.238	3.016	5.148	3.075	4.251	0.895	-0.001	1.521	-1.079	-2.078	-4.593	-4.781	-2.673	-4.676	-4.388	-3.682	-2.202	-2.709	3.849	3.872	5.163	4.841	2.350	351.562
1.428	-0.783	-0.561	-2.892	-3.482	-0.304	3.026	5.159	3.101	4.295	1.200	0.410	1.536	-1.229	-2.264	-4.747	-5.065	-2.743	-4.918	-4.690	-4.004	-2.336	-2.660	3.915	4.099	5.416	5.081	2.765	355.469
1.061	-0.862	-0.360	-3.094	-3.726	-0.383	3.087	5.148	3.192	4.443	1.631	0.925	1.561	-1.395	-2.423	-4.970	-5.441	-2.800	-5.203	-5.072	-4.375	-2.493	-2.615	3.980	4.305	5.693	5.358	3.242	359.375
0.696	-0.906	-0.138	-3.291	-3.947	-0.466	3.190	5.131	3.353	4.670	2.138	1.479	1.592	-1.563	-2.547	-5.237	-5.871	-2.844	-5.502	-5.497	-4.761	-2.655	-2.565	4.034	4.465	5.951	5.632	3.726	363.281
0.378	-0.905	0.074	-3.458	-4.118	-0.539	3.321	5.128	3.577	4.932	2.646	1.986	1.623	-1.721	-2.634	-5.512	-6.298	-2.876	-5.774	-5.917	-5.122	-2.792	-2.502	4.067	4.560	6.148	5.859	4.151	367.188
0.143	-0.847	0.246	-3.572	-4.211	-0.588	3.460	5.158	3.841	5.173	3.065	2.354	1.644	-1.850	-2.689	-5.752	-6.657	-2.893	-5.974	-6.281	-5.416	-2.876	-2.414	4.072	4.583	6.248	5.996	4.449	371.094
0.003	-0.719	0.355	-3.610	-4.206	-0.598	3.584	5.228	4.112	5.333	3.307	2.504	1.648	-1.935	-2.724	-5.915	-6.887	-2.895	-6.062	-6.545	-5.608	-2.880	-2.290	4.048	4.538	6.229	6.013	4.565	375.000
-0.049	-0.511	0.387	-3.561	-4.094	-0.559	3.673	5.335	4.348	5.370	3.307	2.387	1.634	-1.962	-2.745	-5.973	-6.943	-2.881	-6.012	-6.678	-5.673	-2.788	-2.126	4.000	4.442	6.090	5.900	4.468	378.906
-0.033	-0.231	0.345	-3.425	-3.880	-0.468	3.716	5.462	4.505	5.263	3.039	2.001	1.603	-1.924	-2.755	-5.912	-6.807	-2.848	-5.822	-6.671	-5.606	-2.597	-1.924	3.937	4.317	5.850	5.668	4.163	382.812
0.027	0.099	0.243	-3.217	-3.581	-0.328	3.709	5.579	4.546	5.021	2.524	1.397	1.566	-1.822	-2.747	-5.747	-6.500	-2.802	-5.512	-6.539	-5.417	-2.322	-1.693	3.873	4.187	5.542	5.353	3.688	386.719
0.114	0.431	0.108	-2.967	-3.228	-0.148	3.661	5.652	4.450	4.684	1.830	0.665	1.537	-1.662	-2.705	-5.511	-6.074	-2.745	-5.125	-6.315	-5.136	-1.989	-1.450	3.820	4.072	5.205	5.000	3.109	390.625
0.223	0.705	-0.028	-2.714	-2.858	0.056	3.588	5.650	4.215	4.310	1.059	-0.075	1.532	-1.457	-2.608	-5.253	-5.601	-2.686	-4.716	-6.048	-4.800	-1.631	-1.213	3.788	3.981	4.871	4.657	2.511	394.531
0.361	0.861	-0.130	-2.498	-2.507	0.268	3.514	5.555	3.857	3.966	0.330	-0.703	1.565	-1.224	-2.445	-5.026	-5.161	-2.630	-4.342	-5.788	-4.450	-1.285	-1.004	3.777	3.911	4.561	4.362	1.974	398.438
0.539	0.857	-0.168	-2.350	-2.203	0.472	3.460	5.363	3.409	3.713	-0.245	-1.121	1.642	-0.980	-2.213	-4.870	-4.818	-2.580	-4.044	-5.574	-4.123	-0.981	-0.839	3.781	3.845	4.274	4.131	1.559	402.344
0.766	0.681	-0.124	-2.285	-1.962	0.657	3.442	5.090	2.916	3.588	-0.585	-1.275	1.758	-0.744	-1.927	-4.804	-4.611	-2.535	-3.848	-5.428	-3.843	-0.739	-0.728	3.783	3.754	3.990	3.957	1.291	406.250
1.044	0.366	0.008	-2.294	-1.783	0.820	3.465	4.765	2.426	3.603	-0.652	-1.169	1.897	-0.529	-1.613	-4.820	-4.544	-2.490	-3.754	-5.347	-3.618	-0.569	-0.674	3.760	3.609	3.676	3.807	1.156	410.156
1.361	-0.023	0.216	-2.348	-1.651	0.961	3.526	4.427	1.979	3.739	-0.465	-0.859	2.034	-0.344	-1.300	-4.889	-4.591	-2.434	-3.741	-5.310	-3.438	-0.464	-0.668	3.687	3.381	3.297	3.629	1.108	414.062
1.697	-0.401	0.477	-2.405	-1.543	1.087	3.606	4.115	1.607	3.950	-0.085	-0.438	2.141	-0.192	-1.013	-4.969	-4.702	-2.358	-3.771	-5.281	-3.286	-0.412	-0.695	3.542	3.050	2.827	3.369	1.079	417.969
2.022	-0.685	0.758	-2.423	-1.435	1.205	3.680	3.862	1.326	4.178	0.393	-0.016	2.191	-0.074	-0.766	-5.014	-4.821	-2.252	-3.803	-5.222	-3.137	-0.392	-0.735	3.312	2.617	2.261	2.983	1.005	421.875
2.309	-0.811	1.027	-2.372	-1.311	1.319	3.720	3.688	1.135	4.357	0.864	0.310	2.164	0.012	-0.559	-4.991	-4.895	-2.109	-3.796	-5.106	-2.970	-0.381	-0.766	2.996	2.099	1.617	2.451	0.837	425.781
2.531	-0.754	1.254	-2.242	-1.166	1.428	3.697	3.596	1.020	4.430	1.232	0.469	2.053	0.071	-0.387	-4.885	-4.883	-1.926	-3.719	-4.919	-2.774	-0.357	-0.765	2.611	1.537	0.939	1.786	0.559	429.688
2.673	-0.526	1.421	-2.045	-1.008	1.522	3.591	3.573	0.958	4.359	1.428	0.431	1.866	0.104	-0.241	-4.701	-4.764	-1.705	-3.558	-4.670	-2.548	-0.307	-0.721	2.189	0.984	0.288	1.034	0.186	433.594
2.724	-0.176	1.524	-1.809	-0.856	1.591	3.390	3.591	0.921	4.126	1.413	0.208	1.623	0.113	-0.115	-4.465	-4.535	-1.448	-3.314	-4.382	-2.302	-0.223	-0.625	1.770	0.502	-0.272	0.264	-0.242	437.500
2.680	0.233	1.567	-1.573	-0.731	1.622	3.098	3.614	0.885	3.738	1.186	-0.159	1.354	0.101	-0.008	-4.209	-4.213	-1.162	-3.006	-4.088	-2.055	-0.106	-0.481	1.399	0.151	-0.680	-0.440	-0.667	441.406
2.548	0.631	1.563	-1.372	-0.655	1.606	2.732	3.606	0.831	3.225	0.773	-0.609	1.093	0.070	0.073	-3.968	-3.829	-0.856	-2.662	-3.823	-1.827	0.038	-0.300	1.116	-0.026	-0.896	-1.001	-1.029	445.312
2.336	0.966	1.528	-1.234	-0.638	1.536	2.319	3.536	0.748	2.632	0.229	-1.077	0.870	0.024	0.120	-3.771	-3.424	-0.540	-2.318	-3.615	-1.635	0.194	-0.101	0.950	-0.007	-0.903	-1.360	-1.280	449.219
2.067	1.202	1.473	-1.170	-0.683	1.414	1.892	3.385	0.634	2.016	-0.383	-1.501	0.708	-0.030	0.129	-3.634	-3.042	-0.232	-2.007	-3.478	-1.491	0.347	0.093	0.910	0.202	-0.713	-1.488	-1.392	453.125
1.765	1.333	1.407	-1.177	-0.782	1.246	1.485	3.154	0.493	1.431	-0.989	-1.837	0.617	-0.087	0.099	-3.562	-2.725	0.052	-1.758	-3.416	-1.399	0.481	0.258	0.988	0.570	-0.361	-1.390	-1.356	457.031
1.465	1.368	1.333	-1.240	-0.922	1.045	1.128	2.859	0.333	0.929	-1.524	-2.054	0.596	-0.144	0.039	-3.552	-2.507	0.294	-1.591	-3.423	-1.357	0.579	0.372	1.158	1.042	0.097	-1.101	-1.187	460.938
1.201	1.327	1.253	-1.341	-1.083	0.823	0.842	2.530	0.164	0.548	-1.928	-2.137	0.631	-0.198	-0.031	-3.596	-2.409	0.480	-1.518	-3.485	-1.361	0.630	0.420	1.384	1.555	0.602	-0.678	-0.914	464.844
1.005	1.230	1.167	-1.461	-1.251	0.598	0.637	2.207	-0.000	0.311	-2.162	-2.083	0.702	-0.253	-0.090	-3.684	-2.436	0.600	-1.543	-3.588	-1.405	0.622	0.391	1.624	2.045	1.096	-0.186	-0.573	468.750
0.900	1.092	1.079	-1.585	-1.414	0.381	0.512	1.930	-0.147	0.224	-2.207	-1.903	0.789	-0.313	-0.120	-3.811	-2.581	0.655	-1.660	-3.721	-1.484	0.548	0.285	1.839	2.457	1.533	0.309	-0.199	472.656
0.898	0.921	0.991	-1.706	-1.565	0.185	0.454	1.730	-0.264	0.276	-2.065	-1.615	0.870	-0.386	-0.112	-3.967	-2.818	0.652	-1.854	-3.873	-1.592	0.410	0.111	1.998	2.760	1.882	0.749	0.177	476.562
1.000	0.720	0.910	-1.819	-1.702	0.015	0.447	1.629	-0.344	0.442	-1.761	-1.244	0.931	-0.476	-0.069	-4.146	-3.115	0.607	-2.106	-4.037	-1.726	0.214	-0.114	2.082	2.938	2.126	1.095	0.529	480.469
1.189	0.493	0.841	-1.925	-1.824	-0.126	0.470	1.628	-0.381	0.684	-1.338	-0.824	0.964	-0.585	-0.006	-4.336	-3.433	0.539	-2.388	-4.204	-1.877	-0.025	-0.366	2.087	2.998	2.264	1.322	0.836	484.375
1.443	0.248	0.790	-2.022	-1.929	-0.237	0.507	1.710	-0.377	0.963	-0.851	-0.392	0.969	-0.708	0.057	-4.521	-3.733	0.466	-2.672	-4.362	-2.036	-0.284	-0.620	2.021	2.960	2.303	1.425	1.081	488.281
1.728	0.003	0.761	-2.108	-2.013	-0.320	0.543	1.848	-0.341	1.236	-0.359	0.013	0.950	-0.837	0.103	-4.684	-3.980	0.402	-2.925	-4.498	-2.185	-0.532	-0.848	1.898	2.848	2.256	1.409	1.253	492.188
2.004	-0.216	0.762	-2.175	-2.067	-0.376	0.570	2.003	-0.287	1.466	0.080	0.354	0.912	-0.957	0.127	-4.804	-4.145	0.357	-3.119	-4.592	-2.307	-0.738	-1.027	1.741	2.689	2.138	1.288	1.342	496.094
2.230	-0.376	0.797	-2.210	-2.082	-0.406	0.580	2.140	-0.233	1.622	0.418	0.595	0.861	-1.054	0.128	-4.859	-4.208	0.335	-3.228	-4.626	-2.379	-0.874	-1.139	1.568	2.505	1.963	1.077	1.342	500.000
2.364	-0.441	0.875	-2.196	-2.046	-0.407	0.570	2.227	-0.196	1.681	0.616	0.709	0.798	-1.112	0.115	-4.829	-4.155	0.335	-3.232	-4.579	-2.382	-0.919	-1.172	1.396	2.310	1.746	0.795	1.251	503.906
2.377	-0.378	0.999	-2.112	-1.950	-0.378	0.534	2.247	-0.191	1.629	0.651	0.678	0.725	-1.120	0.092	-4.701	-3.983	0.354	-3.122	-4.435	-2.301	-0.861	-1.125	1.236	2.116	1.501	0.459	1.074	507.812
2.252	-0.169	1.167	-1.944	-1.790	-0.314	0.467	2.192	-0.222	1.462	0.514	0.498	0.637	-1.072	0.058	-4.466	-3.696	0.387	-2.902	-4.186	-2.127	-0.706	-1.008	1.097	1.931	1.244	0.090	0.824	511.719
1.996	0.186	1.368	-1.683	-1.569	-0.214	0.364	2.070	-0.284	1.187	0.211	0.177	0.533	-0.970	0.007	-4.129	-3.310	0.427	-2.589	-3.833	-1.864	-0.467	-0.835	0.985	1.764	0.996	-0.289	0.517	515.625
1.635	0.665	1.584	-1.336	-1.297	-0.080	0.223	1.893	-0.363	0.821	-0.236	-0.262	0.410	-0.821	-0.072	-3.706	-2.852	0.463	-2.208	-3.391	-1.524	-0.169	-0.627	0.904	1.623	0.776	-0.653	0.178	519.531
1.215	1.230	1.785	-0.921	-0.992	0.081	0.049	1.682	-0.441	0.393	-0.790	-0.783	0.272	-0.640	-0.189	-3.224	-2.354	0.489	-1.793	-2.884	-1.129	0.159	-0.405	0.854	1.516	0.601	-0.978	-0.169	523.438
0.790	1.831	1.944	-0.471	-0.676	0.263	-0.147	1.457	-0.502	-0.059	-1.402	-1.343	0.122	-0.442	-0.348	-2.714	-1.855	0.499	-1.381	-2.347	-0.708	0.490	-0.191	0.835	1.448	0.479	-1.244	-0.502	527.344
0.417	2.410	2.033	-0.025	-0.373	0.452	-0.344	1.237	-0.538	-0.494	-2.016	-1.896	-0.027	-0.245	-0.545	-2.215	-1.396	0.495	-1.001	-1.816	-0.292	0.799	0.004	0.844	1.415	0.407	-1.438	-0.804	531.250
0.140	2.914	2.040	0.377	-0.101	0.637	-0.516	1.036	-0.550	-0.866	-2.574	-2.399	-0.162	-0.061	-0.764	-1.758	-1.011	0.482	-0.679	-1.327	0.088	1.069	0.169	0.875	1.411	0.369	-1.557	-1.066	535.156
-0.019	3.298	1.966	0.702	0.123	0.805	-0.635	0.866	-0.549	-1.136	-3.027	-2.818	-0.266	0.101	-0.981	-1.371	-0.730	0.472	-0.429	-0.909	0.411	1.290	0.301	0.922	1.419	0.345	-1.602	-1.285	539.062
-0.066	3.534	1.832	0.926	0.291	0.944	-0.679	0.727	-0.554	-1.275	-3.341	-3.130	-0.323	0.237	-1.166	-1.068	-0.569	0.475	-0.257	-0.580	0.663	1.456	0.402	0.979	1.421	0.314	-1.583	-1.464	542.969
-0.036	3.617	1.676	1.045	0.401	1.042	-0.635	0.620	-0.582	-1.271	-3.499	-3.326	-0.322	0.348	-1.286	-0.851	-0.523	0.503	-0.155	-0.345	0.838	1.571	0.474	1.038	1.396	0.258	-1.515	-1.606	546.875
0.016	3.566	1.538	1.066	0.457	1.093	-0.506	0.540	-0.648	-1.128	-3.504	-3.410	-0.259	0.433	-1.322	-0.709	-0.571	0.560	-0.109	-0.199	0.940	1.638	0.521	1.091	1.326	0.170	-1.414	-1.715	550.781
0.033	3.418	1.455	1.010	0.464	1.091	-0.308	0.481	-0.758	-0.870	-3.378	-3.390	-0.139	0.493	-1.267	-0.627	-0.674	0.646	-0.099	-0.126	0.977	1.663	0.546	1.132	1.201	0.049	-1.297	-1.794	554.688
-0.029	3.226	1.444	0.906	0.431	1.039	-0.069	0.438	-0.909	-0.534	-3.150	-3.282	0.025	0.529	-1.136	-0.584	-0.788	0.749	-0.107	-0.107	0.963	1.652	0.548	1.156	1.022	-0.094	-1.175	-1.838	558.594
-0.185	3.043	1.501	0.784	0.367	0.943	0.174	0.406	-1.085	-0.163	-2.855	-3.101	0.213	0.539	-0.960	-0.561	-0.874	0.857	-0.116	-0.122	0.909	1.608	0.529	1.162	0.800	-0.243	-1.054	-1.844	562.500
-0.417	2.912	1.598	0.669	0.280	0.814	0.386	0.382	-1.262	0.197	-2.529	-2.863	0.402	0.522	-0.782	-0.546	-0.906	0.953	-0.120	-0.156	0.828	1.537	0.487	1.154	0.559	-0.380	-0.934	-1.807	566.406
-0.682	2.858	1.690	0.578	0.178	0.668	0.538	0.366	-1.412	0.507	-2.200	-2.582	0.571	0.477	-0.639	-0.534	-0.884	1.027	-0.122	-0.197	0.729	1.442	0.424	1.137	0.328	-0.490	-0.811	-1.726	570.312
-0.924	2.878	1.734	0.516	0.067	0.522	0.611	0.359	-1.513	0.739	-1.892	-2.276	0.701	0.407	-0.556	-0.527	-0.825	1.072	-0.132	-0.243	0.618	1.330	0.344	1.118	0.138	-0.559	-0.682	-1.606	574.219
-1.094	2.952	1.700	0.480	-0.047	0.393	0.597	0.361	-1.555	0.874	-1.624	-1.962	0.779	0.311	-0.536	-0.533	-0.760	1.092	-0.163	-0.295	0.499	1.206	0.253	1.104	0.018	-0.583	-0.546	-1.456	578.125
-1.163	3.048	1.583	0.460	-0.162	0.295	0.501	0.375	-1.539	0.907	-1.412	-1.662	0.798	0.195	-0.564	-0.560	-0.720	1.097	-0.221	-0.352	0.378	1.081	0.162	1.095	-0.014	-0.564	-0.410	-1.296	582.031
-1.133	3.137	1.405	0.446	-0.274	0.234	0.339	0.399	-1.486	0.840	-1.270	-1.402	0.757	0.064	-0.615	-0.608	-0.721	1.100	-0.305	-0.416	0.259	0.963	0.085	1.089	0.045	-0.515	-0.288	-1.147	585.938
-1.035	3.201	1.212	0.431	-0.379	0.209	0.129	0.430	-1.424	0.685	-1.209	-1.206	0.658	-0.074	-0.666	-0.674	-0.760	1.116	-0.399	-0.478	0.151	0.866	0.036	1.080	0.183	-0.452	-0.202	-1.033	589.844
-0.914	3.236	1.059	0.414	-0.472	0.219	-0.107	0.462	-1.383	0.459	-1.233	-1.096	0.507	-0.208	-0.699	-0.744	-0.813	1.152	-0.480	-0.526	0.063	0.798	0.028	1.057	0.371	-0.396	-0.176	-0.973	593.750
-0.823	3.251	0.994	0.401	-0.548	0.254	-0.347	0.488	-1.383	0.184	-1.340	-1.083	0.316	-0.330	-0.712	-0.799	-0.845	1.210	-0.518	-0.548	0.006	0.766	0.067	1.008	0.571	-0.367	-0.231	-0.979	597.656
-0.799	3.258	1.044	0.401	-0.600	0.308	-0.569	0.508	-1.428	-0.111	-1.517	-1.169	0.096	-0.430	-0.709	-0.822	-0.824	1.285	-0.496	-0.531	-0.016	0.769	0.151	0.926	0.744	-0.378	-0.376	-1.052	601.562
-0.858	3.266	1.207	0.422	-0.621	0.374	-0.755	0.522	-1.501	-0.396	-1.740	-1.341	-0.135	-0.501	-0.699	-0.803	-0.737	1.369	-0.408	-0.471	-0.003	0.800	0.265	0.808	0.856	-0.432	-0.605	-1.179	605.469
-0.990	3.279	1.450	0.469	-0.611	0.448	-0.891	0.537	-1.569	-0.639	-1.977	-1.573	-0.361	-0.540	-0.692	-0.742	-0.591	1.448	-0.269	-0.375	0.037	0.843	0.389	0.660	0.889	-0.525	-0.898	-1.341	609.375
-1.162	3.296	1.720	0.541	-0.569	0.525	-0.966	0.564	-1.595	-0.811	-2.196	-1.830	-0.563	-0.549	-0.693	-0.652	-0.417	1.513	-0.110	-0.259	0.087	0.878	0.496	0.495	0.839	-0.645	-1.216	-1.509	613.281
-1.331	3.316	1.953	0.629	-0.502	0.601	-0.975	0.613	-1.547	-0.892	-2.366	-2.078	-0.724	-0.535	-0.699	-0.553	-0.258	1.560	0.032	-0.146	0.128	0.886	0.559	0.329	0.718	-0.775	-1.514	-1.655	617.188
-1.457	3.339	2.093	0.723	-0.422	0.670	-0.921	0.690	-1.411	-0.875	-2.468	-2.282	-0.831	-0.505	-0.703	-0.471	-0.161	1.586	0.118	-0.061	0.142	0.852	0.560	0.181	0.548	-0.897	-1.746	-1.754	621.094
-1.515	3.368	2.107	0.806	-0.343	0.724	-0.812	0.792	-1.195	-0.766	-2.492	-2.417	-0.874	-0.470	-0.689	-0.427	-0.157	1.591	0.123	-0.024	0.115	0.768	0.490	0.070	0.357	-0.991	-1.871	-1.787	625.000
-1.499	3.406	1.991	0.862	-0.280	0.752	-0.665	0.911	-0.928	-0.587	-2.444	-2.470	-0.854	-0.437	-0.640	-0.436	-0.259	1.577	0.040	-0.046	0.043	0.638	0.351	0.006	0.172	-1.044	-1.861	-1.747	628.906
-1.421	3.456	1.773	0.878	-0.249	0.742	-0.499	1.029	-0.653	-0.369	-2.337	-2.439	-0.774	-0.408	-0.547	-0.500	-0.454	1.543	-0.120	-0.126	-0.067	0.476	0.160	-0.007	0.017	-1.046	-1.708	-1.636	632.812
-1.306	3.514	1.499	0.848	-0.259	0.684	-0.339	1.128	-0.422	-0.148	-2.192	-2.335	-0.646	-0.384	-0.414	-0.607	-0.705	1.491	-0.324	-0.250	-0.196	0.304	-0.060	0.027	-0.096	-0.998	-1.425	-1.470	636.719
-1.184	3.575	1.226	0.774	-0.316	0.574	-0.209	1.188	-0.279	0.038	-2.028	-2.175	-0.486	-0.361	-0.257	-0.734	-0.959	1.423	-0.532	-0.394	-0.321	0.147	-0.280	0.097	-0.164	-0.909	-1.045	-1.269	640.625
-1.078	3.632	1.004	0.664	-0.416	0.412	-0.128	1.196	-0.255	0.165	-1.864	-1.980	-0.315	-0.334	-0.110	-0.850	-1.161	1.343	-0.704	-0.530	-0.417	0.029	-0.472	0.186	-0.193	-0.795	-0.618	-1.059	644.531
-1.004	3.676	0.868	0.535	-0.551	0.207	-0.107	1.147	-0.358	0.216	-1.711	-1.773	-0.151	-0.300	-0.004	-0.925	-1.266	1.258	-0.810	-0.628	-0.463	-0.033	-0.613	0.276	-0.196	-0.675	-0.200	-0.864	648.438
-0.963	3.699	0.826	0.408	-0.707	-0.025	-0.149	1.045	-0.570	0.190	-1.573	-1.574	-0.011	-0.261	0.032	-0.936	-1.250	1.170	-0.837	-0.669	-0.451	-0.035	-0.689	0.350	-0.184	-0.565	0.155	-0.705	652.344
-0.949	3.696	0.864	0.300	-0.866	-0.269	-0.246	0.902	-0.853	0.100	-1.452	-1.399	0.092	-0.219	-0.010	-0.871	-1.111	1.085	-0.787	-0.642	-0.380	0.022	-0.694	0.397	-0.170	-0.481	0.406	-0.598	656.250
-0.953	3.666	0.948	0.224	-1.016	-0.509	-0.383	0.735	-1.153	-0.033	-1.344	-1.258	0.153	-0.182	-0.115	-0.735	-0.869	1.005	-0.680	-0.550	-0.264	0.124	-0.633	0.412	-0.161	-0.431	0.532	-0.548	660.156
-0.969	3.609	1.034	0.184	-1.144	-0.730	-0.539	0.565	-1.419	-0.184	-1.248	-1.154	0.174	-0.154	-0.247	-0.544	-0.560	0.933	-0.543	-0.407	-0.125	0.256	-0.521	0.400	-0.158	-0.417	0.538	-0.552	664.062
-1.001	3.533	1.082	0.177	-1.245	-0.922	-0.692	0.410	-1.608	-0.325	-1.162	-1.085	0.168	-0.138	-0.356	-0.323	-0.229	0.868	-0.404	-0.236	0.013	0.399	-0.375	0.372	-0.162	-0.439	0.451	-0.598	667.969
-1.055	3.446	1.062	0.193	-1.316	-1.078	-0.818	0.286	-1.704	-0.434	-1.084	-1.041	0.152	-0.132	-0.393	-0.100	0.080	0.812	-0.285	-0.064	0.128	0.538	-0.219	0.345	-0.171	-0.491	0.315	-0.667	671.875
-1.140	3.357	0.966	0.220	-1.359	-1.196	-0.899	0.197	-1.713	-0.493	-1.016	-1.011	0.146	-0.128	-0.327	0.099	0.332	0.762	-0.201	0.085	0.206	0.662	-0.073	0.337	-0.184	-0.566	0.180	-0.736	675.781
-1.252	3.273	0.801	0.245	-1.379	-1.276	-0.919	0.142	-1.662	-0.492	-0.960	-0.979	0.173	-0.114	-0.156	0.257	0.503	0.710	-0.153	0.193	0.240	0.764	0.043	0.363	-0.200	-0.656	0.090	-0.783	679.688
-1.373	3.200	0.591	0.260	-1.380	-1.320	-0.871	0.115	-1.586	-0.428	-0.912	-0.933	0.246	-0.078	0.088	0.365	0.588	0.646	-0.138	0.252	0.234	0.839	0.116	0.428	-0.224	-0.754	0.074	-0.792	683.594
-1.474	3.137	0.366	0.261	-1.365	-1.335	-0.753	0.105	-1.518	-0.306	-0.868	-0.861	0.373	-0.012	0.351	0.421	0.591	0.554	-0.147	0.262	0.197	0.885	0.138	0.530	-0.258	-0.853	0.141	-0.755	687.500
-1.520	3.083	0.157	0.251	-1.335	-1.323	-0.570	0.107	-1.476	-0.134	-0.817	-0.758	0.551	0.086	0.571	0.434	0.528	0.424	-0.176	0.232	0.142	0.900	0.106	0.655	-0.309	-0.945	0.275	-0.675	691.406
-1.487	3.034	-0.013	0.234	-1.294	-1.289	-0.335	0.115	-1.462	0.075	-0.747	-0.625	0.764	0.210	0.694	0.412	0.417	0.249	-0.221	0.172	0.081	0.882	0.022	0.783	-0.378	-1.023	0.447	-0.564	695.312
-1.366	2.985	-0.133	0.213	-1.244	-1.236	-0.065	0.132	-1.463	0.307	-0.649	-0.469	0.992	0.348	0.696	0.368	0.281	0.032	-0.283	0.093	0.022	0.833	-0.110	0.889	-0.463	-1.075	0.618	-0.439	699.219
-1.173	2.930	-0.201	0.188	-1.191	-1.168	0.215	0.162	-1.461	0.544	-0.518	-0.301	1.209	0.482	0.585	0.310	0.138	-0.212	-0.362	0.006	-0.031	0.753	-0.277	0.955	-0.558	-1.088	0.751	-0.316	703.125
-0.945	2.865	-0.226	0.155	-1.143	-1.089	0.482	0.211	-1.436	0.768	-0.357	-0.135	1.391	0.592	0.401	0.247	0.004	-0.464	-0.458	-0.084	-0.079	0.649	-0.465	0.968	-0.652	-1.054	0.821	-0.207	707.031
-0.735	2.792	-0.222	0.110	-1.109	-1.003	0.707	0.283	-1.379	0.960	-0.178	0.016	1.520	0.661	0.208	0.182	-0.107	-0.696	-0.565	-0.175	-0.127	0.528	-0.651	0.926	-0.732	-0.969	0.816	-0.120	710.938
-0.596	2.718	-0.204	0.049	-1.097	-0.918	0.867	0.374	-1.291	1.107	0.001	0.139	1.586	0.678	0.077	0.119	-0.190	-0.885	-0.673	-0.267	-0.179	0.401	-0.811	0.839	-0.787	-0.838	0.741	-0.051	714.844
-0.569	2.655	-0.185	-0.027	-1.110	-0.837	0.946	0.477	-1.184	1.197	0.160	0.231	1.589	0.641	0.064	0.057	-0.244	-1.013	-0.771	-0.360	-0.241	0.281	-0.921	0.725	-0.809	-0.677	0.616	0.003	718.750
-0.669	2.616	-0.173	-0.111	-1.147	-0.767	0.935	0.577	-1.081	1.227	0.278	0.289	1.541	0.558	0.202	-0.002	-0.274	-1.071	-0.851	-0.454	-0.312	0.179	-0.964	0.607	-0.794	-0.512	0.466	0.051	722.656
-0.878	2.612	-0.172	-0.197	-1.200	-0.708	0.841	0.657	-1.004	1.199	0.342	0.319	1.460	0.445	0.483	-0.058	-0.293	-1.059	-0.906	-0.546	-0.389	0.105	-0.932	0.508	-0.743	-0.369	0.320	0.099	726.562
-1.143	2.646	-0.183	-0.273	-1.261	-0.663	0.677	0.698	-0.972	1.123	0.343	0.327	1.369	0.324	0.867	-0.109	-0.313	-0.990	-0.936	-0.629	-0.461	0.065	-0.828	0.445	-0.665	-0.272	0.202	0.149	730.469
-1.390	2.709	-0.205	-0.335	-1.316	-0.632	0.467	0.690	-0.995	1.011	0.285	0.323	1.290	0.220	1.289	-0.153	-0.344	-0.881	-0.942	-0.696	-0.516	0.063	-0.664	0.428	-0.572	-0.236	0.128	0.201	734.375
-1.543	2.782	-0.238	-0.382	-1.355	-0.619	0.237	0.629	-1.065	0.876	0.177	0.313	1.242	0.154	1.676	-0.189	-0.388	-0.753	-0.929	-0.736	-0.541	0.098	-0.460	0.458	-0.480	-0.265	0.102	0.251	738.281
-1.544	2.841	-0.278	-0.419	-1.369	-0.625	0.019	0.521	-1.165	0.734	0.039	0.304	1.234	0.139	1.964	-0.217	-0.441	-0.624	-0.899	-0.745	-0.526	0.164	-0.242	0.523	-0.403	-0.351	0.115	0.290	742.188
-1.372	2.864	-0.324	-0.453	-1.354	-0.649	-0.164	0.384	-1.265	0.600	-0.105	0.297	1.269	0.177	2.118	-0.235	-0.491	-0.508	-0.857	-0.721	-0.468	0.247	-0.037	0.608	-0.354	-0.473	0.154	0.314	746.094
-1.053	2.840	-0.375	-0.492	-1.309	-0.686	-0.290	0.241	-1.339	0.488	-0.234	0.292	1.339	0.261	2.137	-0.245	-0.526	-0.413	-0.806	-0.671	-0.374	0.330	0.129	0.690	-0.337	-0.605	0.199	0.315	750.000
-0.655	2.775	-0.432	-0.540	-1.238	-0.730	-0.346	0.117	-1.364	0.407	-0.328	0.284	1.429	0.374	2.054	-0.249	-0.532	-0.342	-0.750	-0.604	-0.258	0.398	0.239	0.751	-0.354	-0.721	0.234	0.293	753.906
-0.268	2.686	-0.495	-0.595	-1.148	-0.767	-0.331	0.034	-1.331	0.362	-0.380	0.268	1.523	0.494	1.922	-0.247	-0.504	-0.291	-0.695	-0.537	-0.141	0.436	0.281	0.779	-0.396	-0.801	0.247	0.246	757.812
0.018	2.601	-0.567	-0.651	-1.050	-0.788	-0.249	0.002	-1.244	0.356	-0.388	0.242	1.608	0.600	1.801	-0.243	-0.442	-0.256	-0.644	-0.485	-0.043	0.436	0.257	0.771	-0.453	-0.836	0.238	0.177	761.719
0.138	2.546	-0.647	-0.701	-0.956	-0.788	-0.114	0.023	-1.117	0.387	-0.360	0.203	1.672	0.676	1.738	-0.239	-0.356	-0.229	-0.604	-0.460	0.018	0.399	0.178	0.735	-0.511	-0.828	0.211	0.093	765.625
0.072	2.542	-0.731	-0.739	-0.879	-0.769	0.056	0.086	-0.976	0.452	-0.308	0.157	1.714	0.713	1.756	-0.241	-0.263	-0.204	-0.583	-0.472	0.030	0.333	0.062	0.688	-0.558	-0.788	0.181	0.002	769.531
-0.150	2.591	-0.812	-0.762	-0.833	-0.738	0.243	0.176	-0.852	0.550	-0.243	0.114	1.734	0.710	1.847	-0.258	-0.187	-0.176	-0.587	-0.523	-0.010	0.253	-0.069	0.652	-0.585	-0.730	0.162	-0.086	773.438
-0.457	2.683	-0.883	-0.770	-0.828	-0.712	0.427	0.274	-0.776	0.678	-0.173	0.087	1.741	0.673	1.980	-0.297	-0.155	-0.143	-0.621	-0.612	-0.098	0.175	-0.192	0.648	-0.587	-0.666	0.170	-0.158	777.344
-0.758	2.795	-0.938	-0.769	-0.869	-0.705	0.595	0.367	-0.775	0.836	-0.107	0.090	1.744	0.613	2.106	-0.369	-0.185	-0.104	-0.687	-0.733	-0.224	0.115	-0.288	0.693	-0.565	-0.606	0.215	-0.204	781.250
-0.964	2.902	-0.973	-0.764	-0.956	-0.730	0.741	0.443	-0.864	1.022	-0.048	0.132	1.751	0.542	2.182	-0.476	-0.290	-0.062	-0.782	-0.877	-0.376	0.083	-0.345	0.794	-0.522	-0.554	0.302	-0.220	785.156
-1.022	2.985	-0.989	-0.761	-1.083	-0.791	0.862	0.497	-1.044	1.232	0.004	0.213	1.769	0.470	2.179	-0.621	-0.466	-0.020	-0.901	-1.034	-0.541	0.084	-0.360	0.951	-0.465	-0.511	0.426	-0.207	789.062
-0.926	3.036	-0.990	-0.764	-1.239	-0.884	0.965	0.533	-1.295	1.460	0.050	0.326	1.800	0.405	2.093	-0.794	-0.700	0.022	-1.037	-1.198	-0.708	0.114	-0.340	1.152	-0.402	-0.475	0.580	-0.170	792.969
-0.720	3.063	-0.983	-0.771	-1.407	-0.997	1.057	0.554	-1.586	1.697	0.091	0.459	1.841	0.348	1.947	-0.983	-0.965	0.062	-1.179	-1.362	-0.870	0.163	-0.297	1.379	-0.337	-0.446	0.751	-0.122	796.875
