FP1	F3	F7	FC3	C3	C5	P3	P7	PO7	PO3	O1	Oz	Pz	CPz	FP2	Fz	F4	F8	FC4	FCz	Cz	C4	C6	P4	P8	PO8	PO4	O2	time
2.681	0.938	1.395	0.029	-1.051	-1.092	-3.033	-0.949	-2.086	-2.190	-1.756	-1.688	-0.289	-0.017	1.478	0.951	0.966	2.159	0.296	0.574	-0.260	0.681	0.438	0.135	0.359	-1.217	-1.141	-0.776	-199.219
2.160	0.377	0.793	-0.169	-1.107	-1.459	-2.820	-0.963	-1.861	-1.863	-1.280	-1.121	-0.049	0.221	1.240	0.543	0.941	1.845	0.357	0.461	-0.325	0.880	0.887	0.606	0.617	-0.359	-0.536	-0.269	-195.312
1.651	-0.120	0.225	-0.337	-1.126	-1.764	-2.598	-0.963	-1.636	-1.539	-0.849	-0.609	0.176	0.435	1.020	0.186	0.932	1.548	0.416	0.379	-0.352	1.061	1.281	1.023	0.841	0.388	0.003	0.169	-191.406
1.168	-0.503	-0.271	-0.458	-1.084	-1.956	-2.360	-0.933	-1.408	-1.223	-0.495	-0.193	0.368	0.599	0.830	-0.080	0.942	1.276	0.466	0.350	-0.317	1.206	1.579	1.343	1.006	0.943	0.422	0.490	-187.500
0.724	-0.745	-0.667	-0.523	-0.971	-2.007	-2.102	-0.857	-1.175	-0.919	-0.235	0.102	0.517	0.698	0.671	-0.237	0.967	1.032	0.507	0.380	-0.208	1.300	1.759	1.538	1.096	1.262	0.688	0.664	-183.594
0.326	-0.839	-0.948	-0.536	-0.793	-1.913	-1.826	-0.723	-0.933	-0.633	-0.072	0.270	0.612	0.723	0.539	-0.286	0.997	0.812	0.542	0.464	-0.030	1.336	1.821	1.598	1.112	1.344	0.792	0.689	-179.688
-0.024	-0.801	-1.114	-0.510	-0.572	-1.694	-1.539	-0.522	-0.679	-0.369	0.014	0.326	0.653	0.676	0.419	-0.249	1.014	0.605	0.575	0.583	0.196	1.312	1.784	1.532	1.067	1.228	0.749	0.587	-175.781
-0.327	-0.659	-1.177	-0.460	-0.339	-1.388	-1.251	-0.255	-0.410	-0.127	0.051	0.304	0.641	0.565	0.298	-0.158	1.000	0.402	0.608	0.709	0.436	1.233	1.678	1.363	0.981	0.980	0.594	0.402	-171.875
-0.590	-0.453	-1.157	-0.405	-0.129	-1.041	-0.976	0.065	-0.130	0.095	0.073	0.246	0.580	0.400	0.159	-0.054	0.940	0.193	0.637	0.810	0.651	1.107	1.540	1.127	0.880	0.676	0.378	0.189	-167.969
-0.816	-0.221	-1.075	-0.358	0.025	-0.696	-0.728	0.417	0.157	0.303	0.115	0.195	0.478	0.196	-0.004	0.030	0.821	-0.025	0.648	0.856	0.801	0.944	1.400	0.866	0.786	0.383	0.153	0.006	-164.062
-1.005	0.002	-0.950	-0.325	0.096	-0.391	-0.518	0.769	0.438	0.502	0.201	0.188	0.344	-0.035	-0.192	0.068	0.641	-0.244	0.624	0.827	0.857	0.758	1.276	0.621	0.714	0.152	-0.036	-0.099	-160.156
-1.156	0.186	-0.796	-0.310	0.073	-0.151	-0.352	1.090	0.699	0.697	0.341	0.246	0.190	-0.281	-0.396	0.050	0.404	-0.452	0.549	0.715	0.805	0.561	1.174	0.425	0.669	0.008	-0.156	-0.099	-156.250
-1.266	0.315	-0.624	-0.308	-0.038	0.012	-0.228	1.352	0.923	0.889	0.531	0.372	0.029	-0.526	-0.601	-0.017	0.127	-0.630	0.414	0.531	0.650	0.368	1.089	0.298	0.647	-0.051	-0.194	0.012	-152.344
-1.333	0.387	-0.445	-0.307	-0.218	0.099	-0.137	1.533	1.094	1.072	0.750	0.551	-0.124	-0.754	-0.784	-0.114	-0.163	-0.761	0.225	0.299	0.420	0.190	1.007	0.241	0.633	-0.050	-0.161	0.211	-148.438
-1.358	0.411	-0.275	-0.296	-0.430	0.125	-0.065	1.625	1.197	1.235	0.970	0.753	-0.255	-0.943	-0.924	-0.214	-0.430	-0.831	0.003	0.057	0.154	0.038	0.913	0.242	0.606	-0.029	-0.082	0.456	-144.531
-1.344	0.407	-0.129	-0.259	-0.628	0.112	0.006	1.627	1.222	1.365	1.157	0.938	-0.350	-1.074	-0.998	-0.286	-0.634	-0.833	-0.217	-0.158	-0.100	-0.082	0.792	0.269	0.540	-0.031	0.004	0.690	-140.625
-1.293	0.398	-0.023	-0.185	-0.767	0.089	0.092	1.550	1.164	1.444	1.279	1.067	-0.400	-1.126	-0.992	-0.305	-0.738	-0.771	-0.395	-0.310	-0.297	-0.166	0.641	0.289	0.412	-0.094	0.055	0.856	-136.719
-1.208	0.405	0.034	-0.069	-0.806	0.083	0.206	1.405	1.019	1.458	1.310	1.104	-0.403	-1.087	-0.899	-0.254	-0.718	-0.655	-0.495	-0.377	-0.401	-0.214	0.465	0.267	0.207	-0.242	0.037	0.903	-132.812
-1.086	0.445	0.044	0.088	-0.721	0.116	0.352	1.205	0.786	1.393	1.231	1.029	-0.360	-0.953	-0.721	-0.129	-0.571	-0.502	-0.489	-0.353	-0.397	-0.228	0.278	0.184	-0.078	-0.478	-0.069	0.802	-128.906
-0.927	0.522	0.019	0.275	-0.510	0.200	0.526	0.961	0.470	1.245	1.038	0.833	-0.281	-0.731	-0.474	0.062	-0.312	-0.330	-0.368	-0.247	-0.287	-0.210	0.103	0.034	-0.429	-0.786	-0.262	0.549	-125.000
-0.729	0.627	-0.021	0.478	-0.189	0.334	0.717	0.681	0.078	1.021	0.736	0.527	-0.178	-0.440	-0.180	0.295	0.020	-0.154	-0.145	-0.082	-0.090	-0.163	-0.039	-0.167	-0.815	-1.131	-0.524	0.166	-121.094
-0.497	0.745	-0.053	0.678	0.205	0.504	0.909	0.373	-0.370	0.734	0.344	0.140	-0.062	-0.109	0.132	0.540	0.378	0.014	0.148	0.111	0.156	-0.090	-0.127	-0.390	-1.193	-1.467	-0.817	-0.299	-117.188
-0.239	0.853	-0.061	0.856	0.621	0.688	1.083	0.047	-0.848	0.410	-0.106	-0.287	0.053	0.229	0.433	0.764	0.709	0.167	0.465	0.299	0.412	0.005	-0.151	-0.596	-1.515	-1.748	-1.097	-0.785	-113.281
0.028	0.932	-0.036	0.992	1.004	0.860	1.217	-0.287	-1.318	0.080	-0.573	-0.705	0.159	0.536	0.694	0.933	0.969	0.304	0.755	0.456	0.636	0.117	-0.110	-0.748	-1.737	-1.931	-1.318	-1.225	-109.375
0.283	0.963	0.024	1.072	1.301	0.991	1.297	-0.615	-1.740	-0.228	-1.010	-1.068	0.246	0.783	0.892	1.025	1.128	0.423	0.973	0.562	0.796	0.238	-0.014	-0.821	-1.826	-1.990	-1.442	-1.563	-105.469
0.500	0.938	0.112	1.088	1.473	1.061	1.310	-0.920	-2.073	-0.488	-1.373	-1.336	0.310	0.945	1.013	1.030	1.173	0.527	1.085	0.611	0.874	0.359	0.119	-0.802	-1.770	-1.919	-1.446	-1.757	-101.562
0.658	0.859	0.219	1.039	1.499	1.059	1.253	-1.185	-2.284	-0.688	-1.628	-1.484	0.344	1.012	1.053	0.954	1.111	0.616	1.079	0.607	0.868	0.468	0.262	-0.701	-1.583	-1.735	-1.330	-1.792	-97.656
0.747	0.738	0.336	0.936	1.382	0.986	1.128	-1.389	-2.353	-0.826	-1.750	-1.507	0.345	0.983	1.017	0.815	0.961	0.689	0.960	0.562	0.793	0.550	0.387	-0.543	-1.299	-1.474	-1.115	-1.677	-93.750
0.769	0.596	0.451	0.798	1.148	0.857	0.949	-1.516	-2.275	-0.908	-1.734	-1.419	0.307	0.868	0.920	0.642	0.756	0.738	0.750	0.493	0.670	0.588	0.465	-0.366	-0.971	-1.187	-0.840	-1.447	-89.844
0.741	0.455	0.552	0.652	0.841	0.698	0.733	-1.553	-2.058	-0.948	-1.592	-1.247	0.229	0.687	0.782	0.462	0.530	0.755	0.477	0.411	0.528	0.565	0.472	-0.214	-0.657	-0.927	-0.558	-1.149	-85.938
0.691	0.339	0.628	0.526	0.517	0.545	0.506	-1.490	-1.721	-0.956	-1.347	-1.028	0.113	0.464	0.628	0.300	0.317	0.731	0.174	0.324	0.387	0.466	0.392	-0.127	-0.412	-0.738	-0.319	-0.838	-82.031
0.648	0.264	0.666	0.447	0.229	0.432	0.295	-1.326	-1.291	-0.938	-1.031	-0.797	-0.034	0.224	0.478	0.167	0.142	0.657	-0.133	0.229	0.258	0.282	0.219	-0.133	-0.270	-0.646	-0.167	-0.561	-78.125
0.637	0.234	0.664	0.426	0.021	0.388	0.128	-1.064	-0.791	-0.891	-0.676	-0.584	-0.200	-0.009	0.349	0.059	0.015	0.533	-0.427	0.117	0.140	0.014	-0.040	-0.241	-0.245	-0.657	-0.124	-0.356	-74.219
0.670	0.240	0.625	0.463	-0.082	0.426	0.030	-0.717	-0.245	-0.802	-0.307	-0.405	-0.366	-0.217	0.244	-0.037	-0.068	0.363	-0.699	-0.026	0.025	-0.324	-0.366	-0.440	-0.323	-0.748	-0.185	-0.239	-70.312
0.748	0.256	0.561	0.537	-0.081	0.542	0.018	-0.302	0.328	-0.657	0.055	-0.264	-0.512	-0.387	0.159	-0.141	-0.130	0.159	-0.946	-0.210	-0.098	-0.706	-0.734	-0.700	-0.470	-0.882	-0.324	-0.206	-66.406
0.854	0.252	0.489	0.615	0.005	0.710	0.095	0.157	0.907	-0.445	0.398	-0.150	-0.619	-0.509	0.082	-0.272	-0.202	-0.062	-1.166	-0.435	-0.237	-1.093	-1.109	-0.973	-0.639	-1.006	-0.494	-0.232	-62.500
0.963	0.194	0.425	0.655	0.137	0.893	0.254	0.627	1.469	-0.165	0.712	-0.049	-0.673	-0.580	-0.004	-0.439	-0.316	-0.282	-1.354	-0.692	-0.389	-1.441	-1.454	-1.209	-0.781	-1.069	-0.640	-0.283	-58.594
1.045	0.060	0.384	0.624	0.271	1.048	0.472	1.071	1.984	0.165	0.985	0.056	-0.668	-0.601	-0.111	-0.636	-0.496	-0.484	-1.498	-0.958	-0.543	-1.705	-1.736	-1.364	-0.852	-1.026	-0.713	-0.319	-54.688
1.069	-0.152	0.369	0.499	0.368	1.136	0.714	1.448	2.417	0.511	1.202	0.172	-0.612	-0.575	-0.246	-0.843	-0.743	-0.654	-1.580	-1.203	-0.683	-1.851	-1.930	-1.404	-0.826	-0.850	-0.677	-0.305	-50.781
1.011	-0.424	0.375	0.281	0.399	1.134	0.938	1.719	2.731	0.827	1.345	0.301	-0.520	-0.511	-0.405	-1.027	-1.035	-0.782	-1.582	-1.393	-0.792	-1.860	-2.022	-1.320	-0.694	-0.535	-0.520	-0.221	-46.875
0.856	-0.715	0.391	-0.008	0.358	1.033	1.106	1.848	2.890	1.065	1.394	0.434	-0.410	-0.421	-0.574	-1.152	-1.327	-0.864	-1.488	-1.498	-0.858	-1.735	-2.016	-1.123	-0.467	-0.097	-0.248	-0.064	-42.969
0.608	-0.975	0.400	-0.327	0.255	0.846	1.185	1.813	2.871	1.185	1.339	0.555	-0.303	-0.319	-0.731	-1.186	-1.567	-0.902	-1.295	-1.500	-0.876	-1.498	-1.927	-0.845	-0.172	0.426	0.107	0.154	-39.062
0.283	-1.157	0.384	-0.628	0.116	0.601	1.160	1.603	2.666	1.167	1.175	0.650	-0.212	-0.217	-0.853	-1.112	-1.703	-0.904	-1.016	-1.394	-0.844	-1.188	-1.782	-0.530	0.152	0.980	0.504	0.404	-35.156
-0.087	-1.226	0.330	-0.867	-0.020	0.333	1.036	1.228	2.289	1.011	0.916	0.705	-0.141	-0.125	-0.923	-0.932	-1.706	-0.879	-0.676	-1.190	-0.768	-0.854	-1.608	-0.224	0.461	1.506	0.898	0.651	-31.250
-0.460	-1.173	0.234	-1.011	-0.119	0.077	0.832	0.713	1.771	0.743	0.585	0.712	-0.083	-0.046	-0.929	-0.665	-1.576	-0.840	-0.318	-0.912	-0.657	-0.540	-1.435	0.033	0.717	1.943	1.246	0.861	-27.344
-0.794	-1.012	0.101	-1.049	-0.149	-0.137	0.584	0.101	1.158	0.406	0.216	0.673	-0.023	0.028	-0.873	-0.349	-1.342	-0.796	0.016	-0.590	-0.516	-0.286	-1.282	0.212	0.888	2.246	1.520	1.004	-23.438
-1.047	-0.778	-0.052	-0.983	-0.098	-0.293	0.333	-0.557	0.507	0.053	-0.154	0.595	0.058	0.107	-0.762	-0.025	-1.055	-0.750	0.285	-0.254	-0.354	-0.112	-1.165	0.305	0.956	2.384	1.703	1.063	-19.531
-1.193	-0.514	-0.199	-0.836	0.032	-0.385	0.117	-1.203	-0.125	-0.264	-0.488	0.491	0.175	0.204	-0.614	0.271	-0.775	-0.703	0.463	0.068	-0.177	-0.024	-1.089	0.316	0.915	2.351	1.797	1.034	-15.625
-1.221	-0.263	-0.313	-0.636	0.221	-0.420	-0.038	-1.780	-0.687	-0.503	-0.760	0.376	0.338	0.329	-0.444	0.515	-0.553	-0.646	0.540	0.356	0.007	-0.011	-1.055	0.266	0.772	2.160	1.813	0.925	-11.719
-1.138	-0.055	-0.371	-0.414	0.436	-0.408	-0.117	-2.243	-1.137	-0.639	-0.950	0.264	0.545	0.482	-0.269	0.699	-0.420	-0.571	0.527	0.599	0.187	-0.051	-1.056	0.182	0.547	1.845	1.768	0.754	-7.812
-0.969	0.098	-0.357	-0.199	0.636	-0.367	-0.125	-2.561	-1.451	-0.667	-1.055	0.163	0.780	0.654	-0.100	0.831	-0.379	-0.467	0.447	0.794	0.352	-0.120	-1.086	0.090	0.268	1.451	1.681	0.541	-3.906
-0.749	0.201	-0.271	-0.009	0.785	-0.310	-0.080	-2.720	-1.620	-0.607	-1.078	0.077	1.018	0.823	0.055	0.926	-0.407	-0.330	0.333	0.943	0.491	-0.191	-1.135	0.011	-0.033	1.028	1.568	0.309	0.000
-0.516	0.273	-0.123	0.146	0.858	-0.250	-0.009	-2.726	-1.652	-0.490	-1.037	0.004	1.227	0.965	0.195	1.003	-0.457	-0.163	0.224	1.052	0.592	-0.245	-1.190	-0.041	-0.321	0.617	1.439	0.075	3.906
-0.303	0.340	0.067	0.272	0.846	-0.192	0.061	-2.603	-1.570	-0.359	-0.956	-0.063	1.377	1.055	0.320	1.075	-0.479	0.023	0.152	1.130	0.650	-0.268	-1.241	-0.066	-0.569	0.252	1.299	-0.149	7.812
-0.135	0.430	0.268	0.382	0.762	-0.136	0.106	-2.382	-1.404	-0.252	-0.861	-0.132	1.443	1.073	0.431	1.148	-0.430	0.208	0.144	1.184	0.663	-0.253	-1.279	-0.071	-0.759	-0.046	1.151	-0.355	11.719
-0.023	0.559	0.451	0.493	0.633	-0.082	0.115	-2.099	-1.185	-0.200	-0.775	-0.210	1.413	1.012	0.529	1.219	-0.287	0.369	0.209	1.217	0.636	-0.200	-1.296	-0.068	-0.884	-0.268	0.993	-0.537	15.625
0.031	0.728	0.589	0.621	0.494	-0.027	0.088	-1.783	-0.940	-0.213	-0.712	-0.297	1.286	0.878	0.609	1.276	-0.058	0.488	0.337	1.228	0.574	-0.119	-1.290	-0.074	-0.946	-0.411	0.827	-0.689	19.531
0.041	0.920	0.664	0.773	0.379	0.026	0.040	-1.457	-0.684	-0.280	-0.672	-0.384	1.073	0.683	0.665	1.299	0.222	0.552	0.501	1.210	0.482	-0.026	-1.262	-0.098	-0.954	-0.476	0.658	-0.801	23.438
0.024	1.103	0.673	0.940	0.311	0.075	-0.009	-1.133	-0.424	-0.374	-0.641	-0.456	0.791	0.446	0.689	1.267	0.497	0.559	0.662	1.149	0.360	0.059	-1.215	-0.149	-0.919	-0.464	0.492	-0.859	27.344
-0.001	1.236	0.629	1.102	0.298	0.115	-0.035	-0.814	-0.155	-0.454	-0.593	-0.490	0.462	0.186	0.670	1.161	0.708	0.519	0.777	1.027	0.205	0.112	-1.157	-0.224	-0.848	-0.372	0.345	-0.845	31.250
-0.018	1.283	0.553	1.228	0.327	0.143	-0.022	-0.502	0.126	-0.475	-0.497	-0.460	0.109	-0.084	0.602	0.971	0.805	0.445	0.809	0.829	0.010	0.113	-1.095	-0.314	-0.743	-0.196	0.235	-0.739	35.156
-0.022	1.222	0.474	1.286	0.376	0.153	0.042	-0.200	0.423	-0.401	-0.329	-0.345	-0.245	-0.355	0.483	0.698	0.761	0.357	0.738	0.545	-0.233	0.048	-1.034	-0.404	-0.599	0.072	0.185	-0.527	39.062
-0.020	1.047	0.414	1.254	0.413	0.144	0.155	0.087	0.730	-0.214	-0.078	-0.133	-0.582	-0.623	0.317	0.355	0.576	0.270	0.562	0.178	-0.524	-0.085	-0.982	-0.473	-0.412	0.437	0.221	-0.201	42.969
-0.028	0.776	0.385	1.122	0.413	0.118	0.303	0.346	1.034	0.084	0.248	0.174	-0.883	-0.883	0.113	-0.030	0.277	0.193	0.299	-0.256	-0.854	-0.277	-0.943	-0.502	-0.173	0.904	0.368	0.232	46.875
-0.067	0.443	0.385	0.906	0.363	0.078	0.469	0.568	1.311	0.466	0.613	0.555	-1.133	-1.129	-0.114	-0.421	-0.090	0.126	-0.019	-0.724	-1.204	-0.508	-0.919	-0.471	0.120	1.468	0.640	0.748	50.781
-0.157	0.094	0.397	0.640	0.263	0.030	0.629	0.742	1.538	0.887	0.965	0.975	-1.320	-1.351	-0.346	-0.777	-0.470	0.061	-0.353	-1.186	-1.545	-0.750	-0.911	-0.370	0.464	2.119	1.041	1.307	54.688
-0.313	-0.226	0.400	0.369	0.130	-0.016	0.767	0.868	1.696	1.296	1.244	1.386	-1.437	-1.533	-0.569	-1.062	-0.813	-0.019	-0.671	-1.597	-1.845	-0.976	-0.920	-0.196	0.850	2.837	1.561	1.860	58.594
-0.542	-0.478	0.367	0.142	-0.008	-0.051	0.873	0.951	1.785	1.650	1.396	1.741	-1.482	-1.659	-0.771	-1.250	-1.085	-0.133	-0.949	-1.920	-2.076	-1.163	-0.948	0.044	1.268	3.598	2.172	2.355	62.500
-0.845	-0.637	0.280	-0.001	-0.122	-0.067	0.951	1.010	1.821	1.923	1.388	2.005	-1.456	-1.714	-0.952	-1.332	-1.274	-0.299	-1.179	-2.132	-2.220	-1.302	-0.998	0.333	1.702	4.375	2.838	2.751	66.406
-1.216	-0.703	0.127	-0.045	-0.188	-0.063	1.019	1.072	1.843	2.122	1.223	2.164	-1.367	-1.695	-1.117	-1.323	-1.394	-0.529	-1.370	-2.233	-2.276	-1.398	-1.077	0.648	2.142	5.149	3.515	3.027	70.312
-1.648	-0.695	-0.092	0.005	-0.194	-0.047	1.106	1.168	1.907	2.280	0.938	2.232	-1.225	-1.605	-1.283	-1.255	-1.480	-0.822	-1.540	-2.244	-2.260	-1.471	-1.194	0.961	2.576	5.907	4.166	3.189	74.219
-2.133	-0.650	-0.371	0.117	-0.142	-0.030	1.247	1.331	2.073	2.449	0.603	2.247	-1.044	-1.464	-1.470	-1.174	-1.577	-1.168	-1.715	-2.207	-2.201	-1.550	-1.362	1.246	2.997	6.649	4.756	3.270	78.125
-2.663	-0.613	-0.698	0.244	-0.050	-0.027	1.471	1.588	2.398	2.689	0.309	2.264	-0.837	-1.298	-1.696	-1.133	-1.730	-1.548	-1.922	-2.171	-2.137	-1.668	-1.588	1.478	3.401	7.383	5.267	3.320	82.031
-3.227	-0.633	-1.062	0.334	0.057	-0.052	1.796	1.961	2.919	3.048	0.143	2.343	-0.620	-1.140	-1.978	-1.176	-1.970	-1.941	-2.182	-2.183	-2.106	-1.854	-1.875	1.642	3.787	8.122	5.688	3.399	85.938
-3.817	-0.748	-1.454	0.339	0.149	-0.114	2.219	2.456	3.647	3.548	0.182	2.534	-0.409	-1.025	-2.322	-1.334	-2.307	-2.324	-2.507	-2.282	-2.139	-2.126	-2.216	1.729	4.159	8.880	6.023	3.560	89.844
-4.419	-0.985	-1.863	0.227	0.197	-0.218	2.720	3.070	4.566	4.184	0.468	2.867	-0.221	-0.979	-2.727	-1.620	-2.737	-2.682	-2.903	-2.486	-2.255	-2.487	-2.598	1.742	4.523	9.663	6.282	3.842	93.750
-5.013	-1.353	-2.280	-0.015	0.179	-0.362	3.259	3.783	5.633	4.920	1.009	3.349	-0.071	-1.020	-3.184	-2.025	-3.239	-3.007	-3.365	-2.795	-2.458	-2.925	-2.999	1.694	4.887	10.466	6.484	4.259	97.656
-5.572	-1.845	-2.687	-0.382	0.084	-0.541	3.789	4.565	6.784	5.700	1.778	3.959	0.028	-1.155	-3.676	-2.527	-3.788	-3.297	-3.880	-3.188	-2.740	-3.415	-3.396	1.606	5.253	11.268	6.645	4.797	101.562
-6.062	-2.437	-3.065	-0.847	-0.087	-0.741	4.262	5.378	7.948	6.461	2.717	4.655	0.069	-1.374	-4.178	-3.088	-4.360	-3.551	-4.428	-3.634	-3.082	-3.922	-3.766	1.501	5.614	12.027	6.782	5.422	105.469
-6.441	-3.089	-3.387	-1.367	-0.322	-0.946	4.640	6.177	9.052	7.145	3.753	5.383	0.051	-1.659	-4.660	-3.669	-4.926	-3.772	-4.982	-4.095	-3.460	-4.408	-4.090	1.403	5.950	12.681	6.903	6.077	109.375
-6.674	-3.750	-3.630	-1.892	-0.594	-1.137	4.899	6.916	10.031	7.708	4.810	6.086	-0.019	-1.983	-5.090	-4.227	-5.457	-3.958	-5.506	-4.531	-3.847	-4.837	-4.353	1.330	6.225	13.156	7.009	6.698	113.281
-6.736	-4.365	-3.775	-2.369	-0.873	-1.291	5.031	7.548	10.834	8.126	5.817	6.710	-0.128	-2.314	-5.430	-4.722	-5.917	-4.103	-5.962	-4.911	-4.216	-5.174	-4.545	1.290	6.392	13.375	7.092	7.222	117.188
-6.621	-4.876	-3.812	-2.745	-1.124	-1.387	5.046	8.033	11.423	8.395	6.715	7.219	-0.258	-2.622	-5.649	-5.121	-6.268	-4.196	-6.309	-5.209	-4.549	-5.397	-4.659	1.283	6.398	13.275	7.136	7.598	121.094
-6.346	-5.234	-3.745	-2.983	-1.315	-1.411	4.961	8.336	11.782	8.528	7.466	7.591	-0.387	-2.884	-5.724	-5.393	-6.470	-4.225	-6.512	-5.411	-4.827	-5.491	-4.692	1.301	6.195	12.817	7.128	7.795	125.000
-5.950	-5.402	-3.595	-3.060	-1.427	-1.360	4.800	8.435	11.909	8.549	8.050	7.826	-0.497	-3.082	-5.644	-5.520	-6.496	-4.179	-6.550	-5.513	-5.041	-5.456	-4.645	1.329	5.755	12.004	7.060	7.809	128.906
-5.485	-5.366	-3.393	-2.977	-1.452	-1.244	4.589	8.322	11.820	8.489	8.470	7.941	-0.573	-3.211	-5.415	-5.498	-6.336	-4.058	-6.420	-5.520	-5.185	-5.307	-4.529	1.350	5.079	10.886	6.932	7.665	132.812
-5.010	-5.137	-3.183	-2.755	-1.399	-1.088	4.349	8.011	11.549	8.385	8.747	7.975	-0.606	-3.277	-5.065	-5.338	-6.007	-3.874	-6.137	-5.448	-5.260	-5.068	-4.360	1.350	4.204	9.555	6.761	7.414	136.719
-4.580	-4.752	-3.009	-2.439	-1.292	-0.925	4.100	7.537	11.149	8.272	8.921	7.977	-0.594	-3.292	-4.638	-5.071	-5.551	-3.656	-5.740	-5.322	-5.273	-4.775	-4.161	1.320	3.203	8.137	6.572	7.127	140.625
-4.240	-4.269	-2.909	-2.088	-1.164	-0.794	3.862	6.952	10.681	8.192	9.040	8.000	-0.543	-3.277	-4.190	-4.746	-5.029	-3.444	-5.281	-5.173	-5.236	-4.470	-3.963	1.257	2.172	6.776	6.399	6.881	144.531
-4.021	-3.765	-2.907	-1.765	-1.050	-0.728	3.653	6.324	10.215	8.181	9.157	8.096	-0.460	-3.256	-3.782	-4.423	-4.511	-3.285	-4.823	-5.037	-5.169	-4.195	-3.796	1.168	1.215	5.611	6.278	6.753	148.438
-3.934	-3.325	-3.009	-1.532	-0.981	-0.747	3.495	5.723	9.819	8.276	9.321	8.306	-0.359	-3.251	-3.467	-4.167	-4.062	-3.218	-4.429	-4.949	-5.093	-3.986	-3.689	1.064	0.431	4.758	6.241	6.800	152.344
-3.976	-3.029	-3.198	-1.436	-0.975	-0.855	3.409	5.214	9.550	8.502	9.567	8.654	-0.249	-3.281	-3.287	-4.036	-3.736	-3.273	-4.157	-4.939	-5.033	-3.875	-3.664	0.960	-0.108	4.297	6.314	7.059	156.250
-4.133	-2.941	-3.446	-1.505	-1.038	-1.041	3.417	4.846	9.447	8.872	9.916	9.144	-0.141	-3.357	-3.263	-4.074	-3.568	-3.457	-4.051	-5.030	-5.009	-3.879	-3.737	0.869	-0.364	4.258	6.509	7.538	160.156
-4.380	-3.095	-3.720	-1.740	-1.161	-1.278	3.538	4.647	9.531	9.384	10.373	9.765	-0.037	-3.480	-3.398	-4.305	-3.578	-3.759	-4.136	-5.231	-5.037	-4.004	-3.912	0.803	-0.341	4.627	6.829	8.219	164.062
-4.692	-3.488	-3.991	-2.121	-1.325	-1.538	3.780	4.624	9.798	10.022	10.924	10.491	0.062	-3.640	-3.678	-4.727	-3.765	-4.153	-4.414	-5.539	-5.123	-4.243	-4.186	0.769	-0.077	5.349	7.261	9.063	167.969
-5.045	-4.085	-4.244	-2.605	-1.507	-1.791	4.139	4.766	10.231	10.755	11.547	11.285	0.158	-3.822	-4.075	-5.318	-4.121	-4.601	-4.868	-5.940	-5.269	-4.579	-4.544	0.768	0.362	6.344	7.781	10.017	171.875
-5.416	-4.816	-4.480	-3.139	-1.681	-2.011	4.601	5.049	10.797	11.549	12.212	12.106	0.253	-4.010	-4.551	-6.033	-4.622	-5.064	-5.464	-6.412	-5.470	-4.988	-4.965	0.795	0.896	7.516	8.355	11.018	175.781
-5.786	-5.597	-4.709	-3.665	-1.824	-2.180	5.139	5.445	11.456	12.367	12.888	12.915	0.349	-4.190	-5.069	-6.820	-5.242	-5.508	-6.153	-6.927	-5.723	-5.444	-5.424	0.839	1.445	8.770	8.943	12.004	179.688
-6.135	-6.343	-4.945	-4.129	-1.921	-2.287	5.720	5.927	12.166	13.178	13.543	13.673	0.445	-4.351	-5.590	-7.620	-5.942	-5.908	-6.884	-7.458	-6.023	-5.920	-5.895	0.885	1.943	10.022	9.505	12.918	183.594
-6.446	-6.980	-5.200	-4.490	-1.963	-2.329	6.310	6.468	12.887	13.955	14.152	14.352	0.537	-4.493	-6.082	-8.381	-6.683	-6.251	-7.608	-7.980	-6.370	-6.395	-6.351	0.919	2.345	11.202	10.002	13.714	187.500
-6.705	-7.460	-5.474	-4.725	-1.953	-2.309	6.875	7.047	13.585	14.679	14.697	14.930	0.618	-4.616	-6.522	-9.059	-7.419	-6.534	-8.281	-8.472	-6.760	-6.851	-6.770	0.925	2.632	12.259	10.408	14.364	191.406
-6.904	-7.765	-5.758	-4.832	-1.902	-2.239	7.390	7.645	14.231	15.334	15.162	15.393	0.680	-4.723	-6.892	-9.625	-8.103	-6.762	-8.875	-8.921	-7.188	-7.272	-7.133	0.895	2.810	13.163	10.705	14.852	195.312
-7.043	-7.907	-6.035	-4.827	-1.827	-2.133	7.833	8.244	14.807	15.905	15.540	15.736	0.715	-4.817	-7.187	-10.061	-8.694	-6.944	-9.371	-9.318	-7.646	-7.643	-7.426	0.828	2.904	13.898	10.890	15.183	199.219
-7.131	-7.918	-6.287	-4.739	-1.753	-2.012	8.193	8.827	15.303	16.381	15.825	15.964	0.715	-4.899	-7.408	-10.367	-9.155	-7.093	-9.758	-9.662	-8.117	-7.951	-7.641	0.730	2.953	14.468	10.973	15.369	203.125
-7.186	-7.840	-6.501	-4.606	-1.703	-1.898	8.466	9.379	15.716	16.750	16.018	16.085	0.675	-4.970	-7.564	-10.553	-9.464	-7.222	-10.037	-9.957	-8.585	-8.186	-7.775	0.617	3.002	14.890	10.978	15.437	207.031
-7.234	-7.721	-6.676	-4.465	-1.699	-1.812	8.651	9.882	16.052	17.006	16.123	16.116	0.594	-5.030	-7.670	-10.641	-9.615	-7.340	-10.214	-10.212	-9.029	-8.335	-7.830	0.511	3.090	15.198	10.938	15.417	210.938
-7.300	-7.603	-6.821	-4.353	-1.756	-1.770	8.757	10.326	16.322	17.146	16.146	16.078	0.474	-5.082	-7.744	-10.661	-9.621	-7.454	-10.297	-10.442	-9.431	-8.396	-7.809	0.436	3.252	15.441	10.891	15.346	214.844
-7.406	-7.519	-6.955	-4.296	-1.880	-1.781	8.794	10.699	16.540	17.179	16.100	15.996	0.323	-5.133	-7.805	-10.647	-9.513	-7.569	-10.302	-10.661	-9.779	-8.367	-7.722	0.414	3.510	15.676	10.875	15.257	218.750
-7.562	-7.492	-7.101	-4.312	-2.065	-1.846	8.777	10.999	16.724	17.120	16.002	15.893	0.148	-5.193	-7.870	-10.636	-9.337	-7.685	-10.246	-10.882	-10.066	-8.258	-7.577	0.464	3.873	15.964	10.922	15.182	222.656
-7.765	-7.533	-7.273	-4.408	-2.298	-1.954	8.723	11.226	16.889	16.989	15.868	15.790	-0.040	-5.274	-7.955	-10.658	-9.150	-7.801	-10.148	-11.116	-10.295	-8.088	-7.389	0.593	4.338	16.352	11.055	15.143	226.562
-7.999	-7.643	-7.477	-4.579	-2.556	-2.085	8.654	11.389	17.051	16.814	15.716	15.699	-0.229	-5.383	-8.069	-10.734	-9.012	-7.914	-10.031	-11.367	-10.476	-7.881	-7.175	0.801	4.890	16.865	11.276	15.149	230.469
-8.237	-7.812	-7.705	-4.812	-2.814	-2.218	8.589	11.501	17.217	16.620	15.561	15.627	-0.411	-5.525	-8.217	-10.871	-8.970	-8.021	-9.918	-11.631	-10.622	-7.669	-6.953	1.073	5.503	17.496	11.574	15.197	234.375
-8.448	-8.022	-7.936	-5.086	-3.048	-2.329	8.547	11.577	17.391	16.428	15.413	15.570	-0.573	-5.692	-8.393	-11.061	-9.058	-8.122	-9.828	-11.896	-10.748	-7.479	-6.742	1.392	6.144	18.208	11.922	15.270	238.281
-8.608	-8.251	-8.147	-5.377	-3.234	-2.401	8.545	11.632	17.569	16.255	15.280	15.521	-0.703	-5.868	-8.590	-11.279	-9.282	-8.218	-9.775	-12.144	-10.862	-7.334	-6.559	1.734	6.776	18.940	12.285	15.345	242.188
-8.710	-8.475	-8.315	-5.660	-3.357	-2.425	8.591	11.678	17.741	16.112	15.162	15.469	-0.790	-6.025	-8.794	-11.495	-9.619	-8.315	-9.767	-12.357	-10.965	-7.249	-6.414	2.074	7.360	19.622	12.627	15.394	246.094
-8.762	-8.669	-8.430	-5.915	-3.408	-2.399	8.689	11.722	17.891	16.002	15.057	15.406	-0.817	-6.130	-8.991	-11.675	-10.025	-8.417	-9.802	-12.513	-11.048	-7.222	-6.307	2.396	7.859	20.184	12.919	15.394	250.000
-8.794	-8.819	-8.492	-6.123	-3.382	-2.332	8.835	11.765	18.004	15.926	14.961	15.329	-0.768	-6.147	-9.167	-11.795	-10.437	-8.528	-9.871	-12.601	-11.091	-7.242	-6.232	2.688	8.242	20.577	13.141	15.332	253.906
-8.843	-8.915	-8.519	-6.276	-3.282	-2.234	9.020	11.806	18.067	15.883	14.868	15.240	-0.630	-6.048	-9.308	-11.839	-10.787	-8.650	-9.957	-12.616	-11.076	-7.290	-6.175	2.949	8.488	20.774	13.288	15.204	257.812
-8.945	-8.960	-8.534	-6.370	-3.117	-2.117	9.229	11.838	18.072	15.870	14.772	15.146	-0.393	-5.821	-9.408	-11.810	-11.016	-8.784	-10.045	-12.566	-10.988	-7.340	-6.119	3.184	8.595	20.774	13.368	15.020	261.719
-9.121	-8.963	-8.565	-6.407	-2.900	-1.991	9.449	11.858	18.016	15.887	14.673	15.056	-0.059	-5.473	-9.463	-11.719	-11.082	-8.929	-10.119	-12.466	-10.822	-7.371	-6.047	3.399	8.573	20.602	13.395	14.795	265.625
-9.370	-8.943	-8.629	-6.396	-2.650	-1.864	9.663	11.861	17.904	15.933	14.569	14.978	0.359	-5.028	-9.471	-11.589	-10.971	-9.085	-10.173	-12.337	-10.587	-7.367	-5.951	3.603	8.448	20.297	13.391	14.549	269.531
-9.668	-8.920	-8.731	-6.348	-2.386	-1.743	9.862	11.848	17.749	16.009	14.464	14.919	0.836	-4.529	-9.435	-11.442	-10.697	-9.248	-10.203	-12.200	-10.306	-7.325	-5.827	3.799	8.251	19.904	13.373	14.303	273.438
-9.970	-8.916	-8.861	-6.277	-2.131	-1.632	10.037	11.821	17.567	16.114	14.361	14.880	1.341	-4.026	-9.360	-11.297	-10.297	-9.418	-10.210	-12.068	-10.009	-7.248	-5.683	3.983	8.016	19.467	13.356	14.070	277.344
-10.226	-8.944	-8.998	-6.194	-1.902	-1.538	10.185	11.784	17.376	16.242	14.267	14.856	1.837	-3.564	-9.254	-11.165	-9.827	-9.590	-10.195	-11.949	-9.730	-7.149	-5.530	4.148	7.770	19.022	13.347	13.858	281.250
-10.392	-9.011	-9.119	-6.113	-1.716	-1.465	10.304	11.739	17.191	16.387	14.183	14.839	2.293	-3.180	-9.126	-11.049	-9.351	-9.760	-10.155	-11.842	-9.497	-7.039	-5.385	4.285	7.532	18.597	13.344	13.664	285.156
-10.442	-9.112	-9.206	-6.040	-1.579	-1.418	10.395	11.685	17.025	16.538	14.113	14.820	2.684	-2.890	-8.987	-10.944	-8.932	-9.918	-10.084	-11.737	-9.328	-6.926	-5.261	4.385	7.308	18.208	13.344	13.483	289.062
-10.375	-9.233	-9.249	-5.978	-1.494	-1.401	10.458	11.617	16.882	16.678	14.054	14.791	2.994	-2.694	-8.848	-10.843	-8.622	-10.055	-9.974	-11.621	-9.228	-6.811	-5.164	4.448	7.092	17.863	13.337	13.305	292.969
-10.210	-9.355	-9.254	-5.923	-1.456	-1.413	10.492	11.527	16.760	16.790	14.002	14.742	3.220	-2.575	-8.720	-10.733	-8.455	-10.154	-9.819	-11.482	-9.185	-6.686	-5.095	4.479	6.875	17.567	13.316	13.122	296.875
-9.985	-9.457	-9.236	-5.870	-1.454	-1.448	10.494	11.407	16.648	16.857	13.951	14.670	3.367	-2.507	-8.607	-10.605	-8.440	-10.202	-9.616	-11.309	-9.179	-6.540	-5.049	4.489	6.644	17.316	13.273	12.926	300.781
-9.738	-9.521	-9.216	-5.808	-1.474	-1.498	10.464	11.252	16.535	16.863	13.895	14.571	3.447	-2.463	-8.510	-10.454	-8.559	-10.188	-9.373	-11.097	-9.186	-6.360	-5.014	4.492	6.392	17.107	13.204	12.714	304.688
-9.506	-9.539	-9.213	-5.730	-1.500	-1.553	10.402	11.063	16.409	16.798	13.825	14.444	3.478	-2.421	-8.425	-10.281	-8.772	-10.107	-9.105	-10.851	-9.181	-6.139	-4.978	4.502	6.120	16.931	13.105	12.484	308.594
-9.313	-9.511	-9.243	-5.633	-1.519	-1.606	10.311	10.850	16.260	16.658	13.737	14.288	3.476	-2.370	-8.345	-10.090	-9.021	-9.966	-8.831	-10.581	-9.144	-5.877	-4.927	4.530	5.838	16.778	12.976	12.236	312.500
-9.172	-9.444	-9.307	-5.518	-1.520	-1.654	10.196	10.627	16.082	16.446	13.623	14.104	3.458	-2.306	-8.263	-9.890	-9.245	-9.785	-8.570	-10.300	-9.064	-5.581	-4.852	4.579	5.563	16.639	12.818	11.974	316.406
-9.085	-9.348	-9.396	-5.390	-1.497	-1.695	10.065	10.411	15.877	16.170	13.482	13.895	3.437	-2.233	-8.172	-9.690	-9.386	-9.588	-8.333	-10.026	-8.933	-5.265	-4.745	4.650	5.315	16.499	12.637	11.699	320.312
-9.050	-9.231	-9.497	-5.257	-1.446	-1.731	9.926	10.216	15.645	15.846	13.312	13.665	3.422	-2.154	-8.071	-9.492	-9.403	-9.406	-8.118	-9.769	-8.749	-4.944	-4.604	4.741	5.110	16.346	12.440	11.418	324.219
-9.066	-9.098	-9.594	-5.125	-1.368	-1.766	9.788	10.049	15.393	15.496	13.118	13.425	3.421	-2.072	-7.962	-9.295	-9.276	-9.265	-7.914	-9.536	-8.512	-4.631	-4.430	4.847	4.956	16.171	12.234	11.135	328.125
-9.132	-8.952	-9.678	-4.998	-1.269	-1.800	9.657	9.911	15.127	15.144	12.907	13.188	3.437	-1.984	-7.848	-9.094	-9.013	-9.184	-7.698	-9.325	-8.222	-4.334	-4.227	4.963	4.849	15.964	12.029	10.861	332.031
-9.244	-8.797	-9.751	-4.879	-1.154	-1.833	9.535	9.792	14.858	14.814	12.693	12.969	3.474	-1.880	-7.736	-8.882	-8.643	-9.172	-7.451	-9.129	-7.879	-4.058	-4.001	5.087	4.774	15.722	11.834	10.607	335.938
-9.400	-8.637	-9.822	-4.766	-1.033	-1.863	9.424	9.679	14.595	14.530	12.491	12.786	3.533	-1.749	-7.632	-8.651	-8.214	-9.222	-7.157	-8.935	-7.487	-3.803	-3.759	5.217	4.709	15.448	11.659	10.385	339.844
-9.594	-8.479	-9.906	-4.659	-0.913	-1.886	9.321	9.558	14.346	14.306	12.309	12.651	3.612	-1.583	-7.542	-8.402	-7.778	-9.321	-6.815	-8.730	-7.053	-3.564	-3.507	5.353	4.631	15.152	11.507	10.208	343.750
-9.820	-8.326	-10.017	-4.553	-0.799	-1.893	9.224	9.418	14.115	14.150	12.151	12.566	3.704	-1.374	-7.468	-8.134	-7.385	-9.447	-6.434	-8.501	-6.590	-3.339	-3.253	5.493	4.525	14.843	11.383	10.080	347.656
-10.067	-8.179	-10.155	-4.440	-0.691	-1.876	9.131	9.253	13.903	14.051	12.005	12.521	3.803	-1.125	-7.411	-7.855	-7.070	-9.575	-6.035	-8.240	-6.115	-3.123	-3.000	5.635	4.384	14.536	11.282	9.996	351.562
-10.320	-8.032	-10.308	-4.312	-0.582	-1.823	9.042	9.065	13.703	13.991	11.844	12.488	3.895	-0.845	-7.370	-7.569	-6.851	-9.679	-5.645	-7.939	-5.650	-2.912	-2.751	5.772	4.213	14.240	11.196	9.939	355.469
-10.560	-7.873	-10.447	-4.160	-0.463	-1.720	8.958	8.869	13.506	13.937	11.632	12.426	3.966	-0.552	-7.336	-7.282	-6.722	-9.736	-5.285	-7.599	-5.216	-2.703	-2.505	5.897	4.026	13.959	11.110	9.874	359.375
-10.767	-7.686	-10.534	-3.972	-0.323	-1.561	8.880	8.684	13.302	13.855	11.325	12.285	4.002	-0.267	-7.298	-6.993	-6.659	-9.729	-4.968	-7.223	-4.833	-2.493	-2.260	6.000	3.841	13.688	11.007	9.755	363.281
-10.916	-7.457	-10.529	-3.745	-0.155	-1.341	8.808	8.534	13.083	13.708	10.885	12.014	3.988	-0.011	-7.243	-6.700	-6.623	-9.645	-4.693	-6.820	-4.514	-2.280	-2.010	6.074	3.676	13.418	10.866	9.531	367.188
-10.989	-7.178	-10.400	-3.476	0.042	-1.066	8.738	8.440	12.846	13.468	10.287	11.576	3.916	0.197	-7.158	-6.399	-6.576	-9.481	-4.447	-6.404	-4.266	-2.063	-1.748	6.111	3.547	13.140	10.672	9.159	371.094
-10.977	-6.848	-10.134	-3.174	0.257	-0.745	8.661	8.414	12.592	13.120	9.530	10.954	3.783	0.345	-7.036	-6.087	-6.483	-9.240	-4.209	-5.994	-4.087	-1.839	-1.470	6.110	3.465	12.847	10.416	8.611	375.000
-10.879	-6.481	-9.744	-2.853	0.472	-0.396	8.566	8.455	12.332	12.671	8.641	10.163	3.596	0.430	-6.877	-5.771	-6.329	-8.934	-3.963	-5.612	-3.970	-1.609	-1.171	6.075	3.435	12.539	10.099	7.891	378.906
-10.708	-6.100	-9.265	-2.538	0.662	-0.040	8.445	8.552	12.080	12.144	7.681	9.252	3.369	0.459	-6.689	-5.461	-6.110	-8.586	-3.696	-5.281	-3.902	-1.377	-0.856	6.014	3.458	12.227	9.734	7.035	382.812
-10.488	-5.741	-8.754	-2.254	0.804	0.297	8.292	8.686	11.856	11.585	6.733	8.297	3.124	0.448	-6.487	-5.177	-5.840	-8.224	-3.416	-5.026	-3.872	-1.151	-0.537	5.939	3.530	11.931	9.344	6.111	386.719
-10.247	-5.440	-8.275	-2.028	0.879	0.587	8.113	8.838	11.679	11.049	5.890	7.390	2.886	0.415	-6.288	-4.944	-5.543	-7.878	-3.138	-4.862	-3.866	-0.942	-0.234	5.860	3.642	11.669	8.956	5.203	390.625
-10.016	-5.227	-7.881	-1.882	0.883	0.806	7.922	8.990	11.565	10.594	5.238	6.619	2.678	0.383	-6.111	-4.783	-5.245	-7.574	-2.890	-4.797	-3.876	-0.761	0.028	5.784	3.778	11.457	8.596	4.395	394.531
-9.820	-5.121	-7.611	-1.825	0.824	0.939	7.742	9.134	11.525	10.267	4.835	6.048	2.518	0.370	-5.970	-4.706	-4.969	-7.330	-2.698	-4.826	-3.891	-0.614	0.227	5.710	3.919	11.295	8.280	3.749	398.438
-9.673	-5.117	-7.471	-1.852	0.727	0.981	7.597	9.271	11.557	10.092	4.698	5.703	2.414	0.389	-5.870	-4.716	-4.737	-7.152	-2.582	-4.930	-3.902	-0.508	0.344	5.632	4.042	11.164	8.008	3.290	402.344
-9.575	-5.195	-7.440	-1.944	0.627	0.946	7.505	9.410	11.649	10.066	4.800	5.561	2.361	0.446	-5.810	-4.795	-4.559	-7.032	-2.545	-5.078	-3.900	-0.438	0.375	5.537	4.124	11.027	7.765	3.001	406.250
-9.508	-5.314	-7.476	-2.064	0.558	0.861	7.473	9.561	11.777	10.152	5.069	5.562	2.347	0.541	-5.778	-4.913	-4.440	-6.953	-2.576	-5.228	-3.870	-0.395	0.329	5.411	4.142	10.840	7.520	2.828	410.156
-9.442	-5.425	-7.521	-2.173	0.553	0.759	7.489	9.733	11.909	10.289	5.403	5.618	2.351	0.667	-5.756	-5.026	-4.367	-6.890	-2.644	-5.335	-3.798	-0.366	0.226	5.240	4.081	10.555	7.238	2.693	414.062
-9.344	-5.481	-7.520	-2.225	0.629	0.677	7.528	9.925	12.007	10.404	5.693	5.631	2.352	0.816	-5.718	-5.089	-4.320	-6.817	-2.709	-5.358	-3.669	-0.333	0.095	5.018	3.932	10.139	6.884	2.516	417.969
-9.182	-5.441	-7.429	-2.188	0.789	0.643	7.549	10.127	12.036	10.424	5.843	5.522	2.330	0.975	-5.642	-5.061	-4.268	-6.712	-2.730	-5.266	-3.472	-0.279	-0.035	4.748	3.698	9.578	6.439	2.234	421.875
-8.939	-5.285	-7.226	-2.042	1.018	0.671	7.513	10.321	11.967	10.295	5.790	5.240	2.273	1.132	-5.508	-4.915	-4.176	-6.556	-2.676	-5.047	-3.204	-0.194	-0.139	4.437	3.386	8.886	5.898	1.814	425.781
-8.609	-5.012	-6.913	-1.788	1.291	0.757	7.384	10.480	11.786	9.990	5.517	4.778	2.175	1.276	-5.305	-4.648	-4.016	-6.340	-2.536	-4.708	-2.874	-0.074	-0.201	4.103	3.013	8.101	5.276	1.261	429.688
-8.199	-4.646	-6.512	-1.446	1.577	0.888	7.146	10.582	11.497	9.517	5.053	4.168	2.042	1.403	-5.031	-4.276	-3.772	-6.060	-2.320	-4.275	-2.501	0.076	-0.220	3.764	2.597	7.274	4.607	0.613	433.594
-7.727	-4.226	-6.061	-1.045	1.850	1.041	6.802	10.604	11.116	8.912	4.464	3.472	1.884	1.511	-4.696	-3.835	-3.446	-5.726	-2.062	-3.789	-2.113	0.240	-0.202	3.437	2.154	6.459	3.931	-0.073	437.500
-7.217	-3.798	-5.604	-0.623	2.091	1.192	6.376	10.536	10.673	8.236	3.838	2.767	1.721	1.606	-4.317	-3.370	-3.056	-5.350	-1.805	-3.294	-1.738	0.402	-0.163	3.135	1.698	5.702	3.291	-0.730	441.406
-6.699	-3.408	-5.179	-0.213	2.294	1.326	5.911	10.375	10.200	7.557	3.264	2.129	1.575	1.703	-3.917	-2.927	-2.636	-4.953	-1.591	-2.836	-1.398	0.543	-0.123	2.870	1.238	5.031	2.722	-1.302	445.312
-6.201	-3.092	-4.818	0.162	2.463	1.432	5.457	10.130	9.732	6.944	2.811	1.617	1.468	1.815	-3.521	-2.544	-2.225	-4.557	-1.453	-2.447	-1.107	0.648	-0.099	2.648	0.780	4.458	2.248	-1.750	449.219
-5.751	-2.866	-4.542	0.487	2.608	1.507	5.063	9.817	9.295	6.451	2.522	1.265	1.421	1.959	-3.150	-2.242	-1.858	-4.186	-1.398	-2.147	-0.866	0.711	-0.101	2.470	0.325	3.975	1.880	-2.062	453.125
-5.372	-2.728	-4.357	0.758	2.746	1.555	4.771	9.461	8.909	6.113	2.405	1.079	1.448	2.147	-2.823	-2.026	-1.562	-3.862	-1.410	-1.937	-0.669	0.735	-0.136	2.338	-0.124	3.569	1.615	-2.245	457.031
-5.084	-2.656	-4.260	0.980	2.890	1.582	4.602	9.086	8.584	5.943	2.435	1.042	1.557	2.382	-2.550	-1.880	-1.344	-3.604	-1.450	-1.803	-0.505	0.729	-0.198	2.247	-0.568	3.221	1.440	-2.329	460.938
-4.895	-2.618	-4.236	1.162	3.050	1.597	4.563	8.718	8.320	5.932	2.570	1.116	1.741	2.657	-2.334	-1.776	-1.200	-3.428	-1.472	-1.721	-0.366	0.704	-0.282	2.188	-1.005	2.916	1.336	-2.348	464.844
-4.805	-2.576	-4.262	1.314	3.233	1.613	4.641	8.382	8.114	6.054	2.753	1.258	1.984	2.956	-2.173	-1.681	-1.118	-3.340	-1.432	-1.665	-0.248	0.668	-0.378	2.145	-1.435	2.643	1.278	-2.342	468.750
-4.801	-2.501	-4.309	1.443	3.434	1.642	4.809	8.097	7.959	6.271	2.936	1.422	2.263	3.254	-2.062	-1.570	-1.080	-3.338	-1.310	-1.618	-0.153	0.622	-0.482	2.098	-1.858	2.396	1.243	-2.342	472.656
-4.860	-2.373	-4.345	1.557	3.645	1.696	5.032	7.880	7.849	6.544	3.082	1.570	2.547	3.522	-1.994	-1.430	-1.074	-3.407	-1.111	-1.574	-0.091	0.558	-0.591	2.025	-2.268	2.173	1.210	-2.368	476.562
-4.951	-2.192	-4.343	1.660	3.851	1.781	5.275	7.741	7.779	6.833	3.173	1.679	2.803	3.730	-1.962	-1.267	-1.091	-3.528	-0.868	-1.544	-0.080	0.463	-0.705	1.907	-2.655	1.975	1.163	-2.428	480.469
-5.040	-1.974	-4.282	1.756	4.031	1.900	5.498	7.685	7.745	7.106	3.209	1.739	3.001	3.853	-1.959	-1.101	-1.125	-3.670	-0.630	-1.547	-0.138	0.323	-0.827	1.731	-3.003	1.805	1.098	-2.510	484.375
-5.096	-1.751	-4.158	1.844	4.162	2.046	5.672	7.710	7.740	7.334	3.204	1.753	3.117	3.874	-1.976	-0.963	-1.172	-3.800	-0.453	-1.609	-0.278	0.130	-0.954	1.498	-3.289	1.668	1.016	-2.592	488.281
-5.094	-1.565	-3.979	1.918	4.219	2.203	5.768	7.802	7.758	7.497	3.181	1.739	3.140	3.783	-2.006	-0.886	-1.228	-3.884	-0.382	-1.752	-0.510	-0.115	-1.082	1.221	-3.491	1.574	0.933	-2.642	492.188
-5.018	-1.460	-3.766	1.967	4.183	2.348	5.769	7.945	7.787	7.582	3.163	1.717	3.066	3.586	-2.037	-0.896	-1.284	-3.890	-0.445	-1.989	-0.833	-0.399	-1.202	0.926	-3.589	1.530	0.865	-2.629	496.094
-4.861	-1.472	-3.547	1.974	4.043	2.456	5.664	8.115	7.816	7.580	3.172	1.705	2.907	3.295	-2.057	-1.005	-1.330	-3.794	-0.640	-2.317	-1.232	-0.696	-1.304	0.645	-3.568	1.545	0.832	-2.527	500.000
-4.630	-1.621	-3.349	1.924	3.799	2.504	5.454	8.284	7.829	7.492	3.216	1.718	2.682	2.935	-2.058	-1.209	-1.360	-3.586	-0.941	-2.717	-1.688	-0.975	-1.374	0.409	-3.427	1.624	0.848	-2.330	503.906
-4.338	-1.902	-3.190	1.806	3.467	2.476	5.147	8.426	7.813	7.321	3.291	1.757	2.416	2.538	-2.033	-1.487	-1.369	-3.270	-1.302	-3.158	-2.170	-1.200	-1.399	0.249	-3.174	1.767	0.920	-2.048	507.812
-4.009	-2.289	-3.076	1.621	3.074	2.366	4.761	8.518	7.752	7.080	3.380	1.814	2.136	2.137	-1.984	-1.805	-1.358	-2.870	-1.665	-3.599	-2.646	-1.341	-1.371	0.181	-2.830	1.968	1.046	-1.707	511.719
-3.675	-2.738	-3.002	1.379	2.655	2.183	4.319	8.542	7.635	6.782	3.455	1.872	1.865	1.767	-1.916	-2.124	-1.335	-2.425	-1.976	-3.997	-3.086	-1.378	-1.286	0.211	-2.423	2.216	1.218	-1.347	515.625
-3.370	-3.195	-2.959	1.106	2.253	1.949	3.849	8.489	7.455	6.445	3.485	1.912	1.622	1.458	-1.842	-2.407	-1.306	-1.982	-2.193	-4.316	-3.462	-1.306	-1.148	0.333	-1.988	2.500	1.423	-1.008	519.531
-3.131	-3.603	-2.938	0.836	1.904	1.696	3.380	8.360	7.213	6.092	3.443	1.918	1.416	1.230	-1.774	-2.622	-1.279	-1.591	-2.291	-4.528	-3.753	-1.134	-0.967	0.529	-1.559	2.808	1.647	-0.723	523.438
-2.988	-3.916	-2.933	0.603	1.642	1.457	2.939	8.168	6.917	5.745	3.314	1.883	1.254	1.095	-1.726	-2.754	-1.256	-1.292	-2.269	-4.620	-3.946	-0.879	-0.760	0.773	-1.166	3.130	1.878	-0.515	527.344
-2.962	-4.106	-2.946	0.438	1.485	1.266	2.552	7.931	6.585	5.427	3.101	1.811	1.135	1.051	-1.706	-2.796	-1.234	-1.116	-2.142	-4.592	-4.035	-0.570	-0.546	1.038	-0.832	3.457	2.104	-0.388	531.250
-3.056	-4.163	-2.984	0.362	1.439	1.145	2.238	7.677	6.242	5.157	2.825	1.714	1.057	1.085	-1.719	-2.755	-1.212	-1.069	-1.939	-4.458	-4.025	-0.236	-0.344	1.297	-0.573	3.781	2.317	-0.335	535.156
-3.256	-4.101	-3.048	0.380	1.495	1.104	2.010	7.432	5.913	4.950	2.519	1.613	1.017	1.175	-1.760	-2.647	-1.188	-1.142	-1.698	-4.240	-3.925	0.094	-0.173	1.525	-0.393	4.089	2.510	-0.336	539.062
-3.530	-3.952	-3.140	0.482	1.633	1.137	1.874	7.220	5.623	4.815	2.225	1.528	1.014	1.299	-1.823	-2.492	-1.164	-1.310	-1.453	-3.965	-3.754	0.394	-0.048	1.707	-0.291	4.367	2.678	-0.370	542.969
-3.838	-3.755	-3.252	0.646	1.828	1.226	1.830	7.054	5.393	4.753	1.983	1.476	1.048	1.436	-1.896	-2.311	-1.142	-1.537	-1.229	-3.658	-3.529	0.645	0.021	1.832	-0.263	4.594	2.817	-0.417	546.875
-4.131	-3.550	-3.371	0.845	2.052	1.346	1.869	6.939	5.233	4.759	1.824	1.469	1.121	1.573	-1.963	-2.119	-1.123	-1.790	-1.039	-3.338	-3.273	0.835	0.026	1.898	-0.304	4.748	2.925	-0.465	550.781
-4.371	-3.369	-3.481	1.052	2.280	1.471	1.975	6.863	5.144	4.819	1.765	1.507	1.234	1.710	-2.009	-1.928	-1.104	-2.039	-0.881	-3.017	-3.001	0.960	-0.034	1.909	-0.413	4.806	2.998	-0.508	554.688
-4.527	-3.229	-3.566	1.244	2.493	1.576	2.127	6.808	5.118	4.916	1.805	1.584	1.391	1.849	-2.023	-1.742	-1.079	-2.260	-0.746	-2.700	-2.726	1.020	-0.159	1.873	-0.590	4.748	3.034	-0.553	558.594
-4.583	-3.131	-3.613	1.411	2.678	1.649	2.301	6.745	5.138	5.026	1.924	1.681	1.589	2.002	-1.991	-1.561	-1.037	-2.438	-0.622	-2.387	-2.458	1.022	-0.338	1.796	-0.837	4.561	3.030	-0.612	562.500
-4.534	-3.065	-3.612	1.546	2.828	1.685	2.469	6.651	5.183	5.126	2.088	1.773	1.822	2.177	-1.910	-1.387	-0.967	-2.562	-0.496	-2.081	-2.201	0.978	-0.558	1.684	-1.152	4.244	2.980	-0.701	566.406
-4.387	-3.015	-3.559	1.653	2.939	1.689	2.604	6.506	5.229	5.191	2.257	1.836	2.078	2.375	-1.777	-1.222	-0.859	-2.625	-0.366	-1.786	-1.955	0.898	-0.800	1.542	-1.528	3.806	2.883	-0.832	570.312
-4.156	-2.970	-3.452	1.733	3.009	1.668	2.682	6.305	5.257	5.203	2.390	1.844	2.342	2.592	-1.598	-1.073	-0.712	-2.622	-0.234	-1.512	-1.721	0.795	-1.044	1.374	-1.943	3.273	2.738	-1.013	574.219
-3.865	-2.923	-3.296	1.786	3.040	1.633	2.689	6.053	5.250	5.150	2.453	1.782	2.595	2.814	-1.386	-0.950	-0.530	-2.550	-0.111	-1.272	-1.498	0.681	-1.267	1.184	-2.367	2.683	2.551	-1.240	578.125
-3.538	-2.873	-3.096	1.810	3.033	1.592	2.616	5.769	5.196	5.028	2.425	1.645	2.819	3.020	-1.158	-0.864	-0.328	-2.407	-0.012	-1.079	-1.285	0.570	-1.449	0.982	-2.760	2.082	2.335	-1.497	582.031
-3.205	-2.827	-2.859	1.802	2.990	1.550	2.468	5.472	5.088	4.839	2.301	1.442	2.996	3.189	-0.933	-0.823	-0.126	-2.196	0.051	-0.943	-1.086	0.476	-1.575	0.778	-3.084	1.523	2.107	-1.762	585.938
-2.891	-2.791	-2.594	1.758	2.915	1.509	2.253	5.183	4.924	4.588	2.089	1.188	3.113	3.302	-0.730	-0.825	0.057	-1.928	0.073	-0.865	-0.906	0.409	-1.633	0.588	-3.304	1.052	1.891	-2.007	589.844
-2.618	-2.766	-2.311	1.679	2.816	1.468	1.990	4.914	4.704	4.284	1.808	0.908	3.159	3.346	-0.561	-0.858	0.212	-1.620	0.061	-0.835	-0.757	0.380	-1.619	0.424	-3.398	0.708	1.706	-2.204	593.750
-2.398	-2.746	-2.022	1.575	2.700	1.425	1.695	4.667	4.432	3.934	1.485	0.625	3.130	3.319	-0.431	-0.902	0.338	-1.295	0.029	-0.833	-0.650	0.395	-1.538	0.297	-3.361	0.512	1.568	-2.337	597.656
-2.235	-2.721	-1.741	1.460	2.577	1.376	1.387	4.439	4.117	3.546	1.147	0.360	3.026	3.229	-0.336	-0.927	0.445	-0.978	0.000	-0.836	-0.595	0.454	-1.403	0.212	-3.206	0.466	1.486	-2.399	601.562
-2.121	-2.675	-1.487	1.355	2.458	1.322	1.080	4.219	3.769	3.128	0.821	0.126	2.853	3.094	-0.266	-0.906	0.548	-0.689	-0.005	-0.821	-0.601	0.549	-1.233	0.164	-2.959	0.552	1.456	-2.396	605.469
-2.043	-2.594	-1.277	1.283	2.350	1.266	0.783	3.999	3.404	2.692	0.525	-0.070	2.623	2.935	-0.205	-0.818	0.658	-0.442	0.027	-0.768	-0.666	0.669	-1.049	0.142	-2.657	0.736	1.470	-2.347	609.375
-1.984	-2.468	-1.124	1.262	2.260	1.212	0.503	3.773	3.037	2.255	0.270	-0.233	2.349	2.775	-0.142	-0.656	0.778	-0.240	0.100	-0.672	-0.783	0.800	-0.871	0.130	-2.341	0.976	1.509	-2.281	613.281
-1.925	-2.297	-1.034	1.299	2.192	1.165	0.240	3.541	2.686	1.833	0.057	-0.371	2.045	2.631	-0.068	-0.426	0.904	-0.078	0.208	-0.538	-0.937	0.930	-0.713	0.114	-2.045	1.227	1.556	-2.224	617.188
-1.855	-2.092	-1.000	1.392	2.146	1.129	-0.010	3.310	2.362	1.450	-0.121	-0.498	1.723	2.512	0.021	-0.145	1.024	0.054	0.335	-0.380	-1.109	1.049	-0.581	0.079	-1.794	1.449	1.592	-2.201	621.094
-1.767	-1.869	-1.004	1.523	2.118	1.109	-0.252	3.090	2.076	1.125	-0.272	-0.624	1.390	2.411	0.121	0.158	1.127	0.169	0.465	-0.222	-1.281	1.154	-0.472	0.023	-1.600	1.613	1.606	-2.226	625.000
-1.662	-1.647	-1.020	1.671	2.101	1.103	-0.492	2.894	1.835	0.874	-0.406	-0.758	1.053	2.313	0.224	0.456	1.204	0.283	0.579	-0.087	-1.437	1.241	-0.377	-0.051	-1.464	1.700	1.592	-2.303	628.906
-1.549	-1.441	-1.017	1.811	2.089	1.112	-0.731	2.733	1.641	0.705	-0.528	-0.901	0.712	2.197	0.322	0.724	1.252	0.403	0.663	0.008	-1.565	1.314	-0.286	-0.133	-1.373	1.700	1.548	-2.426	632.812
-1.441	-1.265	-0.971	1.926	2.078	1.131	-0.967	2.615	1.497	0.621	-0.640	-1.050	0.371	2.044	0.405	0.948	1.274	0.534	0.711	0.052	-1.664	1.371	-0.189	-0.207	-1.314	1.618	1.478	-2.581	636.719
-1.348	-1.124	-0.865	2.008	2.065	1.161	-1.190	2.539	1.402	0.612	-0.740	-1.199	0.036	1.842	0.467	1.120	1.274	0.669	0.717	0.046	-1.734	1.415	-0.081	-0.259	-1.271	1.463	1.386	-2.750	640.625
-1.277	-1.019	-0.692	2.060	2.055	1.202	-1.384	2.499	1.354	0.666	-0.824	-1.337	-0.285	1.594	0.501	1.242	1.257	0.794	0.685	-0.003	-1.785	1.442	0.034	-0.278	-1.236	1.256	1.277	-2.916	644.531
-1.228	-0.947	-0.462	2.091	2.056	1.260	-1.528	2.484	1.349	0.765	-0.889	-1.457	-0.577	1.315	0.505	1.317	1.221	0.888	0.617	-0.082	-1.827	1.448	0.146	-0.264	-1.207	1.021	1.155	-3.065	648.438
-1.197	-0.903	-0.191	2.114	2.079	1.343	-1.602	2.482	1.382	0.893	-0.931	-1.553	-0.825	1.031	0.477	1.352	1.161	0.929	0.520	-0.178	-1.872	1.428	0.239	-0.225	-1.191	0.784	1.023	-3.185	652.344
-1.178	-0.876	0.095	2.142	2.134	1.460	-1.593	2.484	1.450	1.036	-0.950	-1.618	-1.013	0.775	0.420	1.350	1.071	0.899	0.401	-0.279	-1.929	1.377	0.296	-0.176	-1.198	0.570	0.883	-3.272	656.250
-1.165	-0.858	0.366	2.183	2.227	1.619	-1.495	2.484	1.544	1.183	-0.945	-1.651	-1.130	0.575	0.336	1.316	0.949	0.787	0.268	-0.380	-2.002	1.292	0.302	-0.139	-1.243	0.400	0.734	-3.325	660.156
-1.157	-0.841	0.595	2.239	2.357	1.820	-1.316	2.482	1.659	1.329	-0.917	-1.652	-1.172	0.453	0.234	1.255	0.803	0.598	0.126	-0.481	-2.091	1.175	0.247	-0.131	-1.333	0.287	0.581	-3.343	664.062
-1.156	-0.821	0.757	2.304	2.514	2.052	-1.079	2.480	1.787	1.466	-0.870	-1.623	-1.141	0.418	0.123	1.172	0.653	0.348	-0.017	-0.582	-2.192	1.031	0.132	-0.164	-1.467	0.237	0.429	-3.331	667.969
-1.165	-0.798	0.840	2.368	2.679	2.296	-0.815	2.481	1.916	1.589	-0.807	-1.567	-1.049	0.466	0.016	1.077	0.525	0.063	-0.156	-0.688	-2.300	0.874	-0.034	-0.241	-1.632	0.249	0.286	-3.291	671.875
-1.187	-0.776	0.839	2.415	2.828	2.524	-0.563	2.486	2.038	1.689	-0.733	-1.492	-0.919	0.579	-0.074	0.980	0.443	-0.222	-0.282	-0.800	-2.411	0.720	-0.232	-0.353	-1.805	0.313	0.161	-3.227	675.781
-1.218	-0.763	0.764	2.431	2.934	2.709	-0.359	2.494	2.140	1.756	-0.654	-1.408	-0.775	0.732	-0.138	0.892	0.425	-0.473	-0.386	-0.914	-2.517	0.593	-0.435	-0.482	-1.955	0.415	0.062	-3.148	679.688
-1.248	-0.766	0.638	2.404	2.976	2.827	-0.236	2.496	2.213	1.777	-0.581	-1.329	-0.644	0.897	-0.172	0.822	0.467	-0.662	-0.457	-1.025	-2.613	0.515	-0.611	-0.607	-2.051	0.537	-0.008	-3.062	683.594
-1.258	-0.789	0.491	2.328	2.941	2.863	-0.215	2.484	2.244	1.742	-0.524	-1.272	-0.552	1.048	-0.175	0.773	0.549	-0.767	-0.482	-1.121	-2.689	0.505	-0.729	-0.706	-2.070	0.662	-0.051	-2.983	687.500
-1.229	-0.835	0.359	2.206	2.827	2.814	-0.301	2.448	2.224	1.638	-0.500	-1.254	-0.515	1.166	-0.153	0.741	0.641	-0.779	-0.454	-1.191	-2.736	0.576	-0.762	-0.762	-2.003	0.772	-0.078	-2.925	691.406
-1.140	-0.901	0.277	2.052	2.646	2.689	-0.490	2.379	2.147	1.460	-0.520	-1.291	-0.540	1.242	-0.114	0.721	0.706	-0.703	-0.371	-1.224	-2.741	0.733	-0.695	-0.768	-1.856	0.858	-0.100	-2.902	695.312
-0.982	-0.982	0.270	1.882	2.415	2.511	-0.759	2.273	2.009	1.211	-0.595	-1.393	-0.623	1.274	-0.065	0.700	0.721	-0.551	-0.242	-1.216	-2.699	0.966	-0.528	-0.724	-1.652	0.910	-0.129	-2.925	699.219
-0.754	-1.070	0.348	1.717	2.162	2.307	-1.081	2.131	1.813	0.901	-0.727	-1.558	-0.749	1.270	-0.011	0.668	0.680	-0.345	-0.083	-1.166	-2.604	1.258	-0.276	-0.638	-1.427	0.925	-0.177	-2.998	703.125
-0.471	-1.159	0.507	1.574	1.915	2.109	-1.419	1.959	1.567	0.553	-0.911	-1.779	-0.897	1.241	0.049	0.616	0.597	-0.105	0.083	-1.086	-2.460	1.583	0.029	-0.526	-1.218	0.905	-0.246	-3.119	707.031
-0.159	-1.245	0.728	1.464	1.697	1.946	-1.740	1.766	1.281	0.195	-1.131	-2.034	-1.044	1.200	0.117	0.545	0.503	0.151	0.233	-0.990	-2.279	1.911	0.349	-0.403	-1.059	0.851	-0.333	-3.279	710.938
0.151	-1.324	0.978	1.387	1.524	1.836	-2.013	1.565	0.970	-0.140	-1.365	-2.299	-1.171	1.157	0.200	0.459	0.435	0.411	0.351	-0.895	-2.078	2.213	0.643	-0.284	-0.968	0.768	-0.430	-3.462	714.844
0.428	-1.394	1.222	1.333	1.403	1.786	-2.216	1.364	0.648	-0.421	-1.587	-2.547	-1.267	1.117	0.301	0.371	0.426	0.669	0.431	-0.819	-1.880	2.468	0.877	-0.179	-0.945	0.666	-0.522	-3.648	718.750
0.643	-1.452	1.424	1.291	1.328	1.786	-2.337	1.174	0.328	-0.625	-1.773	-2.748	-1.331	1.081	0.422	0.299	0.498	0.919	0.478	-0.770	-1.711	2.664	1.034	-0.093	-0.974	0.552	-0.592	-3.812	722.656
0.778	-1.494	1.556	1.246	1.286	1.817	-2.376	0.998	0.022	-0.734	-1.905	-2.881	-1.370	1.041	0.559	0.258	0.659	1.150	0.512	-0.753	-1.590	2.800	1.114	-0.028	-1.028	0.438	-0.625	-3.933	726.562
0.820	-1.515	1.599	1.187	1.257	1.854	-2.338	0.840	-0.256	-0.742	-1.969	-2.931	-1.395	0.991	0.703	0.261	0.901	1.347	0.554	-0.761	-1.532	2.886	1.131	0.020	-1.079	0.332	-0.611	-3.991	730.469
0.771	-1.511	1.549	1.111	1.224	1.873	-2.236	0.701	-0.492	-0.652	-1.964	-2.888	-1.418	0.924	0.837	0.309	1.196	1.488	0.623	-0.785	-1.542	2.934	1.108	0.057	-1.102	0.243	-0.542	-3.973	734.375
0.639	-1.483	1.414	1.019	1.172	1.856	-2.084	0.583	-0.671	-0.471	-1.891	-2.755	-1.447	0.836	0.942	0.393	1.503	1.550	0.726	-0.813	-1.618	2.957	1.069	0.087	-1.086	0.175	-0.418	-3.871	738.281
0.442	-1.436	1.219	0.918	1.094	1.794	-1.894	0.491	-0.774	-0.210	-1.761	-2.538	-1.480	0.727	0.997	0.491	1.768	1.511	0.853	-0.837	-1.749	2.960	1.029	0.115	-1.031	0.135	-0.245	-3.687	742.188
0.206	-1.380	0.994	0.813	0.988	1.689	-1.677	0.434	-0.787	0.119	-1.580	-2.250	-1.512	0.600	0.982	0.573	1.932	1.362	0.977	-0.858	-1.925	2.945	0.995	0.145	-0.947	0.125	-0.034	-3.426	746.094
-0.038	-1.331	0.773	0.706	0.860	1.551	-1.439	0.421	-0.696	0.503	-1.354	-1.908	-1.533	0.461	0.890	0.605	1.949	1.107	1.065	-0.882	-2.133	2.906	0.964	0.176	-0.853	0.148	0.202	-3.105	750.000
-0.257	-1.310	0.584	0.594	0.720	1.396	-1.183	0.461	-0.500	0.929	-1.088	-1.531	-1.533	0.316	0.721	0.562	1.796	0.768	1.081	-0.925	-2.364	2.836	0.928	0.208	-0.767	0.205	0.443	-2.744	753.906
-0.418	-1.332	0.445	0.471	0.579	1.244	-0.916	0.558	-0.206	1.380	-0.785	-1.143	-1.509	0.171	0.494	0.429	1.484	0.380	1.003	-0.998	-2.608	2.731	0.879	0.238	-0.707	0.293	0.667	-2.370	757.812
-0.500	-1.406	0.363	0.331	0.450	1.111	-0.645	0.706	0.163	1.834	-0.454	-0.768	-1.462	0.032	0.241	0.210	1.064	-0.012	0.830	-1.111	-2.857	2.593	0.815	0.259	-0.684	0.402	0.852	-2.014	761.719
-0.492	-1.527	0.333	0.173	0.338	1.010	-0.383	0.886	0.569	2.264	-0.112	-0.433	-1.405	-0.100	-0.002	-0.071	0.614	-0.367	0.586	-1.261	-3.099	2.430	0.740	0.267	-0.701	0.523	0.973	-1.705	765.625
-0.405	-1.679	0.345	0.004	0.247	0.946	-0.151	1.071	0.968	2.640	0.217	-0.164	-1.352	-0.223	-0.196	-0.369	0.229	-0.655	0.313	-1.433	-3.319	2.258	0.670	0.256	-0.755	0.641	1.011	-1.474	769.531
-0.265	-1.833	0.386	-0.164	0.173	0.915	0.028	1.228	1.312	2.930	0.503	0.016	-1.323	-0.336	-0.313	-0.632	0.000	-0.861	0.070	-1.598	-3.500	2.096	0.624	0.223	-0.839	0.744	0.955	-1.343	773.438
-0.113	-1.952	0.444	-0.311	0.110	0.910	0.133	1.324	1.558	3.108	0.718	0.094	-1.337	-0.441	-0.339	-0.800	-0.001	-0.991	-0.086	-1.725	-3.627	1.962	0.624	0.168	-0.944	0.823	0.801	-1.324	777.344
0.008	-2.006	0.510	-0.420	0.051	0.921	0.147	1.330	1.677	3.157	0.838	0.065	-1.404	-0.539	-0.272	-0.830	0.262	-1.060	-0.106	-1.784	-3.688	1.870	0.686	0.094	-1.060	0.876	0.556	-1.419	781.250
0.062	-1.974	0.577	-0.479	-0.013	0.937	0.064	1.235	1.660	3.075	0.853	-0.063	-1.531	-0.632	-0.126	-0.696	0.788	-1.094	0.035	-1.756	-3.681	1.826	0.819	0.006	-1.178	0.905	0.235	-1.615	785.156
0.030	-1.854	0.640	-0.485	-0.086	0.951	-0.106	1.044	1.521	2.881	0.772	-0.272	-1.711	-0.721	0.078	-0.404	1.539	-1.116	0.333	-1.638	-3.614	1.827	1.020	-0.091	-1.294	0.915	-0.141	-1.890	789.062
-0.080	-1.659	0.698	-0.447	-0.170	0.956	-0.341	0.776	1.290	2.605	0.618	-0.532	-1.933	-0.809	0.315	0.011	2.449	-1.146	0.756	-1.446	-3.503	1.863	1.273	-0.192	-1.405	0.915	-0.550	-2.216	792.969
-0.241	-1.422	0.750	-0.385	-0.264	0.953	-0.608	0.466	1.014	2.292	0.426	-0.813	-2.177	-0.900	0.564	0.495	3.436	-1.191	1.249	-1.213	-3.371	1.917	1.555	-0.294	-1.511	0.911	-0.970	-2.559	796.875
