FP1	F3	F7	FC3	C3	C5	P3	P7	PO7	PO3	O1	Oz	Pz	CPz	FP2	Fz	F4	F8	FC4	FCz	Cz	C4	C6	P4	P8	PO8	PO4	O2	time
-2.282	0.241	-1.030	0.084	0.034	-0.027	0.652	-0.265	-0.954	0.537	-0.530	0.198	0.432	0.246	-0.120	-0.619	1.553	0.214	-0.660	-1.357	-1.241	-0.261	-0.360	-0.166	0.080	0.841	0.360	0.393	-199.219
-1.790	-0.093	-0.925	-0.155	0.161	-0.086	0.917	0.001	-0.558	0.807	-0.357	0.260	0.623	0.335	-0.435	-0.794	0.310	-0.196	-0.529	-1.365	-1.065	-0.202	-0.413	0.155	0.302	0.897	0.552	0.303	-195.312
-1.320	-0.402	-0.802	-0.388	0.260	-0.134	1.154	0.266	-0.177	1.046	-0.181	0.323	0.786	0.406	-0.726	-0.961	-0.833	-0.558	-0.430	-1.380	-0.901	-0.165	-0.469	0.441	0.519	0.932	0.716	0.238	-191.406
-0.889	-0.667	-0.652	-0.609	0.306	-0.169	1.333	0.515	0.173	1.226	0.003	0.390	0.900	0.446	-0.964	-1.111	-1.782	-0.830	-0.382	-1.402	-0.761	-0.161	-0.526	0.662	0.723	0.924	0.825	0.219	-187.500
-0.513	-0.872	-0.475	-0.811	0.281	-0.191	1.430	0.728	0.476	1.331	0.196	0.462	0.952	0.448	-1.130	-1.234	-2.466	-0.991	-0.389	-1.422	-0.647	-0.195	-0.578	0.801	0.901	0.866	0.869	0.256	-183.594
-0.208	-1.006	-0.281	-0.987	0.178	-0.207	1.429	0.878	0.714	1.354	0.392	0.542	0.949	0.414	-1.211	-1.319	-2.840	-1.034	-0.441	-1.425	-0.553	-0.261	-0.615	0.855	1.035	0.758	0.845	0.351	-179.688
0.011	-1.068	-0.090	-1.129	0.001	-0.225	1.325	0.940	0.875	1.299	0.582	0.629	0.904	0.352	-1.204	-1.357	-2.896	-0.970	-0.513	-1.390	-0.469	-0.344	-0.625	0.835	1.109	0.613	0.764	0.496	-175.781
0.138	-1.058	0.076	-1.228	-0.232	-0.252	1.126	0.894	0.950	1.180	0.749	0.722	0.839	0.278	-1.113	-1.339	-2.656	-0.825	-0.572	-1.299	-0.380	-0.423	-0.598	0.760	1.113	0.445	0.645	0.676	-171.875
0.174	-0.986	0.196	-1.279	-0.494	-0.293	0.852	0.731	0.937	1.013	0.878	0.813	0.776	0.207	-0.952	-1.259	-2.178	-0.631	-0.586	-1.139	-0.279	-0.477	-0.528	0.656	1.043	0.268	0.509	0.869	-167.969
0.137	-0.867	0.257	-1.279	-0.755	-0.348	0.531	0.465	0.845	0.818	0.956	0.895	0.730	0.154	-0.742	-1.120	-1.540	-0.422	-0.534	-0.911	-0.162	-0.491	-0.418	0.545	0.908	0.090	0.374	1.054	-164.062
0.055	-0.721	0.260	-1.233	-0.979	-0.407	0.198	0.129	0.696	0.614	0.981	0.958	0.705	0.124	-0.507	-0.930	-0.837	-0.226	-0.413	-0.629	-0.040	-0.463	-0.283	0.440	0.720	-0.084	0.247	1.209	-160.156
-0.032	-0.574	0.217	-1.149	-1.139	-0.460	-0.111	-0.229	0.523	0.424	0.956	0.994	0.697	0.115	-0.270	-0.711	-0.162	-0.064	-0.235	-0.322	0.070	-0.401	-0.144	0.345	0.498	-0.257	0.128	1.317	-156.250
-0.089	-0.449	0.149	-1.043	-1.213	-0.493	-0.366	-0.549	0.365	0.266	0.894	0.994	0.695	0.121	-0.052	-0.487	0.408	0.060	-0.032	-0.027	0.144	-0.326	-0.030	0.254	0.259	-0.429	0.011	1.363	-152.344
-0.088	-0.364	0.083	-0.929	-1.195	-0.493	-0.548	-0.779	0.259	0.155	0.813	0.954	0.684	0.127	0.132	-0.285	0.820	0.147	0.164	0.221	0.163	-0.260	0.033	0.159	0.018	-0.598	-0.115	1.338	-148.438
-0.020	-0.326	0.042	-0.818	-1.090	-0.457	-0.650	-0.879	0.228	0.098	0.728	0.871	0.649	0.120	0.271	-0.126	1.059	0.210	0.320	0.392	0.114	-0.225	0.028	0.050	-0.212	-0.757	-0.257	1.241	-144.531
0.106	-0.326	0.046	-0.717	-0.920	-0.389	-0.681	-0.833	0.284	0.092	0.649	0.749	0.580	0.090	0.366	-0.023	1.138	0.261	0.419	0.468	-0.001	-0.232	-0.045	-0.074	-0.424	-0.893	-0.414	1.078	-140.625
0.265	-0.345	0.104	-0.626	-0.713	-0.301	-0.665	-0.653	0.414	0.123	0.580	0.593	0.466	0.031	0.417	0.025	1.096	0.312	0.458	0.450	-0.167	-0.279	-0.172	-0.208	-0.609	-0.988	-0.577	0.861	-136.719
0.424	-0.356	0.212	-0.538	-0.504	-0.209	-0.630	-0.373	0.591	0.167	0.516	0.412	0.304	-0.055	0.434	0.029	0.984	0.367	0.450	0.354	-0.358	-0.349	-0.326	-0.340	-0.758	-1.026	-0.730	0.608	-132.812
0.549	-0.332	0.358	-0.446	-0.326	-0.130	-0.609	-0.046	0.774	0.195	0.447	0.217	0.094	-0.160	0.425	0.014	0.854	0.428	0.417	0.210	-0.544	-0.415	-0.472	-0.450	-0.862	-0.992	-0.851	0.340	-128.906
0.614	-0.256	0.518	-0.347	-0.205	-0.081	-0.629	0.275	0.921	0.180	0.362	0.018	-0.157	-0.272	0.401	0.009	0.747	0.491	0.383	0.056	-0.694	-0.447	-0.578	-0.519	-0.908	-0.876	-0.920	0.083	-125.000
0.606	-0.130	0.665	-0.243	-0.158	-0.071	-0.706	0.541	0.999	0.101	0.255	-0.173	-0.439	-0.378	0.369	0.036	0.687	0.554	0.367	-0.073	-0.788	-0.419	-0.618	-0.532	-0.886	-0.680	-0.921	-0.144	-121.094
0.530	0.027	0.775	-0.144	-0.189	-0.102	-0.843	0.720	0.986	-0.052	0.124	-0.344	-0.737	-0.467	0.338	0.111	0.678	0.613	0.381	-0.149	-0.816	-0.317	-0.581	-0.483	-0.789	-0.412	-0.848	-0.320	-117.188
0.407	0.180	0.827	-0.066	-0.291	-0.170	-1.029	0.800	0.879	-0.271	-0.022	-0.486	-1.032	-0.536	0.311	0.227	0.709	0.670	0.422	-0.165	-0.783	-0.143	-0.468	-0.375	-0.616	-0.087	-0.704	-0.431	-113.281
0.267	0.287	0.811	-0.024	-0.446	-0.265	-1.241	0.787	0.693	-0.536	-0.168	-0.589	-1.305	-0.586	0.289	0.363	0.755	0.725	0.481	-0.127	-0.705	0.085	-0.295	-0.222	-0.374	0.272	-0.501	-0.472	-109.375
0.142	0.313	0.725	-0.028	-0.626	-0.370	-1.450	0.704	0.455	-0.818	-0.296	-0.648	-1.540	-0.626	0.270	0.485	0.789	0.777	0.542	-0.060	-0.603	0.333	-0.089	-0.047	-0.079	0.644	-0.260	-0.442	-105.469
0.056	0.244	0.580	-0.081	-0.798	-0.466	-1.622	0.580	0.197	-1.079	-0.388	-0.660	-1.721	-0.667	0.246	0.557	0.782	0.821	0.585	0.005	-0.498	0.558	0.119	0.123	0.244	1.001	-0.004	-0.352	-101.562
0.021	0.086	0.394	-0.171	-0.927	-0.531	-1.727	0.446	-0.050	-1.288	-0.432	-0.628	-1.835	-0.715	0.213	0.550	0.719	0.849	0.592	0.039	-0.405	0.720	0.297	0.256	0.564	1.318	0.243	-0.217	-97.656
0.031	-0.131	0.189	-0.278	-0.981	-0.549	-1.743	0.329	-0.261	-1.422	-0.425	-0.557	-1.874	-0.772	0.165	0.450	0.595	0.852	0.548	0.021	-0.332	0.785	0.417	0.331	0.845	1.571	0.457	-0.060	-93.750
0.071	-0.364	-0.010	-0.374	-0.940	-0.508	-1.659	0.245	-0.423	-1.471	-0.371	-0.460	-1.837	-0.832	0.101	0.264	0.419	0.826	0.446	-0.056	-0.282	0.739	0.463	0.331	1.059	1.742	0.621	0.094	-89.844
0.121	-0.567	-0.181	-0.437	-0.797	-0.410	-1.479	0.200	-0.530	-1.438	-0.283	-0.350	-1.726	-0.882	0.024	0.016	0.211	0.767	0.285	-0.184	-0.252	0.587	0.433	0.254	1.184	1.821	0.724	0.226	-85.938
0.163	-0.702	-0.311	-0.449	-0.563	-0.266	-1.218	0.190	-0.586	-1.336	-0.176	-0.240	-1.551	-0.908	-0.058	-0.254	-0.002	0.678	0.078	-0.340	-0.241	0.358	0.337	0.113	1.212	1.808	0.763	0.320	-82.031
0.181	-0.750	-0.394	-0.409	-0.266	-0.096	-0.900	0.206	-0.596	-1.183	-0.064	-0.136	-1.326	-0.897	-0.136	-0.502	-0.193	0.561	-0.153	-0.497	-0.250	0.095	0.201	-0.070	1.151	1.715	0.747	0.374	-78.125
0.166	-0.713	-0.437	-0.323	0.056	0.073	-0.554	0.235	-0.567	-0.995	0.043	-0.040	-1.068	-0.840	-0.200	-0.687	-0.336	0.422	-0.379	-0.622	-0.279	-0.150	0.060	-0.261	1.017	1.561	0.688	0.393	-74.219
0.109	-0.610	-0.454	-0.211	0.361	0.213	-0.207	0.262	-0.506	-0.785	0.137	0.049	-0.797	-0.737	-0.245	-0.777	-0.412	0.267	-0.566	-0.688	-0.327	-0.330	-0.054	-0.426	0.836	1.367	0.606	0.388	-70.312
0.006	-0.469	-0.463	-0.091	0.611	0.304	0.117	0.276	-0.421	-0.559	0.215	0.136	-0.527	-0.590	-0.266	-0.760	-0.413	0.108	-0.691	-0.678	-0.387	-0.410	-0.109	-0.534	0.632	1.154	0.519	0.374	-66.406
-0.145	-0.321	-0.484	0.019	0.783	0.334	0.402	0.268	-0.320	-0.324	0.277	0.226	-0.270	-0.412	-0.263	-0.641	-0.344	-0.043	-0.739	-0.585	-0.445	-0.375	-0.088	-0.567	0.426	0.939	0.444	0.361	-62.500
-0.336	-0.191	-0.530	0.113	0.867	0.305	0.641	0.235	-0.212	-0.082	0.321	0.318	-0.033	-0.212	-0.240	-0.439	-0.222	-0.171	-0.711	-0.413	-0.475	-0.236	0.010	-0.519	0.229	0.730	0.392	0.351	-58.594
-0.549	-0.090	-0.606	0.195	0.874	0.232	0.833	0.176	-0.106	0.158	0.345	0.403	0.180	-0.003	-0.198	-0.183	-0.071	-0.265	-0.620	-0.175	-0.449	-0.021	0.171	-0.400	0.045	0.525	0.364	0.336	-54.688
-0.754	-0.016	-0.704	0.277	0.827	0.139	0.981	0.097	-0.015	0.384	0.344	0.469	0.370	0.203	-0.140	0.093	0.081	-0.322	-0.488	0.109	-0.340	0.230	0.370	-0.233	-0.128	0.318	0.351	0.300	-50.781
-0.915	0.048	-0.807	0.378	0.758	0.057	1.090	0.001	0.050	0.579	0.312	0.496	0.537	0.396	-0.066	0.363	0.210	-0.342	-0.340	0.417	-0.133	0.472	0.572	-0.048	-0.295	0.094	0.336	0.223	-46.875
-0.990	0.123	-0.887	0.515	0.699	0.011	1.163	-0.106	0.075	0.720	0.241	0.466	0.678	0.568	0.024	0.607	0.303	-0.334	-0.197	0.726	0.174	0.665	0.743	0.120	-0.459	-0.159	0.299	0.086	-42.969
-0.951	0.238	-0.912	0.700	0.675	0.024	1.198	-0.223	0.049	0.785	0.121	0.363	0.789	0.710	0.133	0.817	0.359	-0.311	-0.072	1.017	0.561	0.782	0.854	0.240	-0.619	-0.449	0.219	-0.123	-39.062
-0.781	0.412	-0.855	0.935	0.700	0.106	1.189	-0.350	-0.041	0.757	-0.054	0.177	0.863	0.814	0.259	0.992	0.387	-0.280	0.030	1.273	0.992	0.811	0.888	0.291	-0.771	-0.775	0.083	-0.404	-35.156
-0.492	0.657	-0.697	1.209	0.772	0.258	1.127	-0.488	-0.197	0.627	-0.285	-0.088	0.888	0.874	0.400	1.137	0.400	-0.249	0.111	1.480	1.415	0.752	0.848	0.264	-0.908	-1.125	-0.112	-0.743	-31.250
-0.113	0.969	-0.434	1.504	0.878	0.468	1.009	-0.633	-0.414	0.404	-0.561	-0.416	0.856	0.883	0.545	1.259	0.410	-0.217	0.174	1.626	1.777	0.622	0.746	0.160	-1.023	-1.480	-0.357	-1.115	-27.344
0.308	1.330	-0.078	1.793	0.995	0.718	0.835	-0.779	-0.672	0.110	-0.862	-0.779	0.762	0.835	0.683	1.366	0.423	-0.179	0.223	1.706	2.029	0.440	0.609	-0.007	-1.112	-1.812	-0.632	-1.488	-23.438
0.716	1.710	0.342	2.050	1.099	0.983	0.617	-0.910	-0.939	-0.219	-1.155	-1.140	0.604	0.725	0.798	1.460	0.437	-0.129	0.254	1.715	2.134	0.228	0.462	-0.216	-1.174	-2.095	-0.912	-1.824	-19.531
1.061	2.071	0.787	2.252	1.167	1.237	0.375	-1.003	-1.174	-0.536	-1.404	-1.459	0.393	0.552	0.880	1.543	0.446	-0.062	0.260	1.658	2.081	0.004	0.325	-0.444	-1.213	-2.303	-1.165	-2.091	-15.625
1.308	2.373	1.210	2.382	1.186	1.456	0.131	-1.036	-1.337	-0.801	-1.579	-1.702	0.142	0.324	0.919	1.614	0.445	0.021	0.232	1.543	1.877	-0.217	0.210	-0.666	-1.231	-2.423	-1.364	-2.260	-11.719
1.440	2.584	1.565	2.435	1.152	1.619	-0.093	-0.995	-1.397	-0.983	-1.658	-1.843	-0.127	0.053	0.916	1.672	0.431	0.112	0.163	1.388	1.555	-0.422	0.118	-0.864	-1.231	-2.446	-1.491	-2.318	-7.812
1.462	2.686	1.815	2.411	1.071	1.714	-0.283	-0.873	-1.344	-1.074	-1.640	-1.874	-0.392	-0.236	0.876	1.720	0.410	0.195	0.058	1.220	1.166	-0.599	0.044	-1.023	-1.215	-2.379	-1.534	-2.262	-3.906
1.391	2.679	1.932	2.324	0.957	1.740	-0.435	-0.684	-1.189	-1.086	-1.540	-1.805	-0.630	-0.512	0.809	1.762	0.390	0.253	-0.072	1.067	0.769	-0.738	-0.016	-1.135	-1.181	-2.238	-1.499	-2.104	0.000
1.255	2.578	1.904	2.189	0.831	1.703	-0.554	-0.452	-0.964	-1.045	-1.392	-1.660	-0.826	-0.740	0.729	1.805	0.381	0.271	-0.207	0.959	0.424	-0.827	-0.064	-1.200	-1.130	-2.045	-1.401	-1.867	3.906
1.080	2.413	1.739	2.029	0.714	1.621	-0.649	-0.212	-0.715	-0.989	-1.234	-1.473	-0.967	-0.890	0.646	1.859	0.383	0.244	-0.327	0.918	0.179	-0.860	-0.099	-1.222	-1.063	-1.831	-1.266	-1.586	7.812
0.893	2.217	1.458	1.862	0.625	1.516	-0.728	0.002	-0.489	-0.951	-1.103	-1.279	-1.051	-0.945	0.571	1.925	0.392	0.175	-0.416	0.954	0.060	-0.840	-0.116	-1.212	-0.985	-1.624	-1.123	-1.295	11.719
0.717	2.018	1.101	1.705	0.577	1.413	-0.793	0.162	-0.322	-0.949	-1.022	-1.109	-1.078	-0.901	0.505	2.002	0.393	0.077	-0.470	1.061	0.066	-0.776	-0.111	-1.184	-0.905	-1.450	-0.998	-1.027	15.625
0.570	1.833	0.718	1.566	0.576	1.330	-0.840	0.258	-0.233	-0.985	-0.996	-0.980	-1.055	-0.777	0.450	2.080	0.370	-0.035	-0.498	1.217	0.167	-0.688	-0.086	-1.147	-0.837	-1.330	-0.907	-0.805	19.531
0.466	1.667	0.359	1.446	0.617	1.279	-0.855	0.296	-0.218	-1.042	-1.009	-0.893	-0.990	-0.602	0.403	2.143	0.308	-0.148	-0.512	1.388	0.313	-0.599	-0.046	-1.112	-0.797	-1.276	-0.858	-0.641	23.438
0.412	1.512	0.069	1.339	0.686	1.262	-0.821	0.298	-0.255	-1.088	-1.032	-0.837	-0.893	-0.415	0.360	2.173	0.204	-0.249	-0.531	1.534	0.444	-0.530	-0.004	-1.078	-0.798	-1.292	-0.846	-0.535	27.344
0.407	1.355	-0.126	1.235	0.763	1.270	-0.722	0.292	-0.308	-1.086	-1.028	-0.791	-0.769	-0.253	0.320	2.156	0.063	-0.333	-0.566	1.618	0.506	-0.499	0.025	-1.045	-0.848	-1.373	-0.857	-0.473	31.250
0.438	1.186	-0.223	1.122	0.826	1.286	-0.548	0.305	-0.342	-1.002	-0.964	-0.726	-0.625	-0.143	0.280	2.084	-0.097	-0.400	-0.622	1.615	0.458	-0.514	0.025	-1.005	-0.947	-1.508	-0.872	-0.438	35.156
0.483	1.003	-0.242	0.995	0.855	1.292	-0.298	0.355	-0.328	-0.813	-0.819	-0.621	-0.465	-0.102	0.240	1.956	-0.250	-0.456	-0.695	1.512	0.287	-0.575	-0.016	-0.952	-1.085	-1.680	-0.873	-0.407	39.062
0.514	0.814	-0.216	0.856	0.837	1.270	0.020	0.448	-0.250	-0.515	-0.584	-0.460	-0.296	-0.131	0.198	1.778	-0.375	-0.512	-0.781	1.313	0.006	-0.675	-0.106	-0.884	-1.247	-1.867	-0.844	-0.363	42.969
0.507	0.636	-0.185	0.711	0.771	1.209	0.389	0.577	-0.103	-0.121	-0.270	-0.239	-0.128	-0.218	0.151	1.563	-0.459	-0.578	-0.871	1.039	-0.351	-0.802	-0.245	-0.802	-1.413	-2.044	-0.779	-0.291	46.875
0.441	0.485	-0.179	0.573	0.665	1.107	0.784	0.725	0.102	0.337	0.097	0.031	0.027	-0.348	0.097	1.326	-0.502	-0.659	-0.961	0.717	-0.736	-0.948	-0.428	-0.714	-1.565	-2.181	-0.675	-0.189	50.781
0.312	0.369	-0.215	0.449	0.536	0.974	1.180	0.872	0.351	0.816	0.479	0.329	0.153	-0.501	0.030	1.078	-0.518	-0.754	-1.054	0.381	-1.099	-1.104	-0.642	-0.627	-1.686	-2.244	-0.535	-0.057	54.688
0.129	0.289	-0.291	0.343	0.403	0.827	1.547	1.001	0.627	1.268	0.833	0.625	0.231	-0.661	-0.054	0.828	-0.534	-0.856	-1.155	0.060	-1.402	-1.260	-0.874	-0.547	-1.765	-2.198	-0.358	0.098	58.594
-0.089	0.231	-0.391	0.250	0.285	0.687	1.860	1.099	0.915	1.647	1.114	0.888	0.247	-0.814	-0.155	0.581	-0.576	-0.954	-1.270	-0.223	-1.621	-1.409	-1.104	-0.472	-1.789	-2.010	-0.145	0.268	62.500
-0.317	0.175	-0.492	0.158	0.192	0.572	2.102	1.165	1.206	1.921	1.285	1.091	0.189	-0.953	-0.275	0.336	-0.665	-1.039	-1.404	-0.458	-1.748	-1.539	-1.315	-0.392	-1.746	-1.652	0.111	0.448	66.406
-0.536	0.098	-0.575	0.057	0.131	0.494	2.261	1.204	1.498	2.073	1.318	1.217	0.055	-1.072	-0.417	0.089	-0.813	-1.110	-1.555	-0.644	-1.794	-1.635	-1.486	-0.290	-1.625	-1.107	0.421	0.634	70.312
-0.741	-0.019	-0.626	-0.066	0.097	0.454	2.342	1.227	1.795	2.110	1.209	1.264	-0.145	-1.168	-0.582	-0.169	-1.020	-1.179	-1.714	-0.792	-1.781	-1.682	-1.600	-0.144	-1.411	-0.372	0.795	0.825	74.219
-0.941	-0.187	-0.648	-0.217	0.083	0.444	2.360	1.253	2.104	2.063	0.974	1.248	-0.390	-1.240	-0.779	-0.443	-1.279	-1.268	-1.868	-0.921	-1.735	-1.668	-1.645	0.070	-1.095	0.543	1.244	1.023	78.125
-1.162	-0.406	-0.655	-0.398	0.079	0.446	2.345	1.302	2.438	1.983	0.652	1.198	-0.649	-1.285	-1.017	-0.743	-1.581	-1.406	-2.003	-1.050	-1.685	-1.589	-1.618	0.367	-0.674	1.613	1.770	1.235	82.031
-1.437	-0.667	-0.675	-0.607	0.072	0.436	2.337	1.399	2.811	1.933	0.300	1.157	-0.885	-1.305	-1.307	-1.073	-1.918	-1.624	-2.104	-1.202	-1.653	-1.451	-1.530	0.753	-0.156	2.806	2.371	1.466	85.938
-1.806	-0.956	-0.741	-0.844	0.052	0.391	2.377	1.564	3.239	1.981	-0.014	1.170	-1.065	-1.301	-1.657	-1.437	-2.282	-1.941	-2.164	-1.395	-1.660	-1.273	-1.403	1.222	0.436	4.084	3.032	1.725	89.844
-2.295	-1.258	-0.883	-1.108	0.009	0.290	2.502	1.816	3.732	2.179	-0.223	1.280	-1.160	-1.284	-2.071	-1.831	-2.667	-2.365	-2.182	-1.639	-1.718	-1.084	-1.273	1.753	1.074	5.410	3.734	2.022	93.750
-2.920	-1.562	-1.122	-1.400	-0.068	0.118	2.732	2.166	4.296	2.556	-0.275	1.516	-1.157	-1.269	-2.543	-2.248	-3.061	-2.885	-2.169	-1.941	-1.833	-0.919	-1.173	2.317	1.726	6.748	4.456	2.367	97.656
-3.673	-1.866	-1.464	-1.725	-0.190	-0.130	3.064	2.614	4.927	3.109	-0.141	1.890	-1.059	-1.275	-3.061	-2.676	-3.452	-3.473	-2.147	-2.296	-2.008	-0.811	-1.136	2.877	2.364	8.067	5.173	2.768	101.562
-4.526	-2.170	-1.899	-2.088	-0.366	-0.452	3.471	3.147	5.612	3.802	0.183	2.396	-0.881	-1.323	-3.605	-3.099	-3.824	-4.090	-2.148	-2.694	-2.239	-0.786	-1.182	3.401	2.974	9.342	5.866	3.231	105.469
-5.435	-2.480	-2.402	-2.490	-0.605	-0.839	3.906	3.741	6.330	4.570	0.674	3.009	-0.654	-1.428	-4.154	-3.503	-4.166	-4.692	-2.207	-3.116	-2.516	-0.860	-1.311	3.858	3.548	10.551	6.519	3.759	109.375
-6.343	-2.803	-2.937	-2.928	-0.911	-1.276	4.312	4.361	7.053	5.340	1.297	3.695	-0.411	-1.594	-4.685	-3.877	-4.474	-5.240	-2.357	-3.539	-2.824	-1.031	-1.510	4.229	4.087	11.674	7.120	4.348	113.281
-7.194	-3.142	-3.467	-3.394	-1.279	-1.743	4.633	4.970	7.753	6.040	2.008	4.418	-0.188	-1.815	-5.183	-4.212	-4.754	-5.703	-2.612	-3.940	-3.140	-1.285	-1.753	4.506	4.594	12.692	7.662	4.994	117.188
-7.937	-3.496	-3.958	-3.870	-1.696	-2.219	4.828	5.530	8.407	6.619	2.767	5.147	-0.011	-2.069	-5.635	-4.506	-5.022	-6.067	-2.968	-4.294	-3.437	-1.597	-2.009	4.689	5.066	13.585	8.141	5.688	121.094
-8.538	-3.859	-4.388	-4.333	-2.138	-2.678	4.882	6.009	8.999	7.056	3.548	5.867	0.105	-2.329	-6.035	-4.760	-5.295	-6.335	-3.402	-4.584	-3.688	-1.938	-2.252	4.788	5.493	14.339	8.555	6.422	125.000
-8.978	-4.219	-4.750	-4.757	-2.576	-3.096	4.803	6.386	9.523	7.360	4.335	6.572	0.157	-2.565	-6.382	-4.981	-5.591	-6.525	-3.871	-4.802	-3.875	-2.280	-2.466	4.815	5.859	14.943	8.904	7.191	128.906
-9.260	-4.565	-5.052	-5.118	-2.975	-3.448	4.624	6.654	9.982	7.567	5.130	7.274	0.152	-2.755	-6.678	-5.177	-5.916	-6.662	-4.331	-4.952	-3.992	-2.603	-2.649	4.787	6.147	15.398	9.192	7.994	132.812
-9.402	-4.887	-5.313	-5.400	-3.304	-3.712	4.393	6.820	10.389	7.734	5.939	7.989	0.103	-2.888	-6.926	-5.362	-6.262	-6.776	-4.744	-5.052	-4.055	-2.900	-2.813	4.717	6.342	15.721	9.428	8.835	136.719
-9.435	-5.181	-5.556	-5.599	-3.542	-3.875	4.161	6.904	10.767	7.920	6.779	8.740	0.024	-2.970	-7.132	-5.552	-6.612	-6.895	-5.087	-5.135	-4.097	-3.176	-2.976	4.617	6.444	15.945	9.625	9.718	140.625
-9.399	-5.448	-5.803	-5.726	-3.685	-3.936	3.976	6.941	11.145	8.181	7.666	9.545	-0.076	-3.028	-7.307	-5.770	-6.947	-7.036	-5.364	-5.246	-4.172	-3.449	-3.163	4.493	6.462	16.120	9.802	10.650	144.531
-9.340	-5.698	-6.068	-5.809	-3.746	-3.906	3.873	6.975	11.559	8.559	8.616	10.418	-0.194	-3.097	-7.469	-6.043	-7.257	-7.207	-5.599	-5.433	-4.341	-3.748	-3.396	4.350	6.423	16.306	9.981	11.640	148.438
-9.306	-5.947	-6.355	-5.883	-3.752	-3.814	3.875	7.052	12.046	9.074	9.641	11.367	-0.334	-3.225	-7.639	-6.397	-7.547	-7.400	-5.836	-5.742	-4.661	-4.103	-3.691	4.190	6.367	16.566	10.188	12.691	152.344
-9.340	-6.210	-6.662	-5.989	-3.740	-3.699	3.991	7.218	12.636	9.732	10.746	12.388	-0.502	-3.454	-7.847	-6.853	-7.847	-7.598	-6.126	-6.208	-5.172	-4.544	-4.057	4.016	6.335	16.952	10.448	13.806	156.250
-9.478	-6.501	-6.981	-6.165	-3.750	-3.606	4.217	7.505	13.346	10.517	11.925	13.474	-0.703	-3.815	-8.120	-7.420	-8.199	-7.780	-6.514	-6.842	-5.885	-5.088	-4.496	3.835	6.369	17.500	10.788	14.982	160.156
-9.744	-6.823	-7.304	-6.435	-3.815	-3.573	4.542	7.929	14.176	11.401	13.163	14.610	-0.938	-4.317	-8.475	-8.092	-8.646	-7.932	-7.027	-7.630	-6.779	-5.734	-4.996	3.658	6.498	18.220	11.226	16.211	164.062
-10.145	-7.172	-7.627	-6.807	-3.952	-3.627	4.946	8.484	15.106	12.349	14.431	15.776	-1.199	-4.947	-8.922	-8.843	-9.218	-8.048	-7.664	-8.534	-7.800	-6.462	-5.540	3.500	6.732	19.090	11.776	17.474	167.969
-10.675	-7.533	-7.951	-7.274	-4.164	-3.777	5.410	9.144	16.100	13.325	15.695	16.948	-1.468	-5.666	-9.452	-9.630	-9.917	-8.143	-8.396	-9.491	-8.874	-7.229	-6.101	3.379	7.060	20.067	12.438	18.746	171.875
-11.313	-7.888	-8.279	-7.810	-4.431	-4.006	5.911	9.866	17.110	14.297	16.913	18.101	-1.719	-6.417	-10.040	-10.400	-10.712	-8.240	-9.170	-10.431	-9.914	-7.979	-6.649	3.313	7.452	21.084	13.200	19.991	175.781
-12.022	-8.222	-8.613	-8.379	-4.721	-4.283	6.431	10.599	18.084	15.237	18.045	19.206	-1.923	-7.130	-10.651	-11.104	-11.543	-8.371	-9.922	-11.283	-10.840	-8.649	-7.153	3.316	7.859	22.070	14.038	21.167	179.688
-12.760	-8.526	-8.953	-8.939	-4.991	-4.560	6.955	11.292	18.974	16.125	19.047	20.229	-2.048	-7.733	-11.240	-11.700	-12.338	-8.560	-10.592	-11.988	-11.588	-9.183	-7.591	3.397	8.231	22.954	14.917	22.229	183.594
-13.474	-8.799	-9.290	-9.448	-5.196	-4.790	7.469	11.902	19.740	16.946	19.881	21.138	-2.068	-8.164	-11.764	-12.165	-13.028	-8.818	-11.134	-12.510	-12.121	-9.539	-7.946	3.557	8.520	23.682	15.794	23.131	187.500
-14.114	-9.046	-9.610	-9.868	-5.298	-4.931	7.966	12.402	20.354	17.685	20.517	21.896	-1.969	-8.380	-12.190	-12.499	-13.563	-9.141	-11.525	-12.838	-12.428	-9.697	-8.213	3.790	8.687	24.214	16.622	23.833	191.406
-14.637	-9.273	-9.891	-10.169	-5.271	-4.955	8.442	12.778	20.802	18.328	20.930	22.471	-1.745	-8.361	-12.492	-12.714	-13.916	-9.502	-11.766	-12.981	-12.521	-9.662	-8.398	4.081	8.716	24.535	17.354	24.304	195.312
-15.011	-9.481	-10.113	-10.333	-5.104	-4.850	8.891	13.035	21.081	18.860	21.108	22.833	-1.409	-8.113	-12.660	-12.835	-14.090	-9.864	-11.877	-12.969	-12.430	-9.458	-8.509	4.412	8.606	24.647	17.944	24.524	199.219
-15.224	-9.664	-10.262	-10.353	-4.804	-4.624	9.313	13.189	21.199	19.264	21.049	22.963	-0.981	-7.666	-12.698	-12.887	-14.106	-10.182	-11.887	-12.839	-12.197	-9.124	-8.553	4.761	8.378	24.564	18.352	24.485	203.125
-15.279	-9.806	-10.328	-10.233	-4.396	-4.302	9.701	13.262	21.173	19.521	20.764	22.851	-0.494	-7.067	-12.621	-12.890	-14.000	-10.417	-11.826	-12.629	-11.864	-8.703	-8.533	5.104	8.069	24.312	18.550	24.190	207.031
-15.192	-9.885	-10.313	-9.991	-3.917	-3.919	10.048	13.282	21.025	19.618	20.274	22.500	0.017	-6.372	-12.452	-12.856	-13.812	-10.542	-11.717	-12.371	-11.470	-8.236	-8.446	5.421	7.725	23.919	18.523	23.659	210.938
-14.994	-9.881	-10.226	-9.652	-3.413	-3.521	10.343	13.269	20.778	19.547	19.608	21.932	0.520	-5.637	-12.219	-12.787	-13.581	-10.549	-11.570	-12.088	-11.046	-7.753	-8.281	5.692	7.394	23.418	18.273	22.923	214.844
-14.719	-9.783	-10.083	-9.253	-2.934	-3.151	10.574	13.239	20.458	19.309	18.806	21.179	0.985	-4.910	-11.953	-12.682	-13.340	-10.451	-11.385	-11.793	-10.614	-7.274	-8.030	5.907	7.122	22.847	17.823	22.026	218.750
-14.404	-9.594	-9.908	-8.832	-2.520	-2.846	10.726	13.200	20.085	18.918	17.911	20.292	1.393	-4.232	-11.683	-12.539	-13.113	-10.272	-11.154	-11.491	-10.186	-6.810	-7.692	6.061	6.943	22.245	17.214	21.023	222.656
-14.085	-9.335	-9.730	-8.431	-2.203	-2.632	10.791	13.153	19.684	18.400	16.972	19.327	1.734	-3.629	-11.432	-12.358	-12.916	-10.046	-10.873	-11.186	-9.768	-6.368	-7.279	6.158	6.877	21.656	16.501	19.978	226.562
-13.790	-9.042	-9.574	-8.083	-1.995	-2.514	10.765	13.098	19.275	17.793	16.038	18.348	2.004	-3.117	-11.216	-12.149	-12.750	-9.808	-10.545	-10.883	-9.367	-5.950	-6.812	6.210	6.926	21.122	15.747	18.953	230.469
-13.541	-8.756	-9.463	-7.815	-1.891	-2.483	10.656	13.035	18.883	17.144	15.157	17.414	2.208	-2.706	-11.042	-11.924	-12.611	-9.581	-10.191	-10.593	-8.991	-5.563	-6.328	6.231	7.071	20.678	15.016	18.006	234.375
-13.356	-8.520	-9.406	-7.639	-1.869	-2.512	10.481	12.971	18.533	16.505	14.371	16.579	2.351	-2.399	-10.909	-11.701	-12.485	-9.381	-9.846	-10.335	-8.656	-5.220	-5.868	6.239	7.283	20.352	14.360	17.183	238.281
-13.239	-8.363	-9.398	-7.554	-1.894	-2.568	10.271	12.923	18.255	15.929	13.718	15.879	2.437	-2.197	-10.814	-11.504	-12.358	-9.212	-9.559	-10.136	-8.384	-4.936	-5.476	6.247	7.520	20.151	13.820	16.513	242.188
-13.189	-8.299	-9.417	-7.547	-1.928	-2.613	10.063	12.914	18.075	15.459	13.224	15.339	2.473	-2.101	-10.751	-11.351	-12.224	-9.074	-9.380	-10.021	-8.198	-4.733	-5.186	6.264	7.739	20.070	13.413	16.008	246.094
-13.194	-8.325	-9.433	-7.595	-1.934	-2.614	9.897	12.972	18.017	15.131	12.900	14.963	2.462	-2.108	-10.716	-11.261	-12.082	-8.967	-9.347	-10.014	-8.121	-4.628	-5.023	6.289	7.901	20.084	13.138	15.663	250.000
-13.241	-8.417	-9.414	-7.672	-1.884	-2.547	9.808	13.121	18.094	14.967	12.748	14.743	2.410	-2.211	-10.708	-11.242	-11.944	-8.898	-9.476	-10.128	-8.165	-4.633	-4.991	6.317	7.977	20.156	12.976	15.456	253.906
-13.311	-8.542	-9.340	-7.754	-1.765	-2.404	9.824	13.376	18.306	14.972	12.751	14.658	2.324	-2.393	-10.729	-11.294	-11.823	-8.876	-9.749	-10.362	-8.326	-4.749	-5.078	6.335	7.952	20.246	12.899	15.357	257.812
-13.387	-8.663	-9.209	-7.820	-1.578	-2.190	9.957	13.738	18.639	15.141	12.882	14.680	2.218	-2.626	-10.778	-11.408	-11.739	-8.917	-10.126	-10.699	-8.583	-4.967	-5.258	6.331	7.827	20.314	12.876	15.331	261.719
-13.458	-8.751	-9.039	-7.862	-1.342	-1.924	10.206	14.192	19.062	15.455	13.105	14.780	2.109	-2.876	-10.857	-11.571	-11.708	-9.033	-10.550	-11.105	-8.902	-5.265	-5.496	6.294	7.617	20.331	12.880	15.345	265.625
-13.517	-8.789	-8.861	-7.878	-1.081	-1.637	10.557	14.706	19.534	15.888	13.384	14.933	2.018	-3.100	-10.964	-11.763	-11.743	-9.229	-10.961	-11.541	-9.236	-5.614	-5.757	6.223	7.349	20.282	12.892	15.374	269.531
-13.566	-8.778	-8.716	-7.875	-0.824	-1.355	10.984	15.245	20.013	16.408	13.681	15.117	1.966	-3.259	-11.097	-11.969	-11.853	-9.500	-11.312	-11.961	-9.540	-5.985	-6.010	6.121	7.055	20.165	12.905	15.403	273.438
-13.614	-8.733	-8.639	-7.861	-0.592	-1.105	11.458	15.768	20.459	16.981	13.970	15.317	1.975	-3.318	-11.250	-12.175	-12.042	-9.831	-11.577	-12.325	-9.772	-6.348	-6.238	6.000	6.767	19.987	12.919	15.426	277.344
-13.674	-8.676	-8.652	-7.847	-0.401	-0.901	11.949	16.244	20.845	17.571	14.235	15.525	2.059	-3.255	-11.420	-12.371	-12.303	-10.196	-11.749	-12.602	-9.906	-6.678	-6.433	5.873	6.510	19.766	12.938	15.444	281.250
-13.761	-8.631	-8.756	-7.838	-0.253	-0.748	12.427	16.648	21.159	18.140	14.467	15.735	2.229	-3.067	-11.600	-12.550	-12.623	-10.562	-11.843	-12.775	-9.934	-6.957	-6.596	5.757	6.301	19.517	12.969	15.463	285.156
-13.885	-8.615	-8.937	-7.837	-0.144	-0.642	12.869	16.963	21.398	18.655	14.668	15.943	2.480	-2.767	-11.780	-12.707	-12.977	-10.893	-11.881	-12.838	-9.864	-7.171	-6.735	5.665	6.148	19.257	13.014	15.490	289.062
-14.048	-8.635	-9.163	-7.846	-0.068	-0.576	13.253	17.181	21.567	19.082	14.839	16.142	2.801	-2.383	-11.946	-12.833	-13.328	-11.147	-11.889	-12.801	-9.720	-7.315	-6.858	5.607	6.053	18.999	13.076	15.531	292.969
-14.242	-8.688	-9.400	-7.865	-0.017	-0.545	13.562	17.291	21.670	19.392	14.980	16.323	3.169	-1.955	-12.078	-12.923	-13.634	-11.293	-11.887	-12.680	-9.529	-7.384	-6.970	5.590	6.008	18.752	13.153	15.584	296.875
-14.450	-8.759	-9.618	-7.896	0.011	-0.545	13.778	17.286	21.704	19.560	15.088	16.473	3.557	-1.526	-12.157	-12.969	-13.848	-11.307	-11.882	-12.493	-9.320	-7.380	-7.068	5.617	6.004	18.524	13.240	15.643	300.781
-14.641	-8.831	-9.798	-7.939	0.015	-0.576	13.890	17.158	21.663	19.568	15.153	16.578	3.933	-1.133	-12.162	-12.966	-13.930	-11.185	-11.865	-12.258	-9.110	-7.302	-7.142	5.689	6.026	18.320	13.333	15.696	304.688
-14.783	-8.883	-9.932	-7.991	-0.005	-0.643	13.890	16.901	21.529	19.411	15.160	16.623	4.271	-0.802	-12.079	-12.911	-13.852	-10.947	-11.820	-11.988	-8.902	-7.149	-7.176	5.808	6.058	18.143	13.427	15.728	308.594
-14.846	-8.899	-10.023	-8.045	-0.048	-0.746	13.779	16.516	21.288	19.093	15.093	16.597	4.550	-0.544	-11.905	-12.801	-13.609	-10.630	-11.722	-11.688	-8.683	-6.922	-7.149	5.973	6.084	17.993	13.516	15.723	312.500
-14.807	-8.867	-10.083	-8.088	-0.107	-0.884	13.568	16.013	20.926	18.633	14.937	16.493	4.760	-0.355	-11.645	-12.637	-13.216	-10.285	-11.551	-11.355	-8.433	-6.625	-7.048	6.180	6.092	17.865	13.597	15.669	316.406
-14.662	-8.784	-10.119	-8.105	-0.167	-1.048	13.280	15.415	20.442	18.063	14.686	16.312	4.905	-0.215	-11.318	-12.421	-12.709	-9.961	-11.297	-10.988	-8.125	-6.270	-6.864	6.422	6.075	17.748	13.664	15.557	320.312
-14.422	-8.652	-10.139	-8.076	-0.214	-1.224	12.948	14.755	19.852	17.429	14.345	16.065	4.994	-0.101	-10.948	-12.158	-12.139	-9.695	-10.964	-10.584	-7.746	-5.875	-6.602	6.685	6.036	17.625	13.714	15.389	324.219
-14.121	-8.478	-10.146	-7.987	-0.229	-1.395	12.612	14.072	19.186	16.784	13.934	15.771	5.046	0.013	-10.566	-11.852	-11.559	-9.506	-10.568	-10.148	-7.296	-5.466	-6.282	6.950	5.984	17.478	13.742	15.172	328.125
-13.803	-8.274	-10.141	-7.832	-0.201	-1.545	12.310	13.408	18.487	16.183	13.486	15.458	5.080	0.148	-10.198	-11.509	-11.013	-9.395	-10.131	-9.690	-6.796	-5.074	-5.932	7.195	5.933	17.294	13.748	14.926	332.031
-13.524	-8.054	-10.128	-7.613	-0.130	-1.663	12.074	12.799	17.804	15.677	13.044	15.162	5.112	0.311	-9.870	-11.135	-10.533	-9.344	-9.677	-9.228	-6.284	-4.725	-5.584	7.403	5.902	17.070	13.734	14.675	335.938
-13.334	-7.832	-10.115	-7.345	-0.023	-1.744	11.924	12.271	17.187	15.302	12.652	14.915	5.153	0.500	-9.597	-10.736	-10.129	-9.328	-9.226	-8.784	-5.809	-4.439	-5.269	7.560	5.905	16.814	13.707	14.452	339.844
-13.276	-7.619	-10.120	-7.050	0.101	-1.791	11.866	11.841	16.672	15.073	12.350	14.749	5.205	0.699	-9.390	-10.317	-9.803	-9.326	-8.790	-8.378	-5.420	-4.224	-5.013	7.666	5.953	16.547	13.677	14.286	343.750
-13.374	-7.424	-10.162	-6.754	0.222	-1.806	11.892	11.512	16.282	14.985	12.159	14.680	5.268	0.891	-9.252	-9.887	-9.544	-9.322	-8.377	-8.027	-5.154	-4.075	-4.832	7.728	6.049	16.293	13.657	14.199	347.656
-13.629	-7.249	-10.261	-6.480	0.320	-1.794	11.982	11.276	16.024	15.006	12.077	14.709	5.335	1.056	-9.179	-9.457	-9.340	-9.311	-7.994	-7.739	-5.029	-3.974	-4.731	7.761	6.186	16.072	13.657	14.198	351.562
-14.018	-7.089	-10.424	-6.243	0.388	-1.756	12.113	11.121	15.884	15.090	12.078	14.809	5.399	1.185	-9.163	-9.040	-9.179	-9.293	-7.644	-7.511	-5.034	-3.897	-4.707	7.784	6.355	15.894	13.682	14.267	355.469
-14.497	-6.935	-10.645	-6.042	0.427	-1.687	12.256	11.027	15.834	15.178	12.108	14.934	5.455	1.280	-9.189	-8.650	-9.051	-9.270	-7.332	-7.329	-5.138	-3.817	-4.749	7.813	6.540	15.754	13.725	14.367	359.375
-15.007	-6.776	-10.897	-5.865	0.452	-1.580	12.387	10.977	15.836	15.209	12.095	15.015	5.496	1.350	-9.236	-8.295	-8.949	-9.241	-7.060	-7.169	-5.288	-3.709	-4.838	7.857	6.725	15.632	13.771	14.433	363.281
-15.483	-6.600	-11.129	-5.691	0.487	-1.426	12.488	10.956	15.849	15.131	11.959	14.974	5.518	1.416	-9.281	-7.975	-8.862	-9.197	-6.828	-7.000	-5.421	-3.556	-4.950	7.917	6.893	15.503	13.794	14.388	367.188
-15.864	-6.397	-11.281	-5.494	0.558	-1.215	12.544	10.952	15.833	14.907	11.628	14.736	5.515	1.495	-9.298	-7.683	-8.776	-9.122	-6.628	-6.794	-5.477	-3.348	-5.055	7.984	7.030	15.334	13.760	14.153	371.094
-16.105	-6.162	-11.287	-5.253	0.684	-0.946	12.550	10.959	15.755	14.524	11.056	14.245	5.481	1.599	-9.268	-7.402	-8.675	-9.001	-6.450	-6.528	-5.411	-3.085	-5.123	8.044	7.129	15.103	13.638	13.664	375.000
-16.182	-5.895	-11.096	-4.958	0.872	-0.623	12.506	10.977	15.601	13.995	10.231	13.478	5.410	1.727	-9.177	-7.112	-8.542	-8.821	-6.284	-6.193	-5.199	-2.776	-5.128	8.078	7.188	14.795	13.399	12.886	378.906
-16.088	-5.601	-10.682	-4.617	1.111	-0.261	12.421	11.007	15.373	13.360	9.190	12.455	5.295	1.865	-9.022	-6.796	-8.369	-8.579	-6.121	-5.798	-4.848	-2.439	-5.050	8.065	7.207	14.411	13.026	11.831	382.812
-15.837	-5.295	-10.057	-4.249	1.379	0.117	12.304	11.057	15.092	12.679	8.011	11.239	5.131	1.988	-8.813	-6.451	-8.157	-8.280	-5.958	-5.370	-4.391	-2.097	-4.879	7.992	7.195	13.962	12.516	10.551	386.719
-15.454	-4.995	-9.268	-3.889	1.640	0.486	12.169	11.133	14.797	12.020	6.807	9.926	4.917	2.066	-8.566	-6.086	-7.921	-7.939	-5.802	-4.950	-3.882	-1.776	-4.618	7.849	7.156	13.466	11.884	9.141	390.625
-14.966	-4.723	-8.390	-3.576	1.856	0.821	12.030	11.242	14.533	11.449	5.702	8.631	4.653	2.072	-8.303	-5.726	-7.686	-7.575	-5.664	-4.585	-3.384	-1.502	-4.283	7.636	7.092	12.946	11.154	7.713	394.531
-14.409	-4.495	-7.507	-3.343	1.998	1.102	11.898	11.387	14.347	11.014	4.805	7.460	4.345	1.985	-8.046	-5.404	-7.482	-7.208	-5.557	-4.318	-2.957	-1.291	-3.896	7.363	7.003	12.425	10.360	6.382	398.438
-13.814	-4.322	-6.698	-3.213	2.045	1.321	11.776	11.567	14.272	10.733	4.188	6.490	3.999	1.803	-7.814	-5.150	-7.330	-6.855	-5.486	-4.180	-2.644	-1.151	-3.483	7.045	6.879	11.917	9.536	5.233	402.344
-13.216	-4.204	-6.019	-3.186	1.995	1.476	11.665	11.774	14.320	10.593	3.866	5.755	3.624	1.537	-7.618	-4.985	-7.240	-6.527	-5.446	-4.177	-2.463	-1.076	-3.068	6.702	6.713	11.435	8.714	4.313	406.250
-12.647	-4.127	-5.495	-3.243	1.864	1.577	11.558	11.995	14.477	10.547	3.795	5.237	3.229	1.213	-7.462	-4.907	-7.198	-6.231	-5.418	-4.290	-2.404	-1.045	-2.671	6.356	6.498	10.983	7.915	3.618	410.156
-12.134	-4.068	-5.118	-3.349	1.682	1.642	11.442	12.206	14.700	10.524	3.882	4.876	2.820	0.871	-7.337	-4.899	-7.175	-5.970	-5.374	-4.477	-2.432	-1.030	-2.306	6.027	6.234	10.558	7.154	3.101	414.062
-11.694	-3.999	-4.854	-3.454	1.488	1.688	11.305	12.384	14.932	10.450	4.007	4.588	2.408	0.553	-7.231	-4.927	-7.132	-5.744	-5.281	-4.682	-2.499	-0.997	-1.980	5.733	5.926	10.157	6.439	2.693	417.969
-11.330	-3.897	-4.656	-3.512	1.322	1.732	11.133	12.502	15.108	10.260	4.055	4.290	1.999	0.301	-7.125	-4.953	-7.028	-5.547	-5.112	-4.848	-2.553	-0.918	-1.696	5.482	5.587	9.770	5.771	2.319	421.875
-11.028	-3.745	-4.476	-3.485	1.220	1.786	10.918	12.539	15.174	9.913	3.939	3.918	1.605	0.146	-6.999	-4.945	-6.838	-5.370	-4.855	-4.929	-2.554	-0.775	-1.454	5.279	5.232	9.386	5.154	1.923	425.781
-10.762	-3.546	-4.275	-3.352	1.205	1.857	10.654	12.480	15.095	9.400	3.620	3.441	1.238	0.103	-6.838	-4.887	-6.554	-5.197	-4.518	-4.898	-2.481	-0.563	-1.254	5.118	4.879	8.995	4.589	1.475	429.688
-10.497	-3.312	-4.030	-3.116	1.288	1.946	10.343	12.321	14.863	8.748	3.110	2.868	0.912	0.171	-6.635	-4.779	-6.195	-5.010	-4.128	-4.755	-2.335	-0.292	-1.094	4.991	4.541	8.587	4.078	0.983	433.594
-10.201	-3.071	-3.739	-2.799	1.465	2.051	9.994	12.066	14.495	8.008	2.470	2.239	0.639	0.335	-6.387	-4.639	-5.795	-4.793	-3.722	-4.519	-2.137	0.016	-0.970	4.884	4.224	8.156	3.622	0.475	437.500
-9.854	-2.849	-3.418	-2.435	1.717	2.166	9.621	11.730	14.031	7.251	1.788	1.614	0.431	0.567	-6.105	-4.496	-5.402	-4.533	-3.341	-4.230	-1.921	0.335	-0.878	4.785	3.926	7.702	3.219	-0.001	441.406
-9.453	-2.673	-3.095	-2.068	2.020	2.288	9.248	11.339	13.524	6.551	1.166	1.061	0.294	0.835	-5.804	-4.377	-5.062	-4.226	-3.017	-3.932	-1.725	0.639	-0.813	4.681	3.634	7.230	2.864	-0.400	445.312
-9.012	-2.561	-2.804	-1.738	2.342	2.410	8.902	10.923	13.033	5.978	0.693	0.641	0.226	1.110	-5.503	-4.303	-4.808	-3.881	-2.763	-3.665	-1.581	0.907	-0.772	4.565	3.329	6.747	2.550	-0.684	449.219
-8.562	-2.519	-2.575	-1.475	2.654	2.526	8.613	10.520	12.612	5.588	0.440	0.396	0.223	1.366	-5.222	-4.282	-4.657	-3.524	-2.578	-3.460	-1.512	1.123	-0.753	4.434	2.991	6.267	2.269	-0.833	453.125
-8.144	-2.545	-2.434	-1.294	2.933	2.629	8.410	10.164	12.300	5.411	0.437	0.349	0.273	1.588	-4.983	-4.310	-4.607	-3.193	-2.446	-3.334	-1.522	1.280	-0.760	4.290	2.599	5.799	2.015	-0.843	457.031
-7.799	-2.625	-2.392	-1.197	3.161	2.712	8.311	9.886	12.121	5.455	0.680	0.495	0.363	1.769	-4.801	-4.374	-4.639	-2.931	-2.348	-3.288	-1.602	1.376	-0.798	4.141	2.144	5.355	1.786	-0.725	460.938
-7.560	-2.741	-2.451	-1.171	3.331	2.767	8.323	9.705	12.074	5.703	1.127	0.811	0.480	1.908	-4.686	-4.458	-4.727	-2.780	-2.269	-3.313	-1.727	1.413	-0.874	3.997	1.627	4.946	1.587	-0.499	464.844
-7.449	-2.872	-2.601	-1.195	3.442	2.789	8.439	9.629	12.139	6.114	1.711	1.256	0.615	2.008	-4.642	-4.547	-4.843	-2.769	-2.204	-3.390	-1.870	1.398	-0.992	3.869	1.065	4.581	1.426	-0.194	468.750
-7.467	-2.998	-2.823	-1.244	3.500	2.775	8.636	9.648	12.281	6.636	2.352	1.778	0.758	2.070	-4.665	-4.631	-4.963	-2.905	-2.158	-3.500	-2.001	1.337	-1.149	3.766	0.487	4.270	1.317	0.163	472.656
-7.599	-3.101	-3.087	-1.293	3.518	2.723	8.881	9.742	12.455	7.210	2.968	2.323	0.904	2.096	-4.742	-4.705	-5.067	-3.168	-2.146	-3.621	-2.096	1.240	-1.337	3.695	-0.071	4.019	1.269	0.542	476.562
-7.815	-3.169	-3.362	-1.324	3.505	2.637	9.136	9.879	12.620	7.778	3.496	2.842	1.047	2.087	-4.855	-4.769	-5.144	-3.515	-2.185	-3.737	-2.143	1.117	-1.539	3.652	-0.571	3.834	1.291	0.916	480.469
-8.078	-3.197	-3.618	-1.323	3.474	2.523	9.363	10.022	12.742	8.292	3.895	3.296	1.181	2.042	-4.978	-4.820	-5.187	-3.884	-2.286	-3.835	-2.139	0.982	-1.737	3.631	-0.982	3.712	1.384	1.263	484.375
-8.348	-3.185	-3.830	-1.284	3.433	2.391	9.528	10.139	12.796	8.717	4.153	3.662	1.300	1.963	-5.086	-4.858	-5.189	-4.211	-2.453	-3.905	-2.091	0.848	-1.910	3.622	-1.282	3.644	1.537	1.567	488.281
-8.592	-3.137	-3.985	-1.212	3.387	2.252	9.610	10.198	12.775	9.036	4.284	3.935	1.401	1.857	-5.156	-4.875	-5.147	-4.437	-2.670	-3.942	-2.011	0.729	-2.041	3.613	-1.464	3.613	1.735	1.821	492.188
-8.786	-3.062	-4.081	-1.119	3.336	2.115	9.601	10.183	12.678	9.245	4.321	4.123	1.478	1.735	-5.173	-4.863	-5.055	-4.531	-2.906	-3.943	-1.913	0.638	-2.118	3.596	-1.533	3.602	1.954	2.025	496.094
-8.915	-2.969	-4.123	-1.022	3.280	1.990	9.503	10.084	12.515	9.353	4.302	4.245	1.529	1.611	-5.128	-4.811	-4.905	-4.487	-3.121	-3.907	-1.807	0.587	-2.135	3.567	-1.510	3.593	2.170	2.187	500.000
-8.975	-2.869	-4.125	-0.942	3.213	1.883	9.326	9.903	12.298	9.373	4.264	4.322	1.553	1.500	-5.022	-4.712	-4.694	-4.326	-3.270	-3.835	-1.697	0.581	-2.093	3.526	-1.419	3.576	2.363	2.319	503.906
-8.965	-2.773	-4.104	-0.899	3.130	1.795	9.086	9.654	12.042	9.324	4.230	4.373	1.548	1.416	-4.864	-4.564	-4.421	-4.089	-3.319	-3.730	-1.583	0.616	-1.998	3.477	-1.289	3.551	2.514	2.433	507.812
-8.889	-2.691	-4.073	-0.902	3.028	1.725	8.800	9.358	11.758	9.219	4.210	4.408	1.510	1.364	-4.666	-4.375	-4.095	-3.817	-3.249	-3.602	-1.463	0.685	-1.857	3.425	-1.147	3.525	2.614	2.536	511.719
-8.753	-2.631	-4.042	-0.955	2.903	1.667	8.484	9.040	11.454	9.069	4.194	4.423	1.438	1.346	-4.446	-4.158	-3.739	-3.547	-3.065	-3.461	-1.340	0.771	-1.679	3.373	-1.014	3.511	2.658	2.626	515.625
-8.564	-2.597	-4.015	-1.052	2.757	1.615	8.154	8.730	11.141	8.882	4.167	4.410	1.328	1.353	-4.224	-3.937	-3.384	-3.301	-2.791	-3.326	-1.224	0.858	-1.470	3.324	-0.906	3.523	2.644	2.697	519.531
-8.334	-2.590	-3.992	-1.180	2.593	1.565	7.823	8.455	10.829	8.663	4.109	4.356	1.180	1.377	-4.018	-3.737	-3.068	-3.090	-2.468	-3.214	-1.135	0.931	-1.234	3.275	-0.825	3.569	2.577	2.740	523.438
-8.083	-2.605	-3.968	-1.322	2.418	1.515	7.502	8.238	10.532	8.421	4.010	4.252	0.993	1.401	-3.848	-3.582	-2.825	-2.911	-2.141	-3.148	-1.098	0.980	-0.973	3.227	-0.770	3.649	2.459	2.744	527.344
-7.835	-2.631	-3.939	-1.457	2.243	1.468	7.206	8.097	10.268	8.165	3.871	4.097	0.769	1.415	-3.728	-3.485	-2.679	-2.760	-1.853	-3.142	-1.140	1.003	-0.692	3.177	-0.731	3.751	2.295	2.704	531.250
-7.616	-2.655	-3.904	-1.571	2.076	1.427	6.944	8.040	10.054	7.912	3.705	3.898	0.513	1.408	-3.666	-3.449	-2.633	-2.629	-1.639	-3.204	-1.278	1.005	-0.397	3.124	-0.696	3.851	2.088	2.618	535.156
-7.445	-2.666	-3.863	-1.653	1.925	1.396	6.726	8.065	9.904	7.678	3.531	3.668	0.231	1.377	-3.658	-3.465	-2.670	-2.512	-1.515	-3.329	-1.514	0.997	-0.101	3.069	-0.652	3.917	1.843	2.490	539.062
-7.330	-2.656	-3.815	-1.703	1.795	1.377	6.552	8.157	9.822	7.475	3.369	3.426	-0.063	1.321	-3.690	-3.509	-2.752	-2.407	-1.484	-3.499	-1.832	0.990	0.181	3.010	-0.589	3.913	1.564	2.326	542.969
-7.258	-2.624	-3.758	-1.728	1.683	1.368	6.417	8.298	9.803	7.313	3.236	3.185	-0.354	1.246	-3.739	-3.555	-2.833	-2.314	-1.531	-3.686	-2.195	0.992	0.429	2.947	-0.507	3.806	1.257	2.132	546.875
-7.198	-2.578	-3.685	-1.742	1.585	1.364	6.311	8.459	9.831	7.195	3.142	2.957	-0.625	1.162	-3.779	-3.576	-2.870	-2.236	-1.634	-3.861	-2.557	1.008	0.624	2.875	-0.408	3.571	0.928	1.916	550.781
-7.109	-2.526	-3.591	-1.758	1.497	1.358	6.218	8.615	9.884	7.114	3.086	2.746	-0.858	1.076	-3.784	-3.551	-2.835	-2.177	-1.764	-3.992	-2.866	1.035	0.753	2.787	-0.308	3.199	0.582	1.683	554.688
-6.954	-2.480	-3.466	-1.785	1.413	1.344	6.119	8.742	9.940	7.056	3.061	2.552	-1.035	0.999	-3.739	-3.469	-2.721	-2.139	-1.894	-4.062	-3.078	1.065	0.810	2.678	-0.227	2.697	0.226	1.435	558.594
-6.708	-2.445	-3.308	-1.824	1.334	1.321	6.002	8.820	9.971	7.002	3.048	2.367	-1.147	0.934	-3.639	-3.328	-2.541	-2.124	-2.002	-4.062	-3.167	1.087	0.793	2.540	-0.190	2.089	-0.135	1.177	562.500
-6.372	-2.417	-3.120	-1.863	1.268	1.294	5.859	8.837	9.956	6.931	3.025	2.184	-1.190	0.881	-3.488	-3.137	-2.322	-2.125	-2.070	-3.997	-3.124	1.092	0.713	2.372	-0.217	1.419	-0.491	0.912	566.406
-5.968	-2.386	-2.909	-1.884	1.224	1.276	5.688	8.787	9.873	6.820	2.970	1.993	-1.169	0.834	-3.302	-2.910	-2.100	-2.134	-2.090	-3.885	-2.960	1.074	0.580	2.178	-0.324	0.739	-0.837	0.646	570.312
-5.540	-2.330	-2.686	-1.862	1.216	1.281	5.495	8.670	9.707	6.656	2.860	1.789	-1.100	0.786	-3.100	-2.662	-1.903	-2.138	-2.055	-3.745	-2.702	1.034	0.413	1.967	-0.513	0.105	-1.160	0.390	574.219
-5.137	-2.229	-2.464	-1.778	1.253	1.319	5.290	8.489	9.450	6.427	2.681	1.570	-1.002	0.730	-2.902	-2.409	-1.753	-2.124	-1.967	-3.600	-2.386	0.981	0.226	1.753	-0.771	-0.429	-1.451	0.156	578.125
-4.803	-2.071	-2.252	-1.622	1.339	1.395	5.083	8.253	9.098	6.133	2.428	1.340	-0.899	0.661	-2.726	-2.168	-1.658	-2.085	-1.828	-3.466	-2.049	0.929	0.039	1.557	-1.074	-0.826	-1.696	-0.042	582.031
-4.563	-1.853	-2.057	-1.400	1.467	1.501	4.882	7.967	8.658	5.778	2.107	1.106	-0.811	0.582	-2.581	-1.952	-1.614	-2.019	-1.650	-3.350	-1.722	0.894	-0.135	1.396	-1.387	-1.063	-1.886	-0.192	585.938
-4.420	-1.591	-1.882	-1.133	1.621	1.623	4.691	7.636	8.145	5.375	1.735	0.879	-0.752	0.501	-2.471	-1.773	-1.611	-1.927	-1.451	-3.254	-1.428	0.886	-0.282	1.288	-1.670	-1.142	-2.013	-0.283	589.844
-4.351	-1.314	-1.722	-0.856	1.779	1.741	4.511	7.264	7.581	4.938	1.335	0.668	-0.732	0.427	-2.391	-1.639	-1.631	-1.818	-1.249	-3.170	-1.179	0.913	-0.395	1.241	-1.889	-1.084	-2.072	-0.313	593.750
-4.322	-1.062	-1.574	-0.605	1.916	1.835	4.338	6.853	6.993	4.488	0.938	0.483	-0.752	0.375	-2.330	-1.554	-1.652	-1.700	-1.067	-3.089	-0.982	0.975	-0.468	1.262	-2.014	-0.924	-2.065	-0.287	597.656
-4.290	-0.868	-1.433	-0.416	2.012	1.887	4.166	6.407	6.412	4.042	0.573	0.331	-0.808	0.351	-2.276	-1.517	-1.654	-1.587	-0.918	-3.005	-0.839	1.063	-0.501	1.344	-2.027	-0.702	-1.999	-0.212	601.562
-4.221	-0.755	-1.300	-0.311	2.052	1.887	3.992	5.933	5.866	3.618	0.267	0.217	-0.891	0.360	-2.217	-1.521	-1.619	-1.487	-0.810	-2.913	-0.749	1.168	-0.499	1.477	-1.926	-0.457	-1.883	-0.104	605.469
-4.098	-0.725	-1.178	-0.293	2.033	1.832	3.814	5.445	5.383	3.230	0.038	0.143	-0.993	0.395	-2.144	-1.550	-1.534	-1.411	-0.741	-2.814	-0.712	1.276	-0.468	1.642	-1.721	-0.219	-1.730	0.023	609.375
-3.919	-0.760	-1.071	-0.352	1.959	1.727	3.637	4.959	4.983	2.888	-0.103	0.108	-1.108	0.446	-2.054	-1.589	-1.398	-1.362	-0.699	-2.714	-0.725	1.377	-0.418	1.820	-1.437	-0.008	-1.557	0.154	613.281
-3.702	-0.827	-0.983	-0.459	1.845	1.588	3.468	4.497	4.680	2.599	-0.159	0.106	-1.231	0.498	-1.951	-1.617	-1.224	-1.338	-0.672	-2.623	-0.781	1.463	-0.360	1.986	-1.107	0.169	-1.382	0.276	617.188
-3.475	-0.889	-0.917	-0.581	1.710	1.432	3.317	4.083	4.481	2.370	-0.142	0.130	-1.360	0.538	-1.844	-1.619	-1.035	-1.335	-0.650	-2.551	-0.871	1.528	-0.302	2.122	-0.771	0.311	-1.224	0.377	621.094
-3.274	-0.912	-0.873	-0.682	1.577	1.283	3.196	3.741	4.388	2.208	-0.071	0.166	-1.492	0.554	-1.748	-1.584	-0.866	-1.347	-0.626	-2.508	-0.977	1.574	-0.250	2.214	-0.468	0.422	-1.101	0.445	625.000
-3.132	-0.872	-0.849	-0.735	1.466	1.160	3.116	3.490	4.396	2.119	0.030	0.202	-1.627	0.543	-1.678	-1.507	-0.748	-1.372	-0.599	-2.503	-1.079	1.603	-0.204	2.256	-0.232	0.508	-1.031	0.469	628.906
-3.073	-0.765	-0.841	-0.722	1.392	1.080	3.087	3.347	4.498	2.108	0.136	0.224	-1.763	0.507	-1.649	-1.392	-0.703	-1.414	-0.572	-2.536	-1.157	1.621	-0.161	2.250	-0.085	0.571	-1.027	0.438	632.812
-3.107	-0.601	-0.844	-0.640	1.363	1.051	3.111	3.319	4.679	2.179	0.224	0.222	-1.897	0.452	-1.668	-1.251	-0.742	-1.479	-0.548	-2.603	-1.194	1.634	-0.117	2.204	-0.036	0.615	-1.092	0.350	636.719
-3.229	-0.405	-0.858	-0.498	1.378	1.072	3.186	3.402	4.925	2.328	0.278	0.189	-2.025	0.390	-1.737	-1.097	-0.857	-1.578	-0.532	-2.695	-1.180	1.643	-0.071	2.131	-0.077	0.642	-1.222	0.206	640.625
-3.417	-0.216	-0.883	-0.320	1.428	1.135	3.305	3.581	5.215	2.544	0.292	0.128	-2.141	0.332	-1.848	-0.949	-1.031	-1.717	-0.527	-2.800	-1.115	1.649	-0.028	2.047	-0.183	0.658	-1.401	0.019	644.531
-3.635	-0.072	-0.922	-0.136	1.497	1.223	3.454	3.831	5.525	2.808	0.268	0.049	-2.239	0.291	-1.990	-0.824	-1.237	-1.899	-0.533	-2.907	-1.011	1.646	0.001	1.966	-0.318	0.669	-1.603	-0.187	648.438
-3.842	-0.010	-0.981	0.020	1.567	1.318	3.616	4.121	5.830	3.094	0.219	-0.033	-2.311	0.272	-2.143	-0.739	-1.450	-2.117	-0.547	-3.006	-0.888	1.627	0.001	1.900	-0.444	0.682	-1.798	-0.382	652.344
-3.991	-0.056	-1.059	0.119	1.618	1.404	3.772	4.416	6.103	3.377	0.164	-0.099	-2.350	0.279	-2.287	-0.703	-1.648	-2.353	-0.570	-3.094	-0.768	1.584	-0.040	1.859	-0.531	0.697	-1.958	-0.537	656.250
-4.044	-0.218	-1.154	0.141	1.638	1.466	3.903	4.686	6.321	3.627	0.125	-0.133	-2.354	0.308	-2.402	-0.721	-1.813	-2.583	-0.599	-3.170	-0.677	1.514	-0.129	1.843	-0.561	0.711	-2.063	-0.625	660.156
-3.975	-0.484	-1.254	0.080	1.618	1.497	3.990	4.910	6.466	3.824	0.123	-0.125	-2.323	0.351	-2.469	-0.785	-1.928	-2.777	-0.632	-3.233	-0.633	1.416	-0.259	1.848	-0.538	0.708	-2.108	-0.634	664.062
-3.779	-0.819	-1.342	-0.050	1.560	1.498	4.022	5.074	6.528	3.951	0.169	-0.075	-2.264	0.396	-2.473	-0.876	-1.979	-2.904	-0.667	-3.283	-0.649	1.297	-0.416	1.861	-0.483	0.663	-2.104	-0.569	667.969
-3.473	-1.171	-1.396	-0.224	1.476	1.478	3.991	5.174	6.506	3.999	0.266	0.005	-2.191	0.432	-2.406	-0.965	-1.948	-2.938	-0.695	-3.314	-0.722	1.168	-0.578	1.865	-0.433	0.546	-2.082	-0.451	671.875
-3.093	-1.478	-1.395	-0.403	1.385	1.455	3.900	5.215	6.406	3.967	0.401	0.093	-2.120	0.449	-2.265	-1.016	-1.820	-2.868	-0.701	-3.315	-0.840	1.049	-0.720	1.838	-0.429	0.327	-2.079	-0.318	675.781
-2.685	-1.677	-1.319	-0.546	1.308	1.450	3.760	5.204	6.242	3.861	0.550	0.160	-2.070	0.443	-2.058	-0.993	-1.585	-2.700	-0.667	-3.271	-0.981	0.959	-0.820	1.763	-0.508	-0.014	-2.137	-0.213	679.688
-2.295	-1.717	-1.153	-0.615	1.266	1.485	3.584	5.150	6.028	3.688	0.679	0.177	-2.059	0.413	-1.800	-0.868	-1.244	-2.456	-0.570	-3.168	-1.116	0.917	-0.861	1.625	-0.691	-0.479	-2.293	-0.176	683.594
-1.957	-1.571	-0.894	-0.590	1.270	1.572	3.391	5.064	5.778	3.458	0.751	0.116	-2.103	0.364	-1.511	-0.630	-0.816	-2.168	-0.393	-2.997	-1.215	0.939	-0.833	1.420	-0.980	-1.051	-2.567	-0.237	687.500
-1.689	-1.241	-0.549	-0.464	1.321	1.713	3.193	4.951	5.503	3.182	0.733	-0.041	-2.212	0.307	-1.216	-0.292	-0.336	-1.870	-0.127	-2.759	-1.252	1.033	-0.734	1.155	-1.352	-1.687	-2.962	-0.408	691.406
-1.484	-0.758	-0.135	-0.252	1.405	1.896	2.998	4.816	5.209	2.868	0.602	-0.300	-2.390	0.250	-0.937	0.114	0.147	-1.592	0.220	-2.466	-1.212	1.200	-0.568	0.850	-1.762	-2.332	-3.459	-0.683	695.312
-1.321	-0.182	0.321	0.014	1.497	2.093	2.805	4.664	4.902	2.521	0.349	-0.654	-2.630	0.202	-0.695	0.539	0.581	-1.348	0.621	-2.143	-1.094	1.429	-0.343	0.536	-2.151	-2.919	-4.022	-1.037	699.219
-1.170	0.412	0.790	0.289	1.565	2.273	2.606	4.496	4.585	2.148	-0.011	-1.081	-2.923	0.165	-0.500	0.926	0.924	-1.141	1.035	-1.822	-0.913	1.703	-0.066	0.251	-2.455	-3.385	-4.597	-1.429	703.125
-1.005	0.946	1.242	0.523	1.574	2.401	2.385	4.316	4.265	1.756	-0.447	-1.545	-3.250	0.134	-0.358	1.227	1.147	-0.957	1.414	-1.540	-0.698	2.002	0.252	0.036	-2.619	-3.676	-5.124	-1.810	707.031
-0.809	1.352	1.650	0.671	1.501	2.451	2.126	4.127	3.950	1.351	-0.918	-2.004	-3.590	0.095	-0.267	1.406	1.244	-0.779	1.710	-1.330	-0.487	2.302	0.602	-0.074	-2.607	-3.755	-5.540	-2.128	710.938
-0.588	1.590	1.994	0.701	1.333	2.409	1.820	3.929	3.646	0.946	-1.373	-2.412	-3.921	0.034	-0.220	1.449	1.232	-0.591	1.894	-1.219	-0.315	2.585	0.974	-0.051	-2.406	-3.608	-5.789	-2.340	714.844
-0.368	1.651	2.258	0.606	1.075	2.277	1.465	3.725	3.362	0.557	-1.768	-2.725	-4.219	-0.062	-0.213	1.363	1.139	-0.387	1.954	-1.220	-0.212	2.836	1.357	0.120	-2.031	-3.249	-5.833	-2.413	718.750
-0.189	1.559	2.431	0.398	0.749	2.072	1.071	3.514	3.104	0.204	-2.067	-2.912	-4.457	-0.202	-0.240	1.175	0.999	-0.177	1.907	-1.330	-0.193	3.046	1.735	0.436	-1.521	-2.715	-5.653	-2.336	722.656
-0.097	1.362	2.505	0.111	0.390	1.822	0.666	3.302	2.880	-0.089	-2.249	-2.952	-4.612	-0.378	-0.302	0.921	0.835	0.013	1.787	-1.533	-0.256	3.214	2.090	0.878	-0.931	-2.069	-5.256	-2.118	726.562
-0.129	1.121	2.476	-0.210	0.038	1.562	0.284	3.094	2.698	-0.297	-2.312	-2.846	-4.659	-0.574	-0.402	0.641	0.662	0.146	1.637	-1.799	-0.385	3.341	2.400	1.416	-0.325	-1.385	-4.677	-1.787	730.469
-0.301	0.892	2.347	-0.519	-0.267	1.322	-0.032	2.898	2.564	-0.398	-2.264	-2.610	-4.584	-0.763	-0.540	0.372	0.482	0.189	1.499	-2.092	-0.553	3.430	2.647	2.003	0.231	-0.746	-3.973	-1.390	734.375
-0.600	0.715	2.129	-0.780	-0.497	1.128	-0.243	2.726	2.486	-0.382	-2.127	-2.278	-4.384	-0.912	-0.711	0.139	0.293	0.118	1.400	-2.376	-0.729	3.486	2.816	2.590	0.679	-0.225	-3.217	-0.981	738.281
-0.982	0.605	1.843	-0.971	-0.637	0.995	-0.324	2.586	2.467	-0.246	-1.928	-1.895	-4.068	-0.999	-0.901	-0.044	0.093	-0.072	1.353	-2.617	-0.889	3.516	2.899	3.127	0.977	0.119	-2.488	-0.619	742.188
-1.380	0.557	1.525	-1.090	-0.687	0.928	-0.262	2.487	2.502	-0.003	-1.696	-1.513	-3.661	-1.009	-1.088	-0.174	-0.113	-0.357	1.354	-2.796	-1.016	3.526	2.899	3.567	1.098	0.254	-1.858	-0.356	746.094
-1.722	0.547	1.220	-1.148	-0.662	0.921	-0.067	2.431	2.581	0.320	-1.460	-1.179	-3.204	-0.945	-1.244	-0.254	-0.309	-0.694	1.387	-2.903	-1.108	3.524	2.824	3.876	1.035	0.175	-1.382	-0.228	750.000
-1.940	0.549	0.977	-1.165	-0.583	0.958	0.231	2.416	2.683	0.684	-1.246	-0.936	-2.741	-0.825	-1.341	-0.290	-0.471	-1.022	1.435	-2.941	-1.171	3.515	2.693	4.034	0.804	-0.097	-1.092	-0.254	753.906
-1.994	0.542	0.845	-1.159	-0.478	1.022	0.588	2.435	2.781	1.044	-1.078	-0.812	-2.324	-0.680	-1.357	-0.288	-0.573	-1.277	1.479	-2.922	-1.219	3.506	2.529	4.038	0.438	-0.518	-0.997	-0.430	757.812
-1.870	0.521	0.856	-1.142	-0.369	1.093	0.951	2.473	2.846	1.347	-0.978	-0.820	-1.997	-0.544	-1.280	-0.248	-0.588	-1.407	1.508	-2.861	-1.268	3.501	2.356	3.898	-0.012	-1.032	-1.084	-0.729	761.719
-1.583	0.498	1.026	-1.116	-0.274	1.160	1.263	2.508	2.842	1.542	-0.966	-0.961	-1.800	-0.452	-1.110	-0.166	-0.496	-1.377	1.515	-2.776	-1.331	3.501	2.198	3.640	-0.487	-1.574	-1.323	-1.111	765.625
-1.167	0.501	1.339	-1.069	-0.202	1.215	1.474	2.515	2.739	1.583	-1.057	-1.225	-1.757	-0.429	-0.855	-0.032	-0.293	-1.178	1.500	-2.678	-1.412	3.503	2.075	3.294	-0.927	-2.085	-1.681	-1.528	769.531
-0.660	0.567	1.760	-0.983	-0.152	1.260	1.546	2.468	2.511	1.434	-1.264	-1.594	-1.883	-0.491	-0.532	0.161	0.013	-0.819	1.464	-2.572	-1.511	3.501	2.002	2.897	-1.278	-2.512	-2.120	-1.934	773.438
-0.102	0.730	2.236	-0.835	-0.120	1.303	1.456	2.340	2.141	1.072	-1.590	-2.049	-2.179	-0.642	-0.159	0.422	0.399	-0.325	1.406	-2.457	-1.619	3.486	1.989	2.479	-1.498	-2.817	-2.612	-2.292	777.344
0.481	1.018	2.711	-0.607	-0.093	1.356	1.199	2.117	1.625	0.495	-2.033	-2.570	-2.633	-0.874	0.249	0.754	0.833	0.278	1.325	-2.327	-1.725	3.449	2.035	2.064	-1.570	-2.982	-3.135	-2.580	781.250
1.071	1.438	3.138	-0.290	-0.062	1.428	0.790	1.791	0.970	-0.283	-2.580	-3.140	-3.223	-1.172	0.677	1.155	1.282	0.963	1.218	-2.175	-1.818	3.382	2.135	1.668	-1.496	-3.007	-3.678	-2.792	785.156
1.659	1.980	3.492	0.111	-0.017	1.525	0.260	1.374	0.199	-1.225	-3.209	-3.743	-3.919	-1.517	1.118	1.617	1.724	1.706	1.085	-1.997	-1.891	3.283	2.278	1.295	-1.302	-2.915	-4.233	-2.936	789.062
2.243	2.617	3.773	0.579	0.043	1.645	-0.351	0.887	-0.655	-2.280	-3.894	-4.366	-4.681	-1.889	1.564	2.123	2.147	2.482	0.931	-1.796	-1.944	3.158	2.447	0.940	-1.027	-2.744	-4.797	-3.034	792.969
2.820	3.305	4.003	1.086	0.117	1.781	-0.992	0.364	-1.547	-3.384	-4.603	-4.995	-5.466	-2.267	2.010	2.653	2.549	3.262	0.767	-1.580	-1.984	3.015	2.624	0.597	-0.718	-2.540	-5.365	-3.109	796.875
