FP1	F3	F7	FC3	C3	C5	P3	P7	PO7	PO3	O1	Oz	Pz	CPz	FP2	Fz	F4	F8	FC4	FCz	Cz	C4	C6	P4	P8	PO8	PO4	O2	time
-0.128	-0.362	0.371	-0.402	-0.346	-0.498	-0.716	-0.781	-0.690	-1.232	-1.559	-0.822	-0.056	-0.023	-0.201	-0.430	-0.293	0.004	-0.039	-1.115	-0.360	0.322	0.178	0.406	0.287	-2.055	0.789	-0.343	-199.219
-0.107	-0.022	0.227	-0.127	-0.253	-0.437	-0.692	-1.039	-0.553	-0.882	-1.150	-0.445	-0.145	0.027	-0.120	-0.096	-0.300	-0.103	-0.126	-0.573	-0.018	0.251	0.153	0.296	0.109	-1.789	0.734	-0.034	-195.312
-0.044	0.264	0.086	0.105	-0.146	-0.356	-0.633	-1.245	-0.401	-0.526	-0.746	-0.094	-0.208	0.072	-0.048	0.182	-0.341	-0.214	-0.245	-0.109	0.265	0.163	0.112	0.178	-0.051	-1.572	0.666	0.235	-191.406
0.082	0.464	-0.048	0.268	-0.014	-0.239	-0.514	-1.360	-0.226	-0.168	-0.355	0.205	-0.227	0.112	0.010	0.370	-0.427	-0.325	-0.410	0.224	0.453	0.054	0.047	0.049	-0.181	-1.435	0.574	0.427	-187.500
0.267	0.564	-0.175	0.352	0.147	-0.082	-0.328	-1.363	-0.030	0.184	0.012	0.436	-0.191	0.143	0.056	0.463	-0.546	-0.432	-0.613	0.401	0.525	-0.074	-0.038	-0.092	-0.275	-1.397	0.448	0.521	-183.594
0.490	0.575	-0.295	0.370	0.327	0.108	-0.084	-1.258	0.172	0.510	0.340	0.588	-0.106	0.159	0.093	0.480	-0.665	-0.533	-0.824	0.430	0.486	-0.204	-0.131	-0.240	-0.335	-1.448	0.287	0.509	-179.688
0.711	0.524	-0.407	0.346	0.508	0.314	0.191	-1.070	0.356	0.787	0.611	0.658	0.011	0.155	0.129	0.459	-0.738	-0.624	-0.997	0.346	0.356	-0.315	-0.217	-0.386	-0.367	-1.561	0.093	0.400	-175.781
0.883	0.451	-0.510	0.315	0.668	0.509	0.456	-0.839	0.493	0.985	0.804	0.652	0.135	0.129	0.168	0.446	-0.726	-0.698	-1.088	0.205	0.173	-0.384	-0.276	-0.516	-0.376	-1.692	-0.122	0.217	-171.875
0.968	0.394	-0.599	0.306	0.783	0.666	0.670	-0.616	0.556	1.079	0.902	0.581	0.239	0.086	0.214	0.480	-0.606	-0.748	-1.063	0.067	-0.021	-0.396	-0.295	-0.618	-0.362	-1.789	-0.339	-0.004	-167.969
0.946	0.379	-0.669	0.338	0.836	0.761	0.799	-0.443	0.529	1.058	0.896	0.460	0.304	0.033	0.266	0.578	-0.384	-0.766	-0.914	-0.017	-0.186	-0.344	-0.265	-0.677	-0.322	-1.808	-0.535	-0.227	-164.062
0.821	0.411	-0.711	0.414	0.822	0.783	0.827	-0.352	0.413	0.926	0.789	0.307	0.321	-0.017	0.316	0.730	-0.093	-0.744	-0.662	-0.018	-0.295	-0.239	-0.191	-0.687	-0.247	-1.716	-0.687	-0.416	-160.156
0.620	0.472	-0.717	0.521	0.747	0.736	0.759	-0.349	0.227	0.707	0.596	0.142	0.294	-0.054	0.355	0.905	0.212	-0.681	-0.354	0.066	-0.339	-0.101	-0.085	-0.646	-0.126	-1.501	-0.777	-0.542	-156.250
0.388	0.527	-0.679	0.632	0.625	0.637	0.619	-0.423	0.002	0.437	0.344	-0.016	0.238	-0.069	0.372	1.054	0.468	-0.582	-0.052	0.210	-0.324	0.042	0.035	-0.562	0.045	-1.174	-0.791	-0.589	-152.344
0.174	0.537	-0.596	0.715	0.475	0.508	0.441	-0.541	-0.222	0.162	0.068	-0.149	0.171	-0.060	0.356	1.126	0.618	-0.460	0.182	0.368	-0.273	0.159	0.146	-0.446	0.266	-0.760	-0.728	-0.552	-148.438
0.019	0.468	-0.473	0.743	0.314	0.373	0.263	-0.664	-0.407	-0.077	-0.194	-0.245	0.111	-0.032	0.302	1.080	0.628	-0.329	0.301	0.491	-0.219	0.227	0.228	-0.316	0.530	-0.300	-0.593	-0.437	-144.531
-0.051	0.307	-0.324	0.697	0.154	0.249	0.112	-0.751	-0.524	-0.253	-0.408	-0.294	0.073	0.001	0.209	0.897	0.489	-0.208	0.280	0.531	-0.195	0.231	0.267	-0.186	0.819	0.160	-0.402	-0.261	-140.625
-0.038	0.065	-0.169	0.576	0.002	0.142	0.003	-0.772	-0.561	-0.353	-0.549	-0.295	0.061	0.025	0.082	0.588	0.224	-0.112	0.129	0.463	-0.223	0.172	0.259	-0.071	1.115	0.575	-0.173	-0.047	-136.719
0.038	-0.219	-0.031	0.394	-0.143	0.051	-0.065	-0.710	-0.520	-0.384	-0.604	-0.250	0.073	0.026	-0.070	0.190	-0.120	-0.054	-0.119	0.287	-0.312	0.065	0.209	0.024	1.391	0.909	0.072	0.178	-132.812
0.138	-0.493	0.069	0.178	-0.284	-0.032	-0.103	-0.570	-0.420	-0.367	-0.575	-0.170	0.103	-0.004	-0.231	-0.241	-0.482	-0.037	-0.411	0.029	-0.451	-0.065	0.129	0.095	1.625	1.137	0.309	0.390	-128.906
0.222	-0.704	0.123	-0.034	-0.422	-0.117	-0.130	-0.374	-0.292	-0.331	-0.481	-0.069	0.139	-0.061	-0.384	-0.639	-0.799	-0.058	-0.689	-0.262	-0.611	-0.191	0.039	0.148	1.792	1.251	0.520	0.564	-125.000
0.256	-0.808	0.133	-0.209	-0.558	-0.211	-0.165	-0.158	-0.168	-0.304	-0.349	0.033	0.169	-0.137	-0.510	-0.946	-1.018	-0.105	-0.906	-0.528	-0.754	-0.288	-0.044	0.185	1.870	1.257	0.685	0.682	-121.094
0.226	-0.783	0.119	-0.319	-0.688	-0.314	-0.224	0.041	-0.078	-0.307	-0.211	0.116	0.182	-0.218	-0.594	-1.120	-1.106	-0.162	-1.028	-0.713	-0.839	-0.340	-0.105	0.211	1.843	1.175	0.789	0.732	-117.188
0.143	-0.630	0.110	-0.343	-0.803	-0.416	-0.311	0.185	-0.042	-0.350	-0.099	0.162	0.169	-0.286	-0.624	-1.145	-1.056	-0.211	-1.044	-0.778	-0.837	-0.341	-0.135	0.224	1.702	1.031	0.819	0.707	-113.281
0.031	-0.373	0.141	-0.279	-0.890	-0.502	-0.426	0.253	-0.067	-0.430	-0.032	0.155	0.124	-0.332	-0.595	-1.029	-0.886	-0.233	-0.958	-0.709	-0.733	-0.299	-0.134	0.221	1.449	0.855	0.764	0.606	-109.375
-0.069	-0.052	0.239	-0.134	-0.938	-0.551	-0.555	0.242	-0.142	-0.535	-0.018	0.090	0.045	-0.350	-0.513	-0.804	-0.636	-0.215	-0.787	-0.519	-0.532	-0.229	-0.112	0.191	1.101	0.670	0.618	0.438	-105.469
-0.122	0.287	0.421	0.070	-0.935	-0.545	-0.679	0.166	-0.248	-0.642	-0.050	-0.029	-0.064	-0.343	-0.389	-0.518	-0.361	-0.150	-0.557	-0.247	-0.263	-0.155	-0.085	0.126	0.686	0.495	0.385	0.215	-101.562
-0.103	0.595	0.679	0.303	-0.875	-0.471	-0.776	0.059	-0.354	-0.724	-0.108	-0.186	-0.192	-0.317	-0.245	-0.226	-0.118	-0.042	-0.299	0.052	0.034	-0.098	-0.071	0.022	0.246	0.342	0.080	-0.039	-97.656
-0.008	0.837	0.987	0.529	-0.759	-0.328	-0.823	-0.044	-0.431	-0.757	-0.167	-0.358	-0.329	-0.285	-0.102	0.020	0.050	0.100	-0.039	0.318	0.312	-0.073	-0.086	-0.121	-0.174	0.218	-0.270	-0.296	-93.750
0.143	0.989	1.300	0.715	-0.597	-0.131	-0.804	-0.107	-0.458	-0.722	-0.204	-0.515	-0.457	-0.256	0.019	0.186	0.123	0.256	0.199	0.505	0.529	-0.086	-0.138	-0.291	-0.535	0.125	-0.624	-0.526	-89.844
0.314	1.048	1.569	0.836	-0.403	0.095	-0.713	-0.110	-0.423	-0.612	-0.204	-0.630	-0.564	-0.237	0.104	0.256	0.108	0.404	0.401	0.588	0.662	-0.128	-0.220	-0.471	-0.809	0.062	-0.942	-0.703	-85.938
0.460	1.023	1.744	0.875	-0.199	0.315	-0.554	-0.048	-0.332	-0.433	-0.163	-0.684	-0.636	-0.230	0.150	0.236	0.039	0.520	0.557	0.568	0.705	-0.179	-0.318	-0.635	-0.985	0.027	-1.181	-0.809	-82.031
0.543	0.935	1.793	0.830	-0.005	0.488	-0.342	0.068	-0.202	-0.200	-0.088	-0.669	-0.667	-0.235	0.162	0.151	-0.034	0.586	0.666	0.470	0.673	-0.218	-0.405	-0.761	-1.070	0.011	-1.311	-0.839	-78.125
0.540	0.806	1.703	0.708	0.162	0.584	-0.099	0.218	-0.056	0.062	0.007	-0.590	-0.656	-0.245	0.153	0.035	-0.063	0.592	0.730	0.331	0.596	-0.221	-0.460	-0.829	-1.086	0.006	-1.321	-0.805	-74.219
0.453	0.656	1.485	0.528	0.292	0.584	0.150	0.375	0.082	0.327	0.105	-0.464	-0.607	-0.252	0.141	-0.082	-0.012	0.538	0.757	0.196	0.509	-0.177	-0.465	-0.830	-1.064	-0.001	-1.216	-0.729	-70.312
0.303	0.500	1.170	0.315	0.383	0.489	0.386	0.519	0.197	0.569	0.192	-0.316	-0.531	-0.247	0.139	-0.172	0.130	0.433	0.754	0.102	0.444	-0.084	-0.416	-0.765	-1.042	-0.024	-1.024	-0.639	-66.406
0.120	0.346	0.802	0.096	0.444	0.320	0.592	0.639	0.282	0.769	0.261	-0.169	-0.438	-0.220	0.156	-0.220	0.346	0.296	0.731	0.073	0.427	0.044	-0.320	-0.647	-1.050	-0.075	-0.785	-0.563	-62.500
-0.062	0.198	0.427	-0.106	0.486	0.113	0.760	0.731	0.342	0.914	0.309	-0.044	-0.339	-0.164	0.192	-0.224	0.595	0.148	0.699	0.113	0.464	0.185	-0.199	-0.495	-1.110	-0.163	-0.545	-0.523	-58.594
-0.217	0.055	0.087	-0.272	0.521	-0.091	0.886	0.801	0.387	0.998	0.341	0.043	-0.240	-0.076	0.235	-0.187	0.825	0.011	0.669	0.213	0.551	0.316	-0.076	-0.329	-1.226	-0.284	-0.342	-0.525	-54.688
-0.335	-0.084	-0.191	-0.396	0.553	-0.257	0.970	0.858	0.430	1.021	0.359	0.092	-0.144	0.040	0.273	-0.123	0.983	-0.095	0.651	0.344	0.666	0.412	0.026	-0.167	-1.381	-0.422	-0.202	-0.561	-50.781
-0.418	-0.226	-0.393	-0.485	0.579	-0.362	1.011	0.911	0.480	0.988	0.367	0.106	-0.051	0.177	0.289	-0.051	1.034	-0.157	0.646	0.470	0.774	0.457	0.091	-0.017	-1.541	-0.546	-0.127	-0.609	-46.875
-0.479	-0.377	-0.525	-0.551	0.590	-0.401	1.008	0.967	0.537	0.904	0.367	0.100	0.041	0.320	0.271	0.009	0.964	-0.165	0.650	0.552	0.840	0.446	0.116	0.120	-1.659	-0.611	-0.100	-0.637	-42.969
-0.534	-0.540	-0.603	-0.615	0.569	-0.385	0.954	1.024	0.595	0.776	0.358	0.089	0.137	0.452	0.214	0.036	0.789	-0.119	0.652	0.556	0.830	0.383	0.109	0.254	-1.681	-0.574	-0.087	-0.610	-39.062
-0.596	-0.714	-0.651	-0.693	0.501	-0.336	0.847	1.075	0.639	0.607	0.336	0.089	0.234	0.557	0.122	0.016	0.546	-0.025	0.642	0.461	0.721	0.281	0.084	0.394	-1.565	-0.398	-0.049	-0.504	-35.156
-0.669	-0.890	-0.691	-0.797	0.378	-0.282	0.679	1.110	0.651	0.400	0.297	0.109	0.329	0.618	0.008	-0.058	0.287	0.106	0.608	0.267	0.508	0.160	0.063	0.550	-1.287	-0.068	0.047	-0.303	-31.250
-0.747	-1.052	-0.736	-0.924	0.203	-0.247	0.450	1.115	0.613	0.154	0.235	0.151	0.414	0.626	-0.108	-0.177	0.066	0.261	0.550	-0.008	0.208	0.045	0.063	0.724	-0.855	0.400	0.218	-0.016	-27.344
-0.815	-1.173	-0.788	-1.065	-0.012	-0.246	0.163	1.079	0.509	-0.128	0.143	0.205	0.481	0.577	-0.206	-0.322	-0.070	0.423	0.471	-0.326	-0.146	-0.042	0.097	0.907	-0.308	0.963	0.457	0.333	-23.438
-0.856	-1.228	-0.836	-1.199	-0.241	-0.287	-0.172	0.999	0.336	-0.443	0.018	0.255	0.521	0.477	-0.267	-0.463	-0.098	0.578	0.386	-0.637	-0.509	-0.083	0.172	1.083	0.291	1.553	0.732	0.701	-19.531
-0.855	-1.194	-0.865	-1.304	-0.457	-0.362	-0.532	0.877	0.100	-0.777	-0.140	0.282	0.530	0.339	-0.281	-0.569	-0.020	0.713	0.310	-0.891	-0.832	-0.065	0.280	1.224	0.859	2.094	0.994	1.038	-15.625
-0.804	-1.062	-0.859	-1.357	-0.630	-0.458	-0.890	0.729	-0.174	-1.108	-0.319	0.267	0.507	0.182	-0.246	-0.610	0.136	0.823	0.259	-1.047	-1.073	0.014	0.411	1.303	1.321	2.512	1.186	1.293	-11.719
-0.705	-0.836	-0.810	-1.345	-0.734	-0.554	-1.208	0.579	-0.453	-1.402	-0.503	0.204	0.459	0.032	-0.172	-0.573	0.329	0.904	0.244	-1.079	-1.207	0.146	0.544	1.296	1.613	2.754	1.258	1.427	-7.812
-0.568	-0.539	-0.723	-1.261	-0.754	-0.628	-1.448	0.456	-0.692	-1.619	-0.664	0.095	0.397	-0.090	-0.071	-0.456	0.509	0.959	0.269	-0.986	-1.228	0.316	0.658	1.188	1.705	2.791	1.178	1.417	-3.906
-0.410	-0.207	-0.613	-1.113	-0.681	-0.659	-1.574	0.387	-0.851	-1.718	-0.773	-0.045	0.335	-0.165	0.039	-0.278	0.636	0.989	0.327	-0.789	-1.149	0.502	0.734	0.977	1.595	2.628	0.939	1.266	0.000
-0.246	0.123	-0.500	-0.916	-0.516	-0.629	-1.559	0.398	-0.895	-1.665	-0.803	-0.192	0.287	-0.186	0.141	-0.070	0.684	0.994	0.407	-0.526	-1.003	0.680	0.756	0.674	1.313	2.290	0.558	0.992	3.906
-0.093	0.412	-0.410	-0.693	-0.268	-0.526	-1.388	0.500	-0.802	-1.442	-0.732	-0.317	0.264	-0.154	0.222	0.132	0.646	0.969	0.488	-0.243	-0.832	0.823	0.712	0.299	0.907	1.822	0.076	0.635	7.812
0.038	0.639	-0.358	-0.466	0.044	-0.347	-1.066	0.694	-0.569	-1.052	-0.553	-0.392	0.275	-0.080	0.271	0.295	0.529	0.903	0.553	0.014	-0.677	0.910	0.602	-0.116	0.431	1.278	-0.450	0.244	11.719
0.142	0.793	-0.354	-0.256	0.399	-0.099	-0.613	0.962	-0.213	-0.522	-0.270	-0.398	0.323	0.015	0.282	0.398	0.347	0.788	0.581	0.207	-0.573	0.926	0.431	-0.539	-0.060	0.712	-0.962	-0.130	15.625
0.216	0.878	-0.393	-0.078	0.772	0.200	-0.069	1.275	0.231	0.102	0.093	-0.322	0.405	0.111	0.256	0.432	0.116	0.621	0.555	0.318	-0.540	0.865	0.213	-0.935	-0.523	0.174	-1.404	-0.437	19.531
0.264	0.905	-0.466	0.061	1.137	0.524	0.518	1.594	0.714	0.757	0.502	-0.168	0.514	0.185	0.196	0.406	-0.149	0.414	0.466	0.344	-0.579	0.731	-0.032	-1.273	-0.926	-0.297	-1.731	-0.639	23.438
0.286	0.887	-0.557	0.162	1.470	0.844	1.093	1.878	1.181	1.377	0.914	0.050	0.640	0.222	0.113	0.336	-0.432	0.188	0.309	0.299	-0.679	0.540	-0.279	-1.526	-1.250	-0.670	-1.919	-0.715	27.344
0.284	0.835	-0.649	0.229	1.753	1.131	1.606	2.093	1.580	1.903	1.287	0.309	0.772	0.213	0.018	0.247	-0.715	-0.030	0.091	0.207	-0.813	0.311	-0.505	-1.679	-1.483	-0.926	-1.959	-0.658	31.250
0.256	0.756	-0.731	0.273	1.974	1.364	2.015	2.215	1.870	2.297	1.586	0.585	0.902	0.160	-0.078	0.159	-0.977	-0.215	-0.172	0.094	-0.956	0.070	-0.692	-1.721	-1.623	-1.054	-1.862	-0.478	35.156
0.200	0.657	-0.797	0.304	2.128	1.531	2.296	2.236	2.030	2.543	1.790	0.856	1.023	0.071	-0.165	0.086	-1.195	-0.353	-0.455	-0.014	-1.079	-0.159	-0.828	-1.654	-1.671	-1.052	-1.650	-0.197	39.062
0.113	0.543	-0.847	0.335	2.215	1.631	2.440	2.160	2.055	2.651	1.894	1.107	1.130	-0.039	-0.237	0.033	-1.349	-0.445	-0.731	-0.102	-1.167	-0.360	-0.914	-1.486	-1.632	-0.921	-1.349	0.157	42.969
-0.009	0.423	-0.883	0.376	2.241	1.674	2.456	2.003	1.964	2.653	1.904	1.331	1.222	-0.155	-0.296	-0.004	-1.427	-0.507	-0.976	-0.162	-1.211	-0.521	-0.956	-1.232	-1.515	-0.665	-0.985	0.553	46.875
-0.167	0.306	-0.910	0.436	2.214	1.671	2.363	1.789	1.787	2.591	1.834	1.526	1.299	-0.266	-0.347	-0.038	-1.433	-0.562	-1.171	-0.198	-1.212	-0.640	-0.968	-0.909	-1.328	-0.290	-0.577	0.965	50.781
-0.363	0.199	-0.929	0.516	2.140	1.637	2.190	1.544	1.562	2.503	1.702	1.695	1.360	-0.362	-0.403	-0.083	-1.384	-0.637	-1.308	-0.221	-1.179	-0.722	-0.963	-0.533	-1.082	0.198	-0.133	1.368	54.688
-0.594	0.106	-0.937	0.609	2.026	1.581	1.966	1.298	1.333	2.421	1.524	1.838	1.406	-0.444	-0.478	-0.156	-1.312	-0.750	-1.394	-0.246	-1.125	-0.774	-0.954	-0.119	-0.783	0.792	0.344	1.747	58.594
-0.852	0.016	-0.927	0.700	1.875	1.506	1.719	1.084	1.141	2.362	1.314	1.957	1.432	-0.516	-0.584	-0.273	-1.255	-0.910	-1.444	-0.291	-1.065	-0.806	-0.949	0.320	-0.442	1.481	0.855	2.090	62.500
-1.126	-0.088	-0.890	0.767	1.691	1.409	1.474	0.931	1.023	2.327	1.087	2.051	1.438	-0.586	-0.732	-0.446	-1.251	-1.109	-1.481	-0.375	-1.014	-0.823	-0.948	0.772	-0.064	2.253	1.403	2.391	66.406
-1.399	-0.228	-0.817	0.789	1.477	1.289	1.256	0.867	1.009	2.314	0.855	2.118	1.421	-0.663	-0.927	-0.684	-1.329	-1.335	-1.531	-0.512	-0.985	-0.830	-0.950	1.225	0.342	3.088	1.986	2.647	70.312
-1.655	-0.427	-0.710	0.745	1.242	1.147	1.084	0.913	1.120	2.318	0.634	2.158	1.379	-0.753	-1.165	-0.989	-1.503	-1.566	-1.612	-0.708	-0.988	-0.830	-0.947	1.665	0.771	3.963	2.594	2.856	74.219
-1.882	-0.697	-0.584	0.624	0.996	0.995	0.979	1.081	1.367	2.340	0.439	2.175	1.314	-0.860	-1.439	-1.355	-1.773	-1.783	-1.732	-0.965	-1.029	-0.824	-0.931	2.079	1.216	4.851	3.209	3.019	78.125
-2.078	-1.033	-0.468	0.426	0.754	0.845	0.958	1.373	1.750	2.392	0.285	2.177	1.233	-0.983	-1.734	-1.770	-2.119	-1.976	-1.885	-1.272	-1.113	-0.811	-0.897	2.454	1.669	5.723	3.808	3.141	82.031
-2.253	-1.416	-0.398	0.164	0.530	0.717	1.034	1.780	2.261	2.489	0.188	2.178	1.144	-1.119	-2.038	-2.213	-2.510	-2.141	-2.050	-1.616	-1.239	-0.794	-0.843	2.776	2.122	6.553	4.361	3.228	85.938
-2.429	-1.813	-0.410	-0.142	0.335	0.624	1.211	2.288	2.885	2.654	0.160	2.195	1.055	-1.269	-2.338	-2.658	-2.902	-2.285	-2.203	-1.978	-1.409	-0.781	-0.773	3.036	2.569	7.322	4.844	3.294	89.844
-2.639	-2.188	-0.531	-0.470	0.173	0.569	1.480	2.878	3.604	2.903	0.215	2.247	0.970	-1.435	-2.630	-3.084	-3.253	-2.420	-2.320	-2.340	-1.621	-0.783	-0.698	3.224	3.006	8.025	5.237	3.356	93.750
-2.918	-2.511	-0.771	-0.800	0.038	0.545	1.818	3.530	4.403	3.244	0.362	2.354	0.887	-1.628	-2.914	-3.475	-3.527	-2.560	-2.389	-2.691	-1.881	-0.815	-0.638	3.336	3.433	8.670	5.534	3.438	97.656
-3.293	-2.769	-1.117	-1.121	-0.090	0.528	2.191	4.228	5.269	3.672	0.611	2.532	0.797	-1.861	-3.198	-3.827	-3.710	-2.716	-2.414	-3.031	-2.194	-0.895	-0.615	3.371	3.854	9.283	5.740	3.565	101.562
-3.775	-2.967	-1.541	-1.434	-0.235	0.489	2.558	4.958	6.189	4.170	0.968	2.793	0.685	-2.153	-3.495	-4.150	-3.806	-2.892	-2.415	-3.364	-2.565	-1.041	-0.650	3.332	4.274	9.896	5.875	3.760	105.469
-4.348	-3.131	-1.998	-1.747	-0.425	0.399	2.879	5.705	7.149	4.711	1.441	3.141	0.534	-2.515	-3.819	-4.465	-3.849	-3.088	-2.428	-3.706	-2.997	-1.264	-0.758	3.227	4.698	10.544	5.965	4.043	109.375
-4.972	-3.298	-2.446	-2.073	-0.678	0.234	3.123	6.454	8.133	5.262	2.031	3.576	0.333	-2.952	-4.179	-4.799	-3.889	-3.300	-2.490	-4.071	-3.482	-1.569	-0.949	3.071	5.129	11.248	6.040	4.426	113.281
-5.588	-3.506	-2.850	-2.422	-1.003	-0.012	3.273	7.186	9.116	5.797	2.733	4.091	0.079	-3.453	-4.579	-5.180	-3.984	-3.525	-2.633	-4.471	-4.003	-1.950	-1.218	2.881	5.561	12.018	6.130	4.910	117.188
-6.133	-3.786	-3.188	-2.802	-1.388	-0.326	3.329	7.879	10.066	6.293	3.532	4.675	-0.219	-3.993	-5.012	-5.627	-4.184	-3.760	-2.872	-4.913	-4.531	-2.389	-1.554	2.677	5.982	12.838	6.257	5.489	121.094
-6.550	-4.153	-3.463	-3.209	-1.808	-0.680	3.305	8.506	10.949	6.742	4.406	5.317	-0.541	-4.533	-5.463	-6.146	-4.519	-4.008	-3.204	-5.393	-5.030	-2.862	-1.937	2.480	6.372	13.674	6.436	6.151	125.000
-6.808	-4.597	-3.689	-3.632	-2.225	-1.034	3.232	9.042	11.731	7.143	5.328	6.006	-0.859	-5.028	-5.911	-6.726	-4.987	-4.268	-3.609	-5.898	-5.464	-3.340	-2.346	2.304	6.710	14.477	6.672	6.882	128.906
-6.904	-5.093	-3.892	-4.053	-2.600	-1.348	3.144	9.466	12.389	7.509	6.271	6.735	-1.140	-5.435	-6.333	-7.347	-5.560	-4.544	-4.055	-6.406	-5.803	-3.796	-2.759	2.160	6.975	15.194	6.961	7.666	132.812
-6.869	-5.601	-4.095	-4.455	-2.902	-1.594	3.081	9.768	12.916	7.860	7.216	7.500	-1.355	-5.723	-6.710	-7.976	-6.189	-4.834	-4.512	-6.893	-6.026	-4.211	-3.159	2.050	7.151	15.777	7.293	8.495	136.719
-6.756	-6.085	-4.319	-4.824	-3.113	-1.757	3.075	9.948	13.321	8.221	8.154	8.306	-1.481	-5.876	-7.033	-8.583	-6.817	-5.136	-4.960	-7.340	-6.132	-4.577	-3.538	1.973	7.234	16.199	7.655	9.364	140.625
-6.633	-6.515	-4.575	-5.157	-3.237	-1.846	3.153	10.018	13.632	8.620	9.088	9.162	-1.507	-5.902	-7.303	-9.142	-7.395	-5.446	-5.398	-7.730	-6.135	-4.899	-3.900	1.924	7.228	16.457	8.039	10.278	144.531
-6.566	-6.884	-4.863	-5.460	-3.294	-1.883	3.327	10.001	13.889	9.085	10.030	10.082	-1.434	-5.827	-7.533	-9.641	-7.895	-5.760	-5.840	-8.063	-6.064	-5.190	-4.256	1.898	7.151	16.581	8.444	11.247	148.438
-6.614	-7.203	-5.179	-5.749	-3.316	-1.904	3.598	9.926	14.140	9.641	10.999	11.080	-1.272	-5.689	-7.746	-10.083	-8.314	-6.082	-6.309	-8.348	-5.961	-5.472	-4.622	1.896	7.029	16.624	8.882	12.289	152.344
-6.816	-7.497	-5.520	-6.045	-3.342	-1.946	3.956	9.825	14.430	10.306	12.012	12.169	-1.040	-5.535	-7.972	-10.485	-8.674	-6.421	-6.830	-8.605	-5.872	-5.760	-5.017	1.924	6.893	16.661	9.373	13.421	156.250
-7.189	-7.799	-5.882	-6.364	-3.406	-2.042	4.382	9.727	14.795	11.090	13.080	13.359	-0.758	-5.403	-8.242	-10.873	-9.014	-6.792	-7.412	-8.861	-5.840	-6.070	-5.455	1.991	6.773	16.768	9.944	14.655	160.156
-7.728	-8.135	-6.270	-6.716	-3.526	-2.211	4.857	9.653	15.258	11.994	14.206	14.648	-0.448	-5.322	-8.576	-11.274	-9.373	-7.214	-8.050	-9.141	-5.897	-6.406	-5.943	2.106	6.695	17.011	10.616	15.992	164.062
-8.408	-8.520	-6.690	-7.097	-3.706	-2.459	5.366	9.615	15.823	13.007	15.381	16.022	-0.126	-5.304	-8.986	-11.708	-9.786	-7.698	-8.721	-9.463	-6.056	-6.768	-6.475	2.274	6.669	17.431	11.400	17.419	167.969
-9.189	-8.950	-7.150	-7.489	-3.929	-2.774	5.899	9.617	16.475	14.108	16.582	17.454	0.198	-5.340	-9.461	-12.182	-10.266	-8.249	-9.390	-9.829	-6.308	-7.146	-7.036	2.493	6.695	18.039	12.290	18.900	171.875
-10.022	-9.407	-7.653	-7.865	-4.164	-3.131	6.453	9.653	17.184	15.270	17.774	18.899	0.520	-5.407	-9.981	-12.687	-10.805	-8.856	-10.019	-10.228	-6.622	-7.529	-7.601	2.753	6.754	18.810	13.258	20.382	175.781
-10.855	-9.860	-8.192	-8.191	-4.369	-3.495	7.029	9.715	17.908	16.458	18.917	20.304	0.843	-5.471	-10.510	-13.203	-11.376	-9.500	-10.575	-10.635	-6.954	-7.902	-8.141	3.036	6.818	19.688	14.256	21.797	179.688
-11.641	-10.272	-8.752	-8.439	-4.501	-3.826	7.632	9.793	18.604	17.637	19.963	21.608	1.172	-5.497	-11.009	-13.696	-11.937	-10.154	-11.033	-11.018	-7.254	-8.252	-8.629	3.321	6.854	20.596	15.230	23.069	183.594
-12.341	-10.612	-9.307	-8.586	-4.526	-4.087	8.265	9.879	19.229	18.770	20.868	22.755	1.516	-5.453	-11.440	-14.130	-12.443	-10.788	-11.383	-11.343	-7.480	-8.565	-9.041	3.590	6.827	21.451	16.122	24.129	187.500
-12.930	-10.852	-9.827	-8.624	-4.419	-4.248	8.926	9.973	19.753	19.824	21.595	23.695	1.882	-5.322	-11.774	-14.471	-12.855	-11.371	-11.627	-11.579	-7.604	-8.828	-9.364	3.828	6.719	22.175	16.884	24.924	191.406
-13.398	-10.978	-10.284	-8.557	-4.176	-4.290	9.608	10.077	20.157	20.765	22.114	24.394	2.270	-5.099	-11.996	-14.693	-13.145	-11.873	-11.775	-11.713	-7.619	-9.030	-9.591	4.029	6.523	22.708	17.482	25.422	195.312
-13.749	-10.986	-10.652	-8.400	-3.806	-4.208	10.294	10.198	20.436	21.566	22.414	24.835	2.669	-4.796	-12.102	-14.783	-13.305	-12.271	-11.842	-11.741	-7.537	-9.163	-9.727	4.194	6.253	23.017	17.899	25.620	199.219
-13.993	-10.883	-10.914	-8.175	-3.336	-4.010	10.960	10.342	20.598	22.201	22.490	25.017	3.061	-4.439	-12.105	-14.741	-13.347	-12.544	-11.843	-11.676	-7.388	-9.220	-9.780	4.329	5.942	23.097	18.135	25.535	203.125
-14.141	-10.686	-11.061	-7.906	-2.801	-3.715	11.578	10.515	20.658	22.649	22.353	24.952	3.417	-4.064	-12.022	-14.584	-13.296	-12.684	-11.791	-11.542	-7.206	-9.198	-9.761	4.441	5.632	22.964	18.200	25.205	207.031
-14.196	-10.412	-11.092	-7.616	-2.242	-3.351	12.113	10.714	20.633	22.894	22.021	24.659	3.704	-3.707	-11.878	-14.334	-13.189	-12.688	-11.695	-11.366	-7.027	-9.094	-9.680	4.534	5.367	22.655	18.110	24.675	210.938
-14.152	-10.083	-11.013	-7.320	-1.697	-2.945	12.536	10.935	20.538	22.925	21.517	24.161	3.888	-3.406	-11.694	-14.024	-13.062	-12.564	-11.555	-11.173	-6.879	-8.912	-9.544	4.606	5.185	22.212	17.880	23.987	214.844
-13.999	-9.712	-10.836	-7.027	-1.202	-2.526	12.820	11.164	20.383	22.737	20.867	23.482	3.941	-3.188	-11.486	-13.681	-12.942	-12.327	-11.371	-10.982	-6.775	-8.658	-9.356	4.646	5.110	21.679	17.522	23.180	218.750
-13.728	-9.311	-10.579	-6.738	-0.781	-2.114	12.947	11.387	20.172	22.332	20.098	22.647	3.847	-3.070	-11.264	-13.329	-12.837	-11.995	-11.137	-10.800	-6.718	-8.340	-9.113	4.640	5.151	21.097	17.047	22.279	222.656
-13.344	-8.886	-10.261	-6.451	-0.452	-1.729	12.913	11.585	19.900	21.721	19.232	21.677	3.604	-3.057	-11.029	-12.983	-12.736	-11.592	-10.842	-10.627	-6.701	-7.971	-8.812	4.574	5.301	20.498	16.463	21.306	226.562
-12.862	-8.444	-9.902	-6.160	-0.219	-1.384	12.723	11.741	19.562	20.924	18.293	20.601	3.226	-3.140	-10.782	-12.648	-12.606	-11.138	-10.481	-10.457	-6.713	-7.566	-8.449	4.441	5.545	19.909	15.783	20.280	230.469
-12.316	-7.994	-9.520	-5.864	-0.083	-1.088	12.394	11.842	19.157	19.977	17.307	19.452	2.744	-3.304	-10.517	-12.327	-12.409	-10.654	-10.051	-10.283	-6.747	-7.139	-8.028	4.243	5.860	19.353	15.025	19.224	234.375
-11.748	-7.554	-9.134	-5.568	-0.033	-0.846	11.956	11.880	18.690	18.926	16.304	18.272	2.201	-3.521	-10.235	-12.024	-12.111	-10.154	-9.559	-10.105	-6.799	-6.707	-7.557	3.992	6.223	18.850	14.219	18.169	238.281
-11.200	-7.154	-8.758	-5.284	-0.058	-0.660	11.442	11.858	18.179	17.833	15.316	17.110	1.646	-3.763	-9.941	-11.745	-11.696	-9.653	-9.026	-9.931	-6.872	-6.287	-7.053	3.714	6.613	18.419	13.403	17.155	242.188
-10.706	-6.827	-8.406	-5.033	-0.141	-0.527	10.891	11.789	17.654	16.766	14.386	16.020	1.128	-4.003	-9.645	-11.504	-11.184	-9.163	-8.489	-9.781	-6.974	-5.897	-6.542	3.436	7.014	18.077	12.621	16.227	246.094
-10.285	-6.614	-8.089	-4.843	-0.266	-0.443	10.346	11.701	17.158	15.798	13.558	15.052	0.690	-4.218	-9.365	-11.319	-10.621	-8.696	-7.997	-9.677	-7.114	-5.556	-6.052	3.189	7.414	17.838	11.916	15.428	250.000
-9.940	-6.549	-7.819	-4.744	-0.418	-0.401	9.844	11.627	16.740	14.995	12.876	14.251	0.359	-4.391	-9.123	-11.212	-10.079	-8.266	-7.607	-9.647	-7.298	-5.281	-5.613	2.993	7.800	17.707	11.325	14.788	253.906
-9.662	-6.651	-7.604	-4.762	-0.581	-0.392	9.422	11.609	16.450	14.409	12.376	13.646	0.145	-4.517	-8.937	-11.199	-9.637	-7.883	-7.372	-9.711	-7.530	-5.089	-5.250	2.860	8.159	17.681	10.876	14.326	257.812
-9.435	-6.921	-7.450	-4.911	-0.743	-0.410	9.108	11.682	16.326	14.069	12.085	13.250	0.041	-4.598	-8.822	-11.292	-9.358	-7.558	-7.330	-9.880	-7.806	-4.993	-4.981	2.792	8.477	17.745	10.578	14.038	261.719
-9.249	-7.334	-7.362	-5.186	-0.891	-0.449	8.919	11.873	16.393	13.977	12.010	13.054	0.024	-4.642	-8.784	-11.487	-9.275	-7.296	-7.493	-10.151	-8.115	-4.997	-4.811	2.776	8.738	17.870	10.426	13.902	265.625
-9.098	-7.844	-7.343	-5.566	-1.018	-0.507	8.864	12.189	16.653	14.113	12.140	13.034	0.061	-4.658	-8.818	-11.765	-9.380	-7.103	-7.843	-10.503	-8.437	-5.098	-4.734	2.798	8.925	18.026	10.395	13.881	269.531
-8.990	-8.391	-7.394	-6.013	-1.116	-0.581	8.939	12.619	17.084	14.434	12.445	13.153	0.123	-4.654	-8.911	-12.096	-9.630	-6.982	-8.328	-10.902	-8.745	-5.282	-4.731	2.839	9.026	18.177	10.454	13.931	273.438
-8.940	-8.910	-7.512	-6.478	-1.182	-0.670	9.132	13.129	17.643	14.887	12.878	13.370	0.187	-4.633	-9.043	-12.440	-9.961	-6.934	-8.875	-11.306	-9.006	-5.524	-4.776	2.885	9.037	18.294	10.563	14.007	277.344
-8.968	-9.346	-7.693	-6.912	-1.214	-0.773	9.422	13.672	18.270	15.413	13.387	13.642	0.246	-4.592	-9.195	-12.758	-10.301	-6.954	-9.406	-11.669	-9.184	-5.793	-4.838	2.928	8.961	18.356	10.685	14.076	281.250
-9.089	-9.660	-7.927	-7.274	-1.214	-0.888	9.781	14.193	18.899	15.962	13.916	13.935	0.308	-4.525	-9.348	-13.016	-10.593	-7.033	-9.848	-11.948	-9.250	-6.058	-4.889	2.968	8.810	18.358	10.791	14.118	285.156
-9.314	-9.835	-8.205	-7.534	-1.187	-1.015	10.181	14.640	19.470	16.492	14.417	14.224	0.393	-4.420	-9.491	-13.190	-10.802	-7.158	-10.155	-12.115	-9.185	-6.287	-4.910	3.011	8.605	18.305	10.867	14.128	289.062
-9.636	-9.880	-8.515	-7.683	-1.141	-1.155	10.591	14.973	19.935	16.976	14.853	14.497	0.526	-4.271	-9.616	-13.271	-10.924	-7.311	-10.308	-12.155	-8.986	-6.457	-4.889	3.069	8.375	18.211	10.912	14.116	292.969
-10.036	-9.820	-8.845	-7.726	-1.086	-1.308	10.983	15.165	20.262	17.401	15.201	14.748	0.728	-4.077	-9.720	-13.264	-10.975	-7.476	-10.319	-12.068	-8.671	-6.552	-4.827	3.151	8.151	18.100	10.938	14.099	296.875
-10.478	-9.698	-9.182	-7.686	-1.036	-1.476	11.330	15.209	20.444	17.759	15.454	14.979	1.006	-3.843	-9.803	-13.181	-10.982	-7.638	-10.219	-11.874	-8.271	-6.569	-4.731	3.264	7.958	17.989	10.963	14.100	300.781
-10.918	-9.560	-9.509	-7.595	-1.000	-1.656	11.613	15.116	20.484	18.049	15.613	15.190	1.352	-3.586	-9.864	-13.043	-10.974	-7.785	-10.048	-11.601	-7.825	-6.513	-4.617	3.408	7.818	17.892	11.006	14.131	304.688
-11.309	-9.448	-9.812	-7.484	-0.985	-1.840	11.819	14.909	20.403	18.271	15.684	15.378	1.744	-3.324	-9.899	-12.870	-10.968	-7.907	-9.847	-11.283	-7.376	-6.397	-4.502	3.576	7.736	17.811	11.083	14.199	308.594
-11.613	-9.387	-10.079	-7.379	-0.990	-2.016	11.944	14.618	20.221	18.420	15.674	15.536	2.149	-3.076	-9.905	-12.679	-10.970	-7.995	-9.647	-10.952	-6.957	-6.243	-4.400	3.756	7.712	17.736	11.197	14.295	312.500
-11.810	-9.387	-10.301	-7.294	-1.009	-2.167	11.992	14.278	19.964	18.494	15.594	15.654	2.532	-2.857	-9.876	-12.483	-10.972	-8.040	-9.471	-10.635	-6.590	-6.073	-4.327	3.935	7.736	17.654	11.344	14.407	316.406
-11.903	-9.434	-10.483	-7.232	-1.031	-2.280	11.977	13.921	19.656	18.489	15.453	15.726	2.868	-2.671	-9.813	-12.292	-10.962	-8.038	-9.331	-10.350	-6.283	-5.911	-4.290	4.099	7.795	17.550	11.513	14.520	320.312
-11.922	-9.506	-10.637	-7.189	-1.043	-2.345	11.919	13.574	19.318	18.411	15.265	15.754	3.143	-2.514	-9.722	-12.115	-10.931	-7.992	-9.233	-10.107	-6.034	-5.772	-4.293	4.240	7.878	17.416	11.690	14.624	324.219
-11.912	-9.577	-10.786	-7.158	-1.036	-2.362	11.846	13.257	18.974	18.273	15.055	15.750	3.361	-2.374	-9.621	-11.962	-10.879	-7.913	-9.175	-9.910	-5.828	-5.667	-4.334	4.359	7.975	17.256	11.863	14.719	328.125
-11.932	-9.627	-10.956	-7.131	-1.007	-2.341	11.782	12.983	18.645	18.102	14.849	15.740	3.538	-2.237	-9.530	-11.846	-10.814	-7.821	-9.152	-9.756	-5.653	-5.594	-4.403	4.463	8.081	17.085	12.027	14.818	332.031
-12.035	-9.651	-11.173	-7.110	-0.957	-2.298	11.753	12.759	18.353	17.932	14.684	15.757	3.700	-2.088	-9.476	-11.778	-10.753	-7.740	-9.155	-9.643	-5.491	-5.543	-4.487	4.566	8.193	16.926	12.185	14.941	335.938
-12.261	-9.654	-11.451	-7.097	-0.893	-2.253	11.779	12.583	18.117	17.803	14.591	15.838	3.875	-1.915	-9.480	-11.765	-10.718	-7.698	-9.165	-9.565	-5.331	-5.493	-4.566	4.686	8.310	16.807	12.344	15.116	339.844
-12.627	-9.657	-11.794	-7.100	-0.823	-2.220	11.868	12.450	17.946	17.749	14.593	16.010	4.083	-1.715	-9.556	-11.810	-10.721	-7.718	-9.164	-9.515	-5.168	-5.421	-4.621	4.841	8.431	16.756	12.518	15.362	343.750
-13.125	-9.682	-12.187	-7.124	-0.754	-2.209	12.021	12.353	17.842	17.792	14.695	16.283	4.336	-1.493	-9.703	-11.904	-10.767	-7.813	-9.129	-9.485	-5.000	-5.306	-4.633	5.045	8.560	16.788	12.717	15.687	347.656
-13.720	-9.749	-12.595	-7.169	-0.688	-2.220	12.222	12.279	17.791	17.933	14.877	16.642	4.630	-1.260	-9.909	-12.031	-10.849	-7.981	-9.047	-9.465	-4.828	-5.135	-4.587	5.307	8.700	16.911	12.948	16.080	351.562
-14.355	-9.871	-12.971	-7.231	-0.625	-2.247	12.446	12.215	17.765	18.150	15.094	17.044	4.946	-1.035	-10.149	-12.170	-10.948	-8.200	-8.912	-9.445	-4.656	-4.906	-4.472	5.619	8.860	17.115	13.209	16.504	355.469
-14.961	-10.047	-13.262	-7.296	-0.562	-2.275	12.659	12.148	17.731	18.395	15.278	17.419	5.255	-0.836	-10.388	-12.299	-11.042	-8.432	-8.732	-9.415	-4.488	-4.628	-4.286	5.967	9.045	17.379	13.483	16.901	359.375
-15.466	-10.255	-13.416	-7.342	-0.488	-2.288	12.828	12.070	17.652	18.603	15.347	17.680	5.522	-0.680	-10.591	-12.399	-11.107	-8.628	-8.521	-9.364	-4.325	-4.319	-4.028	6.323	9.258	17.666	13.739	17.189	363.281
-15.810	-10.457	-13.396	-7.345	-0.394	-2.266	12.922	11.976	17.494	18.706	15.219	17.732	5.714	-0.575	-10.724	-12.449	-11.122	-8.742	-8.290	-9.280	-4.167	-4.001	-3.704	6.652	9.497	17.930	13.935	17.281	367.188
-15.954	-10.595	-13.187	-7.277	-0.268	-2.189	12.922	11.869	17.237	18.638	14.830	17.498	5.803	-0.521	-10.763	-12.430	-11.072	-8.739	-8.047	-9.152	-4.008	-3.689	-3.323	6.917	9.747	18.119	14.024	17.093	371.094
-15.887	-10.610	-12.797	-7.116	-0.100	-2.044	12.825	11.759	16.875	18.362	14.147	16.929	5.775	-0.507	-10.696	-12.328	-10.952	-8.604	-7.788	-8.968	-3.843	-3.396	-2.895	7.082	9.989	18.189	13.960	16.569	375.000
-15.631	-10.449	-12.262	-6.851	0.113	-1.823	12.642	11.661	16.422	17.870	13.182	16.024	5.629	-0.516	-10.529	-12.133	-10.766	-8.345	-7.506	-8.725	-3.667	-3.127	-2.439	7.125	10.191	18.104	13.712	15.691	378.906
-15.225	-10.091	-11.628	-6.492	0.366	-1.534	12.401	11.595	15.913	17.196	12.000	14.835	5.377	-0.528	-10.278	-11.847	-10.527	-7.991	-7.193	-8.431	-3.478	-2.884	-1.976	7.032	10.324	17.849	13.269	14.495	382.812
-14.723	-9.551	-10.952	-6.071	0.645	-1.192	12.137	11.581	15.397	16.408	10.706	13.459	5.044	-0.526	-9.971	-11.491	-10.254	-7.580	-6.852	-8.105	-3.282	-2.672	-1.534	6.811	10.357	17.429	12.649	13.065	386.719
-14.179	-8.886	-10.283	-5.636	0.924	-0.826	11.888	11.636	14.932	15.597	9.437	12.026	4.662	-0.500	-9.639	-11.097	-9.969	-7.154	-6.501	-7.782	-3.090	-2.496	-1.141	6.478	10.269	16.870	11.889	11.526	390.625
-13.637	-8.183	-9.661	-5.248	1.177	-0.469	11.688	11.774	14.577	14.856	8.330	10.676	4.268	-0.448	-9.313	-10.711	-9.689	-6.745	-6.171	-7.499	-2.918	-2.370	-0.829	6.064	10.049	16.211	11.047	10.016	394.531
-13.124	-7.537	-9.110	-4.962	1.378	-0.151	11.558	12.003	14.380	14.264	7.499	9.527	3.894	-0.378	-9.013	-10.380	-9.428	-6.371	-5.903	-7.297	-2.781	-2.306	-0.620	5.606	9.703	15.500	10.183	8.665	398.438
-12.653	-7.034	-8.641	-4.820	1.503	0.102	11.503	12.325	14.368	13.865	7.009	8.655	3.568	-0.307	-8.753	-10.142	-9.190	-6.041	-5.733	-7.203	-2.695	-2.315	-0.525	5.137	9.250	14.781	9.353	7.566	402.344
-12.225	-6.728	-8.257	-4.837	1.543	0.280	11.511	12.731	14.542	13.660	6.864	8.082	3.305	-0.255	-8.536	-10.020	-8.974	-5.751	-5.690	-7.230	-2.665	-2.397	-0.539	4.690	8.727	14.097	8.599	6.761	406.250
-11.832	-6.628	-7.953	-5.004	1.495	0.380	11.555	13.206	14.874	13.610	7.008	7.776	3.107	-0.238	-8.359	-10.014	-8.773	-5.494	-5.775	-7.369	-2.690	-2.545	-0.639	4.291	8.181	13.478	7.943	6.239	410.156
-11.468	-6.705	-7.721	-5.285	1.368	0.415	11.598	13.722	15.310	13.644	7.336	7.659	2.966	-0.267	-8.218	-10.101	-8.581	-5.265	-5.969	-7.593	-2.757	-2.732	-0.788	3.958	7.666	12.946	7.388	5.944	414.062
-11.132	-6.900	-7.549	-5.632	1.179	0.401	11.601	14.244	15.777	13.679	7.720	7.634	2.864	-0.341	-8.104	-10.242	-8.389	-5.063	-6.225	-7.856	-2.844	-2.924	-0.939	3.701	7.236	12.512	6.923	5.791	417.969
-10.824	-7.139	-7.423	-5.990	0.948	0.362	11.532	14.729	16.198	13.641	8.037	7.603	2.781	-0.447	-8.009	-10.385	-8.190	-4.890	-6.483	-8.105	-2.925	-3.078	-1.045	3.526	6.933	12.178	6.531	5.691	421.875
-10.552	-7.352	-7.330	-6.308	0.698	0.313	11.372	15.131	16.502	13.480	8.190	7.491	2.698	-0.564	-7.926	-10.481	-7.980	-4.751	-6.681	-8.290	-2.969	-3.153	-1.071	3.428	6.781	11.933	6.191	5.568	425.781
-10.320	-7.487	-7.257	-6.550	0.449	0.265	11.119	15.410	16.637	13.180	8.133	7.258	2.600	-0.668	-7.847	-10.486	-7.758	-4.647	-6.766	-8.369	-2.952	-3.118	-0.994	3.398	6.780	11.758	5.886	5.371	429.688
-10.131	-7.515	-7.193	-6.690	0.219	0.221	10.788	15.538	16.583	12.760	7.869	6.904	2.481	-0.734	-7.763	-10.372	-7.522	-4.578	-6.706	-8.315	-2.856	-2.959	-0.815	3.420	6.904	11.621	5.601	5.083	433.594
-9.983	-7.428	-7.130	-6.718	0.025	0.178	10.412	15.503	16.347	12.266	7.446	6.461	2.342	-0.742	-7.664	-10.129	-7.277	-4.536	-6.498	-8.119	-2.675	-2.678	-0.553	3.470	7.108	11.485	5.327	4.711	437.500
-9.868	-7.238	-7.063	-6.635	-0.119	0.134	10.027	15.309	15.962	11.756	6.942	5.978	2.187	-0.682	-7.545	-9.762	-7.028	-4.509	-6.161	-7.788	-2.414	-2.300	-0.241	3.524	7.336	11.308	5.053	4.279	441.406
-9.780	-6.963	-6.985	-6.449	-0.200	0.086	9.671	14.982	15.478	11.287	6.437	5.509	2.028	-0.552	-7.402	-9.292	-6.784	-4.481	-5.733	-7.342	-2.089	-1.859	0.079	3.555	7.533	11.058	4.773	3.822	445.312
-9.709	-6.625	-6.888	-6.174	-0.206	0.043	9.374	14.558	14.949	10.900	6.000	5.095	1.872	-0.358	-7.233	-8.748	-6.551	-4.438	-5.262	-6.809	-1.720	-1.399	0.366	3.545	7.653	10.708	4.479	3.370	449.219
-9.649	-6.245	-6.768	-5.827	-0.128	0.015	9.151	14.081	14.424	10.615	5.674	4.765	1.731	-0.113	-7.042	-8.165	-6.334	-4.368	-4.794	-6.225	-1.332	-0.964	0.589	3.483	7.666	10.252	4.169	2.949	453.125
-9.596	-5.841	-6.618	-5.427	0.037	0.019	9.007	13.598	13.939	10.433	5.474	4.525	1.612	0.168	-6.835	-7.575	-6.130	-4.263	-4.370	-5.625	-0.953	-0.591	0.732	3.364	7.556	9.697	3.840	2.578	457.031
-9.547	-5.429	-6.440	-4.993	0.289	0.073	8.932	13.152	13.521	10.338	5.389	4.369	1.518	0.465	-6.619	-7.012	-5.934	-4.125	-4.014	-5.045	-0.603	-0.307	0.791	3.196	7.325	9.067	3.496	2.266	460.938
-9.494	-5.023	-6.237	-4.546	0.617	0.192	8.913	12.779	13.181	10.303	5.391	4.280	1.453	0.759	-6.398	-6.504	-5.737	-3.961	-3.740	-4.520	-0.304	-0.125	0.780	2.990	6.981	8.392	3.143	2.016	464.844
-9.426	-4.635	-6.017	-4.104	1.006	0.386	8.933	12.504	12.922	10.299	5.446	4.235	1.417	1.032	-6.180	-6.076	-5.529	-3.786	-3.546	-4.076	-0.068	-0.041	0.718	2.761	6.544	7.708	2.792	1.826	468.750
-9.330	-4.278	-5.791	-3.685	1.432	0.654	8.976	12.340	12.740	10.302	5.523	4.216	1.408	1.266	-5.968	-5.744	-5.307	-3.618	-3.424	-3.734	0.098	-0.043	0.629	2.521	6.037	7.048	2.452	1.691	472.656
-9.195	-3.959	-5.575	-3.302	1.871	0.983	9.031	12.285	12.629	10.297	5.600	4.208	1.420	1.447	-5.769	-5.518	-5.074	-3.479	-3.356	-3.503	0.191	-0.109	0.533	2.280	5.489	6.443	2.136	1.602	476.562
-9.019	-3.685	-5.383	-2.966	2.297	1.352	9.093	12.323	12.579	10.278	5.668	4.206	1.447	1.566	-5.590	-5.395	-4.843	-3.390	-3.324	-3.381	0.217	-0.214	0.447	2.046	4.931	5.914	1.852	1.552	480.469
-8.810	-3.458	-5.230	-2.684	2.687	1.733	9.161	12.430	12.582	10.254	5.728	4.211	1.481	1.617	-5.440	-5.361	-4.633	-3.366	-3.307	-3.354	0.187	-0.336	0.375	1.821	4.396	5.475	1.611	1.534	484.375
-8.586	-3.279	-5.128	-2.459	3.021	2.092	9.238	12.579	12.630	10.244	5.796	4.235	1.514	1.601	-5.329	-5.396	-4.469	-3.420	-3.293	-3.400	0.112	-0.456	0.316	1.610	3.913	5.131	1.419	1.544	488.281
-8.376	-3.147	-5.079	-2.293	3.289	2.398	9.329	12.740	12.719	10.270	5.891	4.292	1.540	1.527	-5.269	-5.474	-4.374	-3.551	-3.276	-3.496	0.005	-0.569	0.262	1.416	3.507	4.882	1.282	1.584	492.188
-8.212	-3.060	-5.083	-2.184	3.485	2.628	9.438	12.887	12.846	10.354	6.031	4.398	1.556	1.405	-5.266	-5.568	-4.369	-3.749	-3.257	-3.615	-0.121	-0.674	0.202	1.245	3.194	4.718	1.203	1.663	496.094
-8.119	-3.018	-5.130	-2.128	3.612	2.767	9.566	13.002	13.009	10.512	6.230	4.568	1.562	1.252	-5.326	-5.658	-4.470	-3.996	-3.246	-3.739	-0.255	-0.778	0.128	1.106	2.983	4.628	1.182	1.791	500.000
-8.115	-3.020	-5.213	-2.120	3.677	2.813	9.712	13.073	13.201	10.745	6.492	4.807	1.564	1.086	-5.445	-5.732	-4.681	-4.266	-3.252	-3.854	-0.390	-0.889	0.035	1.009	2.871	4.601	1.221	1.979	503.906
-8.200	-3.068	-5.322	-2.156	3.688	2.770	9.865	13.097	13.414	11.043	6.808	5.113	1.568	0.925	-5.613	-5.785	-4.990	-4.529	-3.283	-3.952	-0.516	-1.011	-0.076	0.966	2.850	4.622	1.316	2.235	507.812
-8.357	-3.162	-5.454	-2.231	3.655	2.653	10.011	13.073	13.632	11.379	7.157	5.472	1.583	0.786	-5.811	-5.824	-5.370	-4.757	-3.343	-4.034	-0.629	-1.144	-0.196	0.984	2.902	4.684	1.465	2.556	511.719
-8.554	-3.308	-5.603	-2.348	3.584	2.480	10.131	13.008	13.834	11.718	7.510	5.856	1.615	0.684	-6.013	-5.862	-5.776	-4.924	-3.432	-4.107	-0.722	-1.283	-0.311	1.067	3.005	4.775	1.658	2.928	515.625
-8.751	-3.510	-5.766	-2.509	3.479	2.271	10.207	12.906	13.998	12.022	7.836	6.235	1.669	0.627	-6.188	-5.914	-6.152	-5.011	-3.541	-4.181	-0.793	-1.414	-0.403	1.213	3.136	4.890	1.886	3.323	519.531
-8.904	-3.772	-5.937	-2.718	3.343	2.045	10.225	12.775	14.101	12.257	8.101	6.569	1.743	0.623	-6.307	-5.993	-6.440	-5.005	-3.660	-4.265	-0.839	-1.526	-0.455	1.410	3.271	5.019	2.132	3.704	523.438
-8.980	-4.094	-6.108	-2.975	3.178	1.819	10.177	12.621	14.128	12.396	8.282	6.825	1.833	0.673	-6.348	-6.109	-6.593	-4.903	-3.778	-4.369	-0.860	-1.604	-0.455	1.640	3.391	5.153	2.376	4.033	527.344
-8.958	-4.469	-6.271	-3.271	2.989	1.603	10.062	12.453	14.068	12.423	8.361	6.976	1.932	0.774	-6.300	-6.261	-6.587	-4.705	-3.882	-4.496	-0.855	-1.637	-0.393	1.881	3.486	5.280	2.598	4.275	531.250
-8.836	-4.877	-6.412	-3.587	2.782	1.406	9.887	12.277	13.921	12.332	8.334	7.005	2.026	0.916	-6.166	-6.441	-6.422	-4.420	-3.965	-4.645	-0.823	-1.621	-0.271	2.106	3.553	5.387	2.776	4.404	535.156
-8.628	-5.291	-6.515	-3.897	2.565	1.228	9.662	12.102	13.695	12.127	8.208	6.911	2.101	1.083	-5.962	-6.635	-6.129	-4.061	-4.021	-4.808	-0.765	-1.555	-0.098	2.293	3.597	5.463	2.892	4.410	539.062
-8.360	-5.676	-6.563	-4.171	2.349	1.069	9.399	11.933	13.405	11.819	7.998	6.703	2.141	1.252	-5.715	-6.823	-5.757	-3.647	-4.047	-4.973	-0.684	-1.445	0.110	2.422	3.629	5.495	2.933	4.297	542.969
-8.059	-5.995	-6.539	-4.378	2.144	0.924	9.107	11.773	13.067	11.424	7.727	6.400	2.134	1.403	-5.455	-6.985	-5.364	-3.203	-4.039	-5.127	-0.583	-1.301	0.333	2.481	3.663	5.475	2.889	4.081	546.875
-7.754	-6.216	-6.433	-4.496	1.960	0.793	8.794	11.620	12.700	10.962	7.420	6.028	2.070	1.511	-5.211	-7.102	-5.002	-2.759	-3.990	-5.253	-0.470	-1.134	0.551	2.468	3.713	5.397	2.759	3.788	550.781
-7.463	-6.317	-6.243	-4.515	1.801	0.675	8.462	11.468	12.319	10.458	7.100	5.617	1.945	1.559	-5.002	-7.158	-4.709	-2.344	-3.893	-5.338	-0.355	-0.956	0.743	2.384	3.786	5.261	2.545	3.448	554.688
-7.192	-6.290	-5.985	-4.435	1.671	0.571	8.115	11.312	11.938	9.934	6.788	5.196	1.765	1.535	-4.839	-7.142	-4.498	-1.985	-3.743	-5.372	-0.251	-0.779	0.891	2.238	3.884	5.071	2.258	3.093	558.594
-6.939	-6.143	-5.679	-4.271	1.567	0.483	7.751	11.145	11.567	9.413	6.501	4.789	1.539	1.435	-4.715	-7.049	-4.362	-1.693	-3.538	-5.352	-0.172	-0.616	0.987	2.039	4.005	4.834	1.913	2.748	562.500
-6.690	-5.898	-5.353	-4.045	1.481	0.415	7.371	10.961	11.216	8.915	6.248	4.413	1.284	1.264	-4.617	-6.884	-4.277	-1.469	-3.287	-5.282	-0.133	-0.477	1.026	1.800	4.139	4.560	1.525	2.431	566.406
-6.432	-5.585	-5.036	-3.780	1.404	0.366	6.979	10.759	10.889	8.452	6.035	4.078	1.016	1.032	-4.522	-6.657	-4.205	-1.294	-3.003	-5.171	-0.144	-0.371	1.011	1.530	4.274	4.264	1.117	2.154	570.312
-6.149	-5.242	-4.751	-3.503	1.329	0.339	6.580	10.544	10.594	8.028	5.862	3.788	0.752	0.757	-4.409	-6.385	-4.113	-1.145	-2.707	-5.035	-0.212	-0.304	0.949	1.242	4.397	3.962	0.707	1.921	574.219
-5.836	-4.900	-4.517	-3.233	1.248	0.330	6.185	10.322	10.336	7.645	5.725	3.541	0.506	0.458	-4.261	-6.089	-3.969	-0.994	-2.427	-4.891	-0.334	-0.280	0.854	0.949	4.499	3.675	0.319	1.733	578.125
-5.493	-4.589	-4.343	-2.987	1.161	0.339	5.805	10.107	10.118	7.297	5.618	3.333	0.286	0.154	-4.071	-5.793	-3.758	-0.825	-2.188	-4.756	-0.506	-0.296	0.741	0.666	4.575	3.427	-0.027	1.588	582.031
-5.129	-4.328	-4.231	-2.775	1.070	0.361	5.453	9.912	9.942	6.976	5.535	3.159	0.096	-0.139	-3.845	-5.524	-3.481	-0.635	-2.016	-4.650	-0.715	-0.348	0.626	0.408	4.627	3.245	-0.310	1.483	585.938
-4.761	-4.127	-4.176	-2.599	0.982	0.393	5.139	9.746	9.806	6.677	5.466	3.016	-0.068	-0.408	-3.599	-5.307	-3.157	-0.437	-1.923	-4.587	-0.948	-0.427	0.524	0.190	4.661	3.153	-0.516	1.417	589.844
-4.410	-3.981	-4.162	-2.459	0.905	0.432	4.866	9.613	9.702	6.392	5.401	2.901	-0.212	-0.648	-3.362	-5.163	-2.820	-0.258	-1.914	-4.578	-1.190	-0.521	0.447	0.022	4.690	3.170	-0.633	1.391	593.750
-4.099	-3.879	-4.169	-2.351	0.849	0.479	4.634	9.509	9.616	6.117	5.328	2.810	-0.343	-0.856	-3.161	-5.103	-2.516	-0.123	-1.980	-4.627	-1.427	-0.619	0.401	-0.089	4.725	3.306	-0.657	1.407	597.656
-3.847	-3.803	-4.172	-2.269	0.818	0.535	4.438	9.424	9.531	5.852	5.233	2.741	-0.470	-1.033	-3.022	-5.128	-2.285	-0.054	-2.103	-4.729	-1.645	-0.712	0.387	-0.146	4.773	3.560	-0.589	1.465	601.562
-3.670	-3.737	-4.149	-2.211	0.816	0.600	4.273	9.342	9.429	5.599	5.110	2.691	-0.592	-1.175	-2.960	-5.229	-2.162	-0.055	-2.259	-4.872	-1.829	-0.793	0.403	-0.156	4.834	3.913	-0.441	1.563	605.469
-3.574	-3.671	-4.088	-2.178	0.841	0.673	4.136	9.251	9.295	5.369	4.956	2.659	-0.704	-1.278	-2.978	-5.387	-2.164	-0.117	-2.421	-5.035	-1.968	-0.856	0.439	-0.131	4.900	4.335	-0.228	1.698	609.375
-3.558	-3.605	-3.986	-2.176	0.884	0.749	4.030	9.142	9.126	5.176	4.781	2.647	-0.791	-1.330	-3.064	-5.575	-2.289	-0.221	-2.562	-5.195	-2.049	-0.897	0.487	-0.083	4.959	4.783	0.030	1.860	613.281
-3.614	-3.549	-3.860	-2.215	0.936	0.822	3.963	9.014	8.926	5.041	4.603	2.662	-0.833	-1.319	-3.200	-5.768	-2.516	-0.347	-2.659	-5.329	-2.062	-0.914	0.534	-0.019	4.997	5.211	0.312	2.041	617.188
-3.731	-3.519	-3.734	-2.304	0.983	0.884	3.949	8.872	8.710	4.988	4.448	2.713	-0.807	-1.235	-3.365	-5.943	-2.812	-0.481	-2.693	-5.417	-2.002	-0.903	0.573	0.056	5.005	5.573	0.600	2.229	621.094
-3.896	-3.529	-3.642	-2.448	1.013	0.927	4.000	8.725	8.502	5.033	4.341	2.806	-0.694	-1.072	-3.534	-6.084	-3.136	-0.620	-2.654	-5.446	-1.870	-0.861	0.593	0.145	4.980	5.832	0.877	2.410	625.000
-4.094	-3.590	-3.609	-2.647	1.013	0.942	4.126	8.587	8.324	5.185	4.303	2.944	-0.491	-0.838	-3.692	-6.180	-3.440	-0.768	-2.538	-5.413	-1.673	-0.787	0.589	0.250	4.927	5.963	1.129	2.569	628.906
-4.313	-3.697	-3.648	-2.890	0.977	0.923	4.326	8.467	8.197	5.438	4.342	3.119	-0.208	-0.551	-3.822	-6.227	-3.679	-0.935	-2.352	-5.324	-1.424	-0.680	0.559	0.373	4.855	5.956	1.339	2.688	632.812
-4.537	-3.834	-3.752	-3.155	0.901	0.868	4.586	8.374	8.130	5.765	4.451	3.311	0.128	-0.241	-3.914	-6.225	-3.812	-1.124	-2.107	-5.189	-1.140	-0.543	0.507	0.514	4.778	5.813	1.493	2.748	636.719
-4.751	-3.970	-3.895	-3.415	0.788	0.778	4.878	8.306	8.121	6.128	4.605	3.491	0.474	0.061	-3.960	-6.173	-3.811	-1.330	-1.819	-5.024	-0.840	-0.377	0.444	0.663	4.707	5.551	1.573	2.733	640.625
-4.932	-4.071	-4.041	-3.636	0.647	0.664	5.163	8.258	8.157	6.474	4.771	3.624	0.781	0.320	-3.957	-6.074	-3.667	-1.538	-1.504	-4.843	-0.542	-0.189	0.387	0.806	4.647	5.198	1.562	2.629	644.531
-5.061	-4.106	-4.155	-3.791	0.493	0.541	5.399	8.221	8.214	6.747	4.912	3.679	1.004	0.515	-3.902	-5.928	-3.393	-1.722	-1.178	-4.657	-0.259	0.014	0.353	0.927	4.602	4.790	1.450	2.436	648.438
-5.116	-4.053	-4.209	-3.862	0.340	0.427	5.546	8.183	8.266	6.897	4.996	3.636	1.106	0.631	-3.800	-5.743	-3.027	-1.854	-0.857	-4.473	0.002	0.224	0.360	1.008	4.571	4.369	1.237	2.165	652.344
-5.083	-3.912	-4.195	-3.848	0.204	0.338	5.576	8.134	8.288	6.887	5.000	3.487	1.068	0.672	-3.661	-5.531	-2.621	-1.907	-0.554	-4.295	0.237	0.435	0.422	1.037	4.549	3.982	0.934	1.844	656.250
-4.958	-3.699	-4.118	-3.764	0.094	0.283	5.474	8.066	8.256	6.698	4.916	3.246	0.889	0.649	-3.496	-5.311	-2.229	-1.863	-0.282	-4.124	0.446	0.638	0.542	1.011	4.536	3.671	0.569	1.511	660.156
-4.749	-3.448	-3.996	-3.640	0.012	0.264	5.244	7.974	8.154	6.333	4.746	2.936	0.585	0.581	-3.318	-5.104	-1.892	-1.715	-0.052	-3.963	0.631	0.827	0.720	0.936	4.531	3.471	0.178	1.211	664.062
-4.471	-3.205	-3.855	-3.512	-0.047	0.272	4.908	7.855	7.970	5.814	4.503	2.591	0.186	0.489	-3.140	-4.934	-1.632	-1.472	0.128	-3.812	0.793	0.998	0.946	0.826	4.534	3.400	-0.196	0.985	667.969
-4.146	-3.009	-3.719	-3.414	-0.090	0.294	4.495	7.709	7.701	5.181	4.204	2.244	-0.269	0.394	-2.966	-4.815	-1.446	-1.155	0.261	-3.673	0.934	1.150	1.206	0.701	4.542	3.458	-0.515	0.861	671.875
-3.799	-2.894	-3.603	-3.369	-0.127	0.311	4.041	7.538	7.350	4.484	3.868	1.923	-0.742	0.312	-2.799	-4.751	-1.307	-0.792	0.362	-3.547	1.058	1.286	1.487	0.579	4.551	3.625	-0.753	0.847	675.781
-3.453	-2.868	-3.513	-3.383	-0.164	0.313	3.581	7.344	6.929	3.775	3.513	1.644	-1.196	0.252	-2.634	-4.733	-1.176	-0.421	0.457	-3.433	1.168	1.413	1.772	0.474	4.556	3.860	-0.899	0.929	679.688
-3.126	-2.925	-3.445	-3.447	-0.201	0.297	3.147	7.133	6.459	3.105	3.157	1.411	-1.607	0.217	-2.469	-4.741	-1.016	-0.075	0.581	-3.330	1.265	1.536	2.046	0.394	4.551	4.111	-0.964	1.071	683.594
-2.827	-3.037	-3.386	-3.538	-0.234	0.271	2.767	6.918	5.970	2.519	2.814	1.219	-1.961	0.202	-2.300	-4.750	-0.801	0.213	0.762	-3.236	1.350	1.663	2.295	0.336	4.535	4.325	-0.976	1.227	687.500
-2.556	-3.172	-3.320	-3.628	-0.254	0.252	2.459	6.713	5.497	2.049	2.501	1.051	-2.255	0.197	-2.130	-4.740	-0.531	0.421	1.016	-3.151	1.416	1.792	2.508	0.291	4.510	4.458	-0.975	1.342	691.406
-2.308	-3.298	-3.231	-3.694	-0.252	0.261	2.236	6.537	5.082	1.713	2.230	0.890	-2.492	0.190	-1.966	-4.698	-0.230	0.544	1.338	-3.079	1.453	1.919	2.678	0.248	4.482	4.482	-1.002	1.373	695.312
-2.076	-3.395	-3.108	-3.722	-0.225	0.315	2.103	6.406	4.761	1.513	2.010	0.721	-2.682	0.167	-1.819	-4.625	0.059	0.590	1.697	-3.024	1.446	2.036	2.803	0.199	4.460	4.392	-1.087	1.293	699.219
-1.858	-3.455	-2.947	-3.712	-0.174	0.420	2.053	6.333	4.557	1.435	1.843	0.534	-2.832	0.119	-1.700	-4.529	0.290	0.585	2.047	-2.995	1.384	2.133	2.886	0.141	4.453	4.204	-1.243	1.098	703.125
-1.661	-3.479	-2.753	-3.673	-0.107	0.572	2.072	6.320	4.478	1.451	1.720	0.325	-2.949	0.043	-1.619	-4.425	0.424	0.563	2.336	-2.995	1.260	2.206	2.937	0.082	4.468	3.953	-1.460	0.807	707.031
-1.500	-3.476	-2.537	-3.619	-0.035	0.756	2.137	6.358	4.510	1.523	1.622	0.100	-3.036	-0.056	-1.576	-4.322	0.445	0.561	2.529	-3.026	1.076	2.256	2.968	0.040	4.505	3.681	-1.706	0.460	710.938
-1.396	-3.451	-2.320	-3.565	0.028	0.949	2.221	6.430	4.619	1.608	1.526	-0.130	-3.090	-0.166	-1.568	-4.224	0.368	0.606	2.611	-3.078	0.849	2.292	2.995	0.035	4.562	3.429	-1.936	0.106	714.844
-1.370	-3.405	-2.127	-3.518	0.073	1.128	2.300	6.509	4.757	1.669	1.408	-0.348	-3.108	-0.269	-1.580	-4.123	0.227	0.714	2.596	-3.137	0.607	2.330	3.030	0.088	4.629	3.226	-2.101	-0.206	718.750
-1.433	-3.335	-1.982	-3.482	0.091	1.268	2.355	6.570	4.875	1.681	1.251	-0.538	-3.085	-0.345	-1.597	-4.006	0.071	0.881	2.517	-3.182	0.385	2.384	3.081	0.214	4.695	3.087	-2.159	-0.440	722.656
-1.579	-3.240	-1.903	-3.456	0.079	1.354	2.377	6.591	4.931	1.634	1.053	-0.685	-3.017	-0.379	-1.604	-3.862	-0.056	1.084	2.416	-3.194	0.222	2.464	3.149	0.413	4.745	3.006	-2.087	-0.577	726.562
-1.782	-3.124	-1.897	-3.438	0.040	1.375	2.370	6.561	4.900	1.535	0.824	-0.780	-2.903	-0.357	-1.589	-3.684	-0.125	1.286	2.331	-3.158	0.149	2.570	3.228	0.676	4.767	2.962	-1.884	-0.621	730.469
-1.999	-3.001	-1.958	-3.427	-0.022	1.330	2.344	6.481	4.778	1.406	0.588	-0.819	-2.744	-0.278	-1.549	-3.476	-0.130	1.443	2.285	-3.067	0.187	2.693	3.305	0.978	4.748	2.921	-1.572	-0.591	734.375
-2.180	-2.891	-2.067	-3.422	-0.096	1.225	2.319	6.361	4.584	1.278	0.379	-0.806	-2.545	-0.147	-1.485	-3.251	-0.085	1.520	2.284	-2.926	0.341	2.814	3.366	1.285	4.678	2.848	-1.196	-0.524	738.281
-2.281	-2.811	-2.202	-3.422	-0.171	1.075	2.312	6.219	4.353	1.184	0.230	-0.749	-2.313	0.025	-1.402	-3.024	-0.017	1.496	2.319	-2.747	0.599	2.912	3.397	1.559	4.549	2.711	-0.809	-0.456	742.188
-2.272	-2.773	-2.333	-3.425	-0.235	0.900	2.341	6.079	4.128	1.152	0.172	-0.659	-2.056	0.219	-1.308	-2.809	0.044	1.375	2.373	-2.552	0.932	2.965	3.388	1.767	4.357	2.484	-0.470	-0.420	746.094
-2.148	-2.773	-2.439	-3.422	-0.276	0.725	2.412	5.960	3.950	1.198	0.225	-0.547	-1.786	0.414	-1.208	-2.613	0.078	1.182	2.420	-2.360	1.297	2.961	3.336	1.881	4.101	2.157	-0.228	-0.441	750.000
-1.924	-2.795	-2.500	-3.405	-0.286	0.572	2.522	5.877	3.851	1.324	0.395	-0.426	-1.514	0.590	-1.104	-2.436	0.077	0.964	2.440	-2.192	1.650	2.895	3.244	1.888	3.791	1.733	-0.118	-0.527	753.906
-1.629	-2.814	-2.507	-3.361	-0.263	0.462	2.654	5.832	3.836	1.508	0.666	-0.308	-1.255	0.727	-0.993	-2.273	0.051	0.773	2.416	-2.060	1.948	2.777	3.125	1.791	3.441	1.233	-0.152	-0.673	757.812
-1.300	-2.805	-2.458	-3.282	-0.214	0.406	2.782	5.813	3.892	1.713	1.004	-0.208	-1.029	0.808	-0.870	-2.116	0.022	0.658	2.344	-1.971	2.156	2.625	2.996	1.608	3.076	0.690	-0.318	-0.863	761.719
-0.966	-2.749	-2.360	-3.168	-0.153	0.404	2.867	5.797	3.976	1.888	1.358	-0.141	-0.855	0.823	-0.729	-1.962	0.019	0.653	2.228	-1.926	2.260	2.468	2.873	1.370	2.730	0.149	-0.583	-1.071	765.625
-0.650	-2.642	-2.228	-3.025	-0.098	0.450	2.870	5.752	4.034	1.977	1.664	-0.121	-0.753	0.768	-0.568	-1.815	0.070	0.772	2.079	-1.920	2.260	2.330	2.776	1.118	2.436	-0.339	-0.895	-1.270	769.531
-0.362	-2.489	-2.082	-2.868	-0.066	0.530	2.756	5.642	4.004	1.927	1.861	-0.161	-0.737	0.647	-0.384	-1.685	0.191	1.004	1.912	-1.944	2.172	2.237	2.717	0.891	2.226	-0.729	-1.196	-1.433	773.438
-0.100	-2.305	-1.943	-2.716	-0.070	0.632	2.500	5.436	3.834	1.704	1.898	-0.267	-0.816	0.471	-0.183	-1.588	0.387	1.321	1.743	-1.990	2.023	2.202	2.702	0.726	2.121	-0.982	-1.431	-1.538	777.344
0.144	-2.112	-1.830	-2.586	-0.116	0.747	2.093	5.116	3.489	1.289	1.747	-0.440	-0.989	0.253	0.031	-1.536	0.649	1.687	1.581	-2.050	1.842	2.229	2.732	0.645	2.131	-1.082	-1.560	-1.572	781.250
0.381	-1.924	-1.754	-2.489	-0.200	0.870	1.543	4.674	2.960	0.692	1.404	-0.674	-1.244	0.010	0.250	-1.537	0.960	2.068	1.433	-2.117	1.657	2.312	2.798	0.654	2.250	-1.032	-1.561	-1.536	785.156
0.623	-1.754	-1.717	-2.429	-0.315	0.999	0.874	4.122	2.266	-0.058	0.894	-0.958	-1.565	-0.246	0.470	-1.589	1.300	2.440	1.297	-2.186	1.486	2.438	2.891	0.746	2.456	-0.855	-1.441	-1.438	789.062
0.878	-1.604	-1.710	-2.398	-0.450	1.131	0.122	3.486	1.447	-0.916	0.263	-1.275	-1.926	-0.503	0.689	-1.682	1.651	2.789	1.171	-2.254	1.339	2.589	2.998	0.898	2.720	-0.594	-1.225	-1.297	792.969
1.150	-1.470	-1.722	-2.387	-0.594	1.262	-0.669	2.804	0.561	-1.825	-0.427	-1.607	-2.304	-0.757	0.907	-1.797	2.004	3.113	1.050	-2.318	1.214	2.750	3.109	1.079	3.008	-0.297	-0.956	-1.136	796.875
