FP1	F3	F7	FC3	C3	C5	P3	P7	PO7	PO3	O1	Oz	Pz	CPz	FP2	Fz	F4	F8	FC4	FCz	Cz	C4	C6	P4	P8	PO8	PO4	O2	time
-0.056	-0.945	0.373	-0.976	-1.075	-2.128	-0.226	-1.559	-1.349	0.248	-1.112	-0.085	1.965	1.620	-0.619	-0.878	0.103	-2.144	0.289	0.171	1.462	0.971	1.033	1.197	0.928	0.296	0.941	0.821	-199.219
-0.164	-0.818	0.090	-0.833	-0.821	-1.703	-0.005	-1.044	-0.938	0.559	-0.709	0.009	1.778	1.467	-0.688	-0.782	-0.339	-1.944	0.043	0.158	1.254	0.686	1.006	0.995	0.774	0.392	0.937	0.821	-195.312
-0.266	-0.723	-0.183	-0.701	-0.572	-1.309	0.198	-0.574	-0.559	0.836	-0.319	0.126	1.604	1.328	-0.746	-0.667	-0.729	-1.771	-0.178	0.165	1.072	0.415	0.947	0.798	0.622	0.480	0.935	0.837	-191.406
-0.356	-0.679	-0.434	-0.585	-0.334	-0.970	0.354	-0.199	-0.244	1.040	0.034	0.277	1.445	1.210	-0.780	-0.517	-1.026	-1.629	-0.349	0.212	0.934	0.181	0.837	0.608	0.478	0.553	0.933	0.874	-187.500
-0.427	-0.691	-0.654	-0.483	-0.116	-0.701	0.440	0.044	-0.025	1.138	0.327	0.458	1.301	1.118	-0.779	-0.324	-1.200	-1.518	-0.451	0.304	0.852	0.004	0.672	0.433	0.342	0.601	0.928	0.928	-183.594
-0.472	-0.753	-0.829	-0.392	0.077	-0.508	0.438	0.134	0.074	1.108	0.538	0.655	1.164	1.050	-0.737	-0.088	-1.235	-1.427	-0.471	0.442	0.826	-0.096	0.462	0.280	0.211	0.619	0.913	0.992	-179.688
-0.486	-0.848	-0.949	-0.307	0.236	-0.388	0.338	0.070	0.042	0.942	0.649	0.841	1.025	0.997	-0.650	0.183	-1.131	-1.339	-0.404	0.615	0.848	-0.107	0.233	0.156	0.085	0.602	0.878	1.048	-175.781
-0.465	-0.954	-1.003	-0.227	0.349	-0.332	0.141	-0.127	-0.115	0.645	0.649	0.982	0.870	0.947	-0.521	0.475	-0.907	-1.236	-0.257	0.807	0.900	-0.022	0.018	0.070	-0.036	0.548	0.815	1.080	-171.875
-0.410	-1.045	-0.984	-0.155	0.405	-0.327	-0.145	-0.426	-0.376	0.236	0.536	1.044	0.685	0.885	-0.357	0.775	-0.596	-1.093	-0.040	0.999	0.958	0.155	-0.145	0.024	-0.146	0.461	0.717	1.069	-167.969
-0.325	-1.098	-0.896	-0.099	0.391	-0.360	-0.503	-0.780	-0.705	-0.250	0.321	1.001	0.456	0.795	-0.169	1.069	-0.237	-0.895	0.227	1.173	0.999	0.411	-0.224	0.017	-0.236	0.347	0.582	1.003	-164.062
-0.216	-1.100	-0.747	-0.066	0.297	-0.420	-0.904	-1.142	-1.056	-0.770	0.027	0.842	0.180	0.666	0.031	1.345	0.132	-0.633	0.522	1.315	1.005	0.720	-0.199	0.040	-0.295	0.216	0.415	0.878	-160.156
-0.092	-1.044	-0.559	-0.068	0.119	-0.500	-1.314	-1.464	-1.381	-1.275	-0.312	0.572	-0.137	0.494	0.235	1.598	0.485	-0.309	0.826	1.420	0.963	1.053	-0.072	0.083	-0.309	0.080	0.224	0.697	-156.250
0.038	-0.937	-0.355	-0.111	-0.141	-0.599	-1.690	-1.705	-1.637	-1.717	-0.658	0.214	-0.479	0.286	0.434	1.823	0.812	0.059	1.118	1.486	0.873	1.373	0.134	0.132	-0.270	-0.047	0.025	0.476	-152.344
0.164	-0.796	-0.164	-0.197	-0.467	-0.714	-1.991	-1.836	-1.790	-2.055	-0.971	-0.193	-0.817	0.054	0.624	2.019	1.116	0.439	1.385	1.517	0.741	1.642	0.377	0.177	-0.172	-0.154	-0.169	0.232	-148.438
0.276	-0.643	-0.010	-0.325	-0.836	-0.843	-2.178	-1.837	-1.819	-2.256	-1.216	-0.606	-1.118	-0.179	0.797	2.177	1.404	0.795	1.610	1.513	0.581	1.832	0.608	0.209	-0.022	-0.229	-0.340	-0.010	-144.531
0.361	-0.507	0.087	-0.486	-1.213	-0.974	-2.224	-1.706	-1.717	-2.302	-1.370	-0.976	-1.347	-0.390	0.946	2.285	1.679	1.087	1.782	1.472	0.408	1.918	0.782	0.227	0.168	-0.265	-0.475	-0.227	-140.625
0.409	-0.415	0.113	-0.667	-1.561	-1.091	-2.114	-1.454	-1.492	-2.189	-1.419	-1.261	-1.474	-0.556	1.058	2.324	1.930	1.284	1.888	1.389	0.237	1.896	0.869	0.236	0.378	-0.257	-0.559	-0.400	-136.719
0.406	-0.387	0.060	-0.854	-1.842	-1.175	-1.851	-1.108	-1.161	-1.924	-1.361	-1.428	-1.477	-0.658	1.119	2.270	2.134	1.365	1.918	1.253	0.082	1.773	0.859	0.247	0.585	-0.200	-0.583	-0.513	-132.812
0.345	-0.436	-0.073	-1.030	-2.032	-1.210	-1.454	-0.701	-0.748	-1.528	-1.203	-1.454	-1.348	-0.683	1.115	2.105	2.259	1.324	1.867	1.054	-0.050	1.570	0.765	0.272	0.767	-0.095	-0.536	-0.558	-128.906
0.221	-0.563	-0.284	-1.181	-2.117	-1.186	-0.953	-0.273	-0.282	-1.027	-0.956	-1.334	-1.095	-0.632	1.036	1.815	2.269	1.169	1.736	0.788	-0.153	1.317	0.615	0.326	0.912	0.061	-0.413	-0.528	-125.000
0.035	-0.758	-0.561	-1.297	-2.101	-1.105	-0.389	0.138	0.205	-0.454	-0.637	-1.072	-0.738	-0.511	0.880	1.403	2.138	0.924	1.530	0.457	-0.229	1.048	0.445	0.417	1.013	0.262	-0.212	-0.422	-121.094
-0.203	-1.003	-0.889	-1.373	-1.999	-0.979	0.195	0.501	0.683	0.153	-0.264	-0.688	-0.311	-0.338	0.654	0.883	1.857	0.620	1.265	0.075	-0.281	0.792	0.289	0.547	1.072	0.502	0.061	-0.242	-117.188
-0.475	-1.270	-1.244	-1.407	-1.838	-0.829	0.751	0.790	1.119	0.756	0.138	-0.211	0.147	-0.137	0.375	0.286	1.436	0.299	0.962	-0.338	-0.315	0.570	0.173	0.709	1.095	0.767	0.395	0.005	-113.281
-0.758	-1.529	-1.594	-1.401	-1.643	-0.678	1.238	0.994	1.485	1.314	0.541	0.319	0.592	0.065	0.068	-0.348	0.907	0.003	0.645	-0.754	-0.339	0.394	0.107	0.887	1.091	1.038	0.768	0.307	-109.375
-1.025	-1.751	-1.902	-1.359	-1.440	-0.545	1.618	1.110	1.755	1.786	0.915	0.859	0.982	0.245	-0.237	-0.973	0.316	-0.228	0.338	-1.145	-0.360	0.265	0.089	1.061	1.069	1.293	1.154	0.644	-105.469
-1.248	-1.906	-2.125	-1.287	-1.244	-0.445	1.861	1.144	1.905	2.134	1.226	1.361	1.284	0.380	-0.513	-1.543	-0.285	-0.365	0.063	-1.488	-0.382	0.179	0.106	1.211	1.038	1.507	1.520	0.989	-101.562
-1.405	-1.973	-2.224	-1.186	-1.062	-0.378	1.948	1.109	1.920	2.327	1.440	1.777	1.472	0.459	-0.737	-2.021	-0.845	-0.397	-0.167	-1.766	-0.411	0.123	0.138	1.317	1.004	1.661	1.831	1.312	-97.656
-1.477	-1.937	-2.169	-1.057	-0.890	-0.336	1.875	1.020	1.795	2.345	1.531	2.067	1.533	0.477	-0.898	-2.381	-1.323	-0.332	-0.347	-1.969	-0.448	0.087	0.163	1.366	0.972	1.736	2.051	1.578	-93.750
-1.456	-1.789	-1.945	-0.895	-0.715	-0.298	1.652	0.890	1.535	2.183	1.484	2.202	1.466	0.437	-0.993	-2.609	-1.691	-0.200	-0.480	-2.097	-0.493	0.055	0.163	1.350	0.943	1.722	2.150	1.753	-89.844
-1.341	-1.525	-1.555	-0.694	-0.522	-0.241	1.306	0.737	1.160	1.855	1.298	2.169	1.283	0.350	-1.028	-2.703	-1.928	-0.042	-0.572	-2.151	-0.541	0.017	0.126	1.266	0.912	1.613	2.104	1.808	-85.938
-1.141	-1.149	-1.027	-0.449	-0.298	-0.139	0.880	0.577	0.703	1.394	0.991	1.971	1.008	0.233	-1.012	-2.674	-2.027	0.097	-0.637	-2.139	-0.589	-0.038	0.049	1.115	0.868	1.409	1.902	1.725	-82.031
-0.871	-0.676	-0.403	-0.158	-0.031	0.026	0.422	0.428	0.211	0.849	0.601	1.635	0.672	0.102	-0.957	-2.541	-1.991	0.180	-0.690	-2.066	-0.629	-0.121	-0.063	0.902	0.796	1.114	1.547	1.497	-78.125
-0.554	-0.133	0.260	0.175	0.277	0.262	-0.010	0.310	-0.262	0.282	0.179	1.203	0.314	-0.026	-0.873	-2.330	-1.837	0.187	-0.746	-1.942	-0.656	-0.239	-0.198	0.632	0.677	0.739	1.062	1.136	-74.219
-0.219	0.441	0.904	0.535	0.621	0.558	-0.364	0.243	-0.660	-0.239	-0.214	0.731	-0.027	-0.136	-0.773	-2.071	-1.595	0.116	-0.818	-1.779	-0.665	-0.398	-0.342	0.318	0.499	0.301	0.486	0.671	-70.312
0.102	0.995	1.477	0.898	0.981	0.893	-0.596	0.245	-0.931	-0.651	-0.516	0.279	-0.317	-0.219	-0.670	-1.798	-1.310	-0.020	-0.920	-1.591	-0.657	-0.603	-0.482	-0.024	0.256	-0.173	-0.126	0.149	-66.406
0.381	1.475	1.937	1.233	1.334	1.232	-0.679	0.326	-1.034	-0.905	-0.681	-0.098	-0.528	-0.274	-0.576	-1.541	-1.033	-0.193	-1.056	-1.394	-0.634	-0.852	-0.609	-0.373	-0.046	-0.646	-0.714	-0.378	-62.500
0.593	1.835	2.262	1.509	1.653	1.537	-0.606	0.486	-0.951	-0.973	-0.681	-0.360	-0.646	-0.301	-0.503	-1.321	-0.817	-0.369	-1.226	-1.201	-0.601	-1.136	-0.722	-0.707	-0.388	-1.081	-1.216	-0.853	-58.594
0.729	2.048	2.448	1.700	1.910	1.774	-0.395	0.707	-0.689	-0.859	-0.520	-0.495	-0.671	-0.309	-0.455	-1.149	-0.697	-0.515	-1.418	-1.020	-0.563	-1.438	-0.821	-1.004	-0.746	-1.439	-1.587	-1.234	-54.688
0.790	2.115	2.502	1.793	2.082	1.918	-0.084	0.957	-0.283	-0.594	-0.229	-0.513	-0.619	-0.308	-0.427	-1.020	-0.683	-0.600	-1.609	-0.853	-0.527	-1.730	-0.906	-1.247	-1.090	-1.689	-1.801	-1.494	-50.781
0.793	2.062	2.442	1.785	2.155	1.957	0.272	1.191	0.208	-0.239	0.132	-0.452	-0.518	-0.310	-0.404	-0.913	-0.752	-0.602	-1.767	-0.693	-0.494	-1.977	-0.972	-1.422	-1.393	-1.817	-1.858	-1.629	-46.875
0.763	1.935	2.292	1.693	2.125	1.896	0.612	1.362	0.710	0.130	0.494	-0.363	-0.403	-0.327	-0.364	-0.799	-0.853	-0.511	-1.854	-0.527	-0.463	-2.142	-1.009	-1.528	-1.629	-1.822	-1.785	-1.654	-42.969
0.726	1.789	2.072	1.541	2.003	1.752	0.879	1.428	1.146	0.438	0.787	-0.300	-0.310	-0.365	-0.283	-0.647	-0.916	-0.326	-1.837	-0.340	-0.433	-2.195	-1.007	-1.567	-1.780	-1.720	-1.625	-1.601	-39.062
0.707	1.673	1.802	1.363	1.811	1.553	1.031	1.363	1.450	0.620	0.957	-0.308	-0.269	-0.429	-0.143	-0.431	-0.875	-0.062	-1.695	-0.120	-0.401	-2.118	-0.954	-1.551	-1.836	-1.540	-1.432	-1.507	-35.156
0.718	1.619	1.501	1.188	1.578	1.334	1.047	1.165	1.580	0.639	0.977	-0.408	-0.300	-0.521	0.063	-0.136	-0.684	0.258	-1.425	0.138	-0.369	-1.916	-0.848	-1.496	-1.794	-1.321	-1.259	-1.407	-31.250
0.763	1.633	1.187	1.039	1.339	1.127	0.932	0.857	1.528	0.496	0.848	-0.601	-0.411	-0.637	0.328	0.233	-0.330	0.606	-1.047	0.429	-0.341	-1.615	-0.701	-1.422	-1.664	-1.105	-1.147	-1.329	-27.344
0.830	1.699	0.879	0.928	1.125	0.959	0.716	0.481	1.315	0.222	0.602	-0.863	-0.594	-0.775	0.629	0.660	0.154	0.957	-0.605	0.737	-0.327	-1.261	-0.531	-1.353	-1.464	-0.930	-1.121	-1.294	-23.438
0.905	1.781	0.598	0.852	0.959	0.846	0.447	0.096	0.991	-0.122	0.283	-1.157	-0.834	-0.928	0.937	1.112	0.705	1.291	-0.154	1.038	-0.335	-0.908	-0.369	-1.305	-1.223	-0.826	-1.187	-1.309	-19.531
0.967	1.838	0.363	0.798	0.851	0.790	0.180	-0.244	0.618	-0.466	-0.058	-1.446	-1.104	-1.092	1.219	1.555	1.237	1.596	0.249	1.305	-0.374	-0.609	-0.240	-1.293	-0.976	-0.814	-1.328	-1.375	-15.625
1.003	1.834	0.192	0.749	0.800	0.785	-0.033	-0.492	0.258	-0.742	-0.379	-1.698	-1.379	-1.258	1.446	1.953	1.667	1.873	0.556	1.513	-0.447	-0.399	-0.163	-1.317	-0.757	-0.897	-1.513	-1.487	-11.719
1.006	1.754	0.094	0.686	0.793	0.816	-0.159	-0.627	-0.037	-0.906	-0.654	-1.895	-1.637	-1.422	1.602	2.283	1.930	2.123	0.739	1.643	-0.553	-0.293	-0.142	-1.369	-0.597	-1.066	-1.699	-1.632	-7.812
0.981	1.604	0.068	0.600	0.811	0.868	-0.187	-0.651	-0.240	-0.940	-0.875	-2.035	-1.863	-1.579	1.685	2.528	1.996	2.351	0.794	1.690	-0.688	-0.280	-0.170	-1.431	-0.516	-1.300	-1.843	-1.799	-3.906
0.940	1.415	0.105	0.488	0.836	0.924	-0.131	-0.587	-0.343	-0.855	-1.044	-2.127	-2.054	-1.729	1.703	2.688	1.875	2.559	0.739	1.656	-0.843	-0.328	-0.225	-1.480	-0.520	-1.569	-1.910	-1.972	0.000
0.898	1.231	0.184	0.360	0.852	0.971	-0.026	-0.472	-0.355	-0.689	-1.169	-2.183	-2.218	-1.872	1.675	2.770	1.615	2.739	0.609	1.556	-1.008	-0.396	-0.281	-1.494	-0.601	-1.841	-1.882	-2.137	3.906
0.869	1.098	0.279	0.232	0.854	0.999	0.083	-0.344	-0.298	-0.488	-1.254	-2.213	-2.364	-2.010	1.622	2.782	1.284	2.877	0.447	1.406	-1.174	-0.446	-0.309	-1.460	-0.741	-2.085	-1.759	-2.281	7.812
0.862	1.047	0.365	0.124	0.839	1.002	0.157	-0.231	-0.193	-0.298	-1.297	-2.220	-2.506	-2.142	1.563	2.738	0.961	2.959	0.288	1.226	-1.333	-0.450	-0.290	-1.375	-0.912	-2.273	-1.558	-2.390	11.719
0.877	1.089	0.422	0.051	0.815	0.976	0.168	-0.149	-0.060	-0.151	-1.288	-2.198	-2.650	-2.269	1.507	2.642	0.711	2.966	0.156	1.030	-1.478	-0.404	-0.218	-1.252	-1.083	-2.388	-1.315	-2.453	15.625
0.904	1.211	0.440	0.019	0.791	0.920	0.107	-0.099	0.088	-0.062	-1.214	-2.134	-2.798	-2.384	1.456	2.496	0.570	2.890	0.056	0.829	-1.606	-0.325	-0.110	-1.112	-1.223	-2.419	-1.067	-2.461	19.531
0.928	1.379	0.420	0.027	0.774	0.839	-0.011	-0.069	0.244	-0.026	-1.066	-2.013	-2.939	-2.483	1.405	2.296	0.547	2.733	-0.025	0.626	-1.715	-0.250	0.002	-0.987	-1.311	-2.365	-0.850	-2.408	23.438
0.935	1.550	0.376	0.067	0.771	0.743	-0.157	-0.043	0.406	-0.024	-0.844	-1.825	-3.058	-2.558	1.343	2.038	0.619	2.505	-0.111	0.418	-1.804	-0.226	0.071	-0.905	-1.332	-2.235	-0.693	-2.296	27.344
0.911	1.683	0.329	0.127	0.782	0.650	-0.292	-0.004	0.572	-0.026	-0.561	-1.572	-3.133	-2.604	1.258	1.715	0.741	2.227	-0.228	0.200	-1.875	-0.294	0.053	-0.890	-1.287	-2.044	-0.606	-2.134	31.250
0.850	1.746	0.302	0.196	0.804	0.581	-0.380	0.059	0.737	-0.004	-0.245	-1.272	-3.145	-2.613	1.143	1.327	0.859	1.925	-0.396	-0.031	-1.927	-0.479	-0.079	-0.950	-1.188	-1.815	-0.586	-1.946	35.156
0.757	1.730	0.320	0.268	0.836	0.560	-0.391	0.149	0.894	0.062	0.067	-0.965	-3.079	-2.582	0.993	0.878	0.922	1.626	-0.621	-0.279	-1.961	-0.780	-0.331	-1.078	-1.060	-1.572	-0.616	-1.768	39.062
0.641	1.646	0.397	0.341	0.874	0.608	-0.314	0.262	1.031	0.180	0.328	-0.712	-2.928	-2.507	0.814	0.382	0.895	1.357	-0.892	-0.538	-1.972	-1.167	-0.678	-1.250	-0.931	-1.342	-0.671	-1.651	42.969
0.521	1.522	0.538	0.417	0.917	0.735	-0.151	0.392	1.138	0.341	0.489	-0.584	-2.696	-2.386	0.617	-0.143	0.759	1.143	-1.183	-0.801	-1.959	-1.589	-1.073	-1.430	-0.826	-1.147	-0.723	-1.649	46.875
0.412	1.399	0.732	0.499	0.964	0.932	0.079	0.528	1.206	0.523	0.506	-0.656	-2.401	-2.220	0.419	-0.671	0.519	1.007	-1.458	-1.054	-1.916	-1.983	-1.454	-1.578	-0.764	-1.001	-0.750	-1.817	50.781
0.329	1.312	0.957	0.589	1.015	1.173	0.344	0.666	1.238	0.691	0.349	-0.983	-2.069	-2.017	0.237	-1.175	0.196	0.962	-1.682	-1.284	-1.843	-2.289	-1.763	-1.656	-0.748	-0.906	-0.731	-2.187	54.688
0.275	1.287	1.181	0.677	1.061	1.419	0.607	0.803	1.246	0.812	0.009	-1.586	-1.738	-1.793	0.085	-1.636	-0.171	1.013	-1.825	-1.480	-1.746	-2.458	-1.954	-1.639	-0.767	-0.849	-0.658	-2.761	58.594
0.246	1.329	1.368	0.750	1.092	1.620	0.830	0.942	1.256	0.857	-0.492	-2.437	-1.448	-1.571	-0.029	-2.039	-0.538	1.149	-1.873	-1.640	-1.638	-2.469	-2.004	-1.520	-0.796	-0.800	-0.527	-3.495	62.500
0.229	1.423	1.487	0.782	1.091	1.734	0.984	1.091	1.297	0.809	-1.099	-3.451	-1.239	-1.384	-0.106	-2.384	-0.857	1.345	-1.825	-1.775	-1.544	-2.327	-1.916	-1.312	-0.802	-0.720	-0.339	-4.303	66.406
0.203	1.534	1.512	0.745	1.039	1.732	1.045	1.260	1.403	0.667	-1.723	-4.495	-1.147	-1.269	-0.155	-2.682	-1.084	1.565	-1.699	-1.904	-1.495	-2.063	-1.715	-1.044	-0.754	-0.562	-0.101	-5.062	70.312
0.146	1.620	1.433	0.610	0.915	1.604	1.001	1.457	1.600	0.443	-2.253	-5.400	-1.198	-1.262	-0.191	-2.952	-1.189	1.770	-1.525	-2.054	-1.528	-1.727	-1.440	-0.760	-0.624	-0.284	0.181	-5.628	74.219
0.036	1.639	1.251	0.358	0.702	1.360	0.851	1.692	1.904	0.161	-2.570	-5.995	-1.406	-1.393	-0.232	-3.219	-1.156	1.921	-1.338	-2.254	-1.677	-1.380	-1.132	-0.510	-0.398	0.142	0.494	-5.864	78.125
-0.138	1.559	0.979	-0.017	0.392	1.026	0.601	1.967	2.316	-0.148	-2.569	-6.127	-1.766	-1.679	-0.296	-3.507	-0.995	1.990	-1.176	-2.527	-1.965	-1.084	-0.832	-0.335	-0.075	0.727	0.827	-5.661	82.031
-0.381	1.365	0.640	-0.503	-0.015	0.634	0.269	2.278	2.818	-0.448	-2.176	-5.693	-2.255	-2.118	-0.400	-3.830	-0.736	1.954	-1.069	-2.889	-2.399	-0.888	-0.574	-0.268	0.334	1.458	1.167	-4.961	85.938
-0.689	1.056	0.262	-1.074	-0.506	0.216	-0.119	2.614	3.379	-0.702	-1.366	-4.660	-2.831	-2.683	-0.557	-4.195	-0.432	1.802	-1.042	-3.337	-2.961	-0.822	-0.381	-0.317	0.802	2.299	1.508	-3.763	89.844
-1.049	0.641	-0.123	-1.694	-1.056	-0.198	-0.525	2.957	3.957	-0.873	-0.169	-3.065	-3.435	-3.329	-0.775	-4.596	-0.152	1.531	-1.107	-3.853	-3.615	-0.898	-0.273	-0.468	1.297	3.200	1.849	-2.128	93.750
-1.440	0.138	-0.489	-2.321	-1.627	-0.584	-0.909	3.286	4.509	-0.926	1.335	-1.018	-4.000	-3.993	-1.059	-5.015	0.033	1.142	-1.265	-4.404	-4.304	-1.103	-0.262	-0.690	1.781	4.102	2.198	-0.170	97.656
-1.842	-0.434	-0.812	-2.915	-2.176	-0.920	-1.221	3.584	4.999	-0.830	3.024	1.320	-4.459	-4.607	-1.406	-5.427	0.052	0.643	-1.512	-4.945	-4.963	-1.410	-0.360	-0.938	2.214	4.943	2.567	1.964	101.562
-2.231	-1.047	-1.080	-3.435	-2.652	-1.190	-1.419	3.841	5.402	-0.560	4.761	3.757	-4.757	-5.103	-1.807	-5.798	-0.142	0.047	-1.835	-5.423	-5.522	-1.786	-0.575	-1.168	2.561	5.668	2.965	4.112	105.469
-2.584	-1.671	-1.289	-3.850	-3.013	-1.377	-1.464	4.051	5.708	-0.103	6.412	6.100	-4.855	-5.428	-2.244	-6.094	-0.570	-0.627	-2.220	-5.786	-5.927	-2.194	-0.908	-1.345	2.792	6.233	3.398	6.119	109.375
-2.878	-2.265	-1.445	-4.132	-3.224	-1.466	-1.332	4.222	5.921	0.544	7.870	8.179	-4.739	-5.551	-2.689	-6.280	-1.218	-1.350	-2.648	-5.991	-6.135	-2.608	-1.350	-1.451	2.883	6.608	3.863	7.853	113.281
-3.093	-2.783	-1.561	-4.264	-3.265	-1.447	-1.016	4.360	6.053	1.369	9.060	9.866	-4.421	-5.462	-3.108	-6.329	-2.036	-2.088	-3.098	-6.007	-6.131	-3.007	-1.882	-1.487	2.819	6.782	4.346	9.223	117.188
-3.209	-3.174	-1.656	-4.241	-3.135	-1.317	-0.526	4.473	6.121	2.347	9.947	11.090	-3.929	-5.178	-3.463	-6.219	-2.943	-2.805	-3.543	-5.821	-5.921	-3.381	-2.469	-1.467	2.599	6.762	4.830	10.182	121.094
-3.213	-3.398	-1.747	-4.071	-2.855	-1.089	0.111	4.562	6.139	3.435	10.531	11.832	-3.306	-4.732	-3.717	-5.944	-3.842	-3.465	-3.954	-5.439	-5.528	-3.724	-3.070	-1.412	2.232	6.567	5.295	10.727	125.000
-3.101	-3.432	-1.848	-3.776	-2.458	-0.788	0.854	4.619	6.112	4.579	10.831	12.120	-2.599	-4.166	-3.843	-5.506	-4.632	-4.040	-4.299	-4.886	-4.993	-4.030	-3.636	-1.346	1.743	6.231	5.722	10.895	128.906
-2.876	-3.279	-1.966	-3.390	-1.987	-0.452	1.652	4.630	6.041	5.717	10.882	12.022	-1.853	-3.527	-3.823	-4.926	-5.229	-4.511	-4.547	-4.196	-4.360	-4.289	-4.124	-1.282	1.169	5.794	6.094	10.747	132.812
-2.557	-2.974	-2.096	-2.960	-1.488	-0.128	2.454	4.577	5.916	6.784	10.724	11.623	-1.104	-2.853	-3.661	-4.234	-5.578	-4.866	-4.677	-3.414	-3.673	-4.490	-4.499	-1.225	0.558	5.296	6.396	10.358	136.719
-2.170	-2.572	-2.225	-2.532	-0.999	0.142	3.206	4.444	5.723	7.719	10.394	11.012	-0.383	-2.177	-3.374	-3.470	-5.663	-5.102	-4.677	-2.585	-2.971	-4.617	-4.739	-1.168	-0.040	4.772	6.616	9.804	140.625
-1.750	-2.140	-2.337	-2.146	-0.550	0.322	3.865	4.218	5.445	8.470	9.924	10.270	0.291	-1.520	-2.994	-2.677	-5.508	-5.220	-4.551	-1.752	-2.283	-4.654	-4.842	-1.100	-0.581	4.249	6.742	9.150	144.531
-1.329	-1.740	-2.413	-1.829	-0.157	0.397	4.395	3.893	5.069	8.995	9.341	9.459	0.902	-0.897	-2.558	-1.898	-5.162	-5.222	-4.314	-0.950	-1.631	-4.586	-4.818	-1.004	-1.030	3.743	6.763	8.442	148.438
-0.935	-1.414	-2.443	-1.587	0.176	0.372	4.771	3.471	4.588	9.268	8.667	8.621	1.437	-0.315	-2.104	-1.167	-4.690	-5.115	-3.987	-0.204	-1.022	-4.403	-4.684	-0.864	-1.373	3.259	6.675	7.712	152.344
-0.589	-1.180	-2.422	-1.410	0.452	0.271	4.983	2.962	4.010	9.279	7.927	7.780	1.882	0.220	-1.659	-0.512	-4.149	-4.910	-3.594	0.470	-0.462	-4.100	-4.459	-0.670	-1.611	2.798	6.476	6.974	156.250
-0.300	-1.036	-2.359	-1.276	0.678	0.129	5.030	2.386	3.358	9.039	7.152	6.948	2.225	0.699	-1.246	0.052	-3.582	-4.625	-3.155	1.062	0.047	-3.679	-4.156	-0.417	-1.759	2.360	6.177	6.239	160.156
-0.073	-0.966	-2.270	-1.162	0.860	-0.018	4.928	1.771	2.668	8.580	6.381	6.135	2.454	1.112	-0.876	0.514	-3.015	-4.289	-2.688	1.564	0.502	-3.152	-3.788	-0.110	-1.842	1.949	5.799	5.515	164.062
0.091	-0.950	-2.179	-1.052	1.005	-0.139	4.704	1.158	1.991	7.952	5.664	5.360	2.562	1.446	-0.559	0.865	-2.459	-3.938	-2.209	1.969	0.894	-2.542	-3.365	0.241	-1.884	1.575	5.375	4.822	167.969
0.192	-0.974	-2.113	-0.938	1.113	-0.218	4.397	0.589	1.381	7.228	5.056	4.648	2.553	1.686	-0.303	1.097	-1.924	-3.614	-1.740	2.264	1.209	-1.883	-2.907	0.617	-1.905	1.254	4.944	4.184	171.875
0.223	-1.037	-2.097	-0.830	1.185	-0.250	4.052	0.113	0.892	6.487	4.607	4.039	2.440	1.822	-0.119	1.199	-1.423	-3.356	-1.302	2.432	1.432	-1.219	-2.436	0.997	-1.917	1.010	4.547	3.635	175.781
0.180	-1.145	-2.152	-0.744	1.220	-0.244	3.723	-0.227	0.569	5.816	4.359	3.572	2.254	1.853	-0.018	1.161	-0.982	-3.197	-0.923	2.457	1.549	-0.597	-1.982	1.358	-1.924	0.863	4.221	3.211	179.688
0.056	-1.310	-2.288	-0.702	1.220	-0.216	3.457	-0.396	0.447	5.290	4.333	3.286	2.035	1.790	-0.013	0.971	-0.641	-3.158	-0.632	2.327	1.552	-0.065	-1.579	1.680	-1.923	0.831	3.997	2.942	183.594
-0.153	-1.544	-2.506	-0.725	1.192	-0.181	3.298	-0.377	0.541	4.971	4.527	3.205	1.834	1.657	-0.114	0.625	-0.441	-3.241	-0.455	2.035	1.442	0.341	-1.257	1.953	-1.911	0.928	3.892	2.848	187.500
-0.440	-1.852	-2.793	-0.824	1.146	-0.153	3.273	-0.166	0.849	4.892	4.913	3.330	1.701	1.485	-0.323	0.122	-0.421	-3.437	-0.408	1.589	1.231	0.596	-1.041	2.174	-1.881	1.158	3.917	2.932	191.406
-0.795	-2.225	-3.125	-0.999	1.095	-0.140	3.394	0.218	1.355	5.061	5.444	3.641	1.674	1.308	-0.633	-0.525	-0.604	-3.725	-0.500	1.002	0.937	0.691	-0.949	2.352	-1.826	1.518	4.074	3.187	195.312
-1.197	-2.644	-3.474	-1.238	1.052	-0.141	3.657	0.744	2.025	5.453	6.060	4.096	1.777	1.159	-1.028	-1.296	-0.990	-4.079	-0.727	0.301	0.583	0.629	-0.989	2.503	-1.738	2.001	4.362	3.589	199.219
-1.621	-3.084	-3.808	-1.524	1.023	-0.155	4.039	1.370	2.822	6.024	6.695	4.636	2.008	1.057	-1.486	-2.165	-1.557	-4.471	-1.073	-0.486	0.195	0.428	-1.162	2.645	-1.606	2.598	4.778	4.109	203.125
-2.043	-3.516	-4.100	-1.834	1.007	-0.180	4.508	2.054	3.701	6.708	7.290	5.197	2.342	1.009	-1.981	-3.101	-2.259	-4.878	-1.516	-1.327	-0.207	0.116	-1.456	2.802	-1.416	3.298	5.321	4.715	207.031
-2.443	-3.920	-4.331	-2.151	0.993	-0.218	5.021	2.751	4.622	7.437	7.800	5.718	2.732	1.010	-2.486	-4.073	-3.039	-5.279	-2.028	-2.188	-0.607	-0.273	-1.847	2.988	-1.154	4.094	5.986	5.381	210.938
-2.810	-4.287	-4.494	-2.466	0.963	-0.272	5.536	3.425	5.546	8.144	8.195	6.153	3.120	1.039	-2.977	-5.050	-3.835	-5.656	-2.577	-3.042	-0.993	-0.702	-2.304	3.214	-0.809	4.976	6.766	6.082	214.844
-3.140	-4.621	-4.591	-2.777	0.895	-0.349	6.014	4.045	6.441	8.774	8.464	6.470	3.442	1.072	-3.439	-6.003	-4.592	-5.996	-3.134	-3.861	-1.359	-1.136	-2.791	3.478	-0.379	5.929	7.642	6.801	218.750
-3.437	-4.935	-4.637	-3.085	0.773	-0.458	6.422	4.589	7.279	9.288	8.616	6.661	3.642	1.079	-3.858	-6.906	-5.265	-6.287	-3.672	-4.623	-1.704	-1.547	-3.270	3.767	0.129	6.935	8.583	7.520	222.656
-3.709	-5.243	-4.649	-3.394	0.586	-0.602	6.738	5.041	8.036	9.667	8.670	6.731	3.679	1.036	-4.228	-7.734	-5.828	-6.522	-4.170	-5.309	-2.029	-1.914	-3.704	4.058	0.694	7.965	9.545	8.221	226.562
-3.962	-5.552	-4.648	-3.704	0.340	-0.777	6.951	5.392	8.691	9.904	8.653	6.700	3.536	0.928	-4.547	-8.465	-6.268	-6.698	-4.610	-5.903	-2.333	-2.226	-4.061	4.323	1.283	8.982	10.471	8.884	230.469
-4.197	-5.858	-4.650	-4.008	0.052	-0.973	7.057	5.640	9.226	10.006	8.593	6.594	3.219	0.750	-4.814	-9.078	-6.587	-6.817	-4.980	-6.393	-2.613	-2.479	-4.317	4.535	1.857	9.946	11.303	9.485	234.375
-4.412	-6.145	-4.667	-4.294	-0.248	-1.172	7.061	5.786	9.627	9.984	8.512	6.442	2.761	0.516	-5.030	-9.555	-6.795	-6.888	-5.276	-6.767	-2.860	-2.678	-4.459	4.671	2.379	10.814	11.985	10.000	238.281
-4.598	-6.387	-4.699	-4.546	-0.526	-1.355	6.977	5.834	9.881	9.855	8.421	6.271	2.213	0.251	-5.197	-9.884	-6.912	-6.924	-5.496	-7.019	-3.061	-2.827	-4.487	4.724	2.816	11.550	12.479	10.409	242.188
-4.744	-6.562	-4.742	-4.749	-0.748	-1.499	6.822	5.789	9.983	9.636	8.324	6.106	1.639	-0.010	-5.318	-10.057	-6.957	-6.947	-5.642	-7.145	-3.198	-2.932	-4.415	4.698	3.150	12.128	12.767	10.702	246.094
-4.838	-6.651	-4.784	-4.890	-0.886	-1.589	6.617	5.659	9.936	9.344	8.217	5.962	1.108	-0.226	-5.397	-10.078	-6.949	-6.979	-5.720	-7.147	-3.253	-2.993	-4.270	4.615	3.379	12.536	12.857	10.877	250.000
-4.874	-6.653	-4.815	-4.966	-0.927	-1.620	6.389	5.453	9.750	9.000	8.090	5.851	0.681	-0.356	-5.440	-9.960	-6.906	-7.047	-5.737	-7.033	-3.210	-3.007	-4.087	4.504	3.514	12.778	12.784	10.945	253.906
-4.852	-6.578	-4.827	-4.981	-0.867	-1.594	6.165	5.181	9.444	8.629	7.937	5.776	0.410	-0.370	-5.454	-9.724	-6.843	-7.172	-5.700	-6.818	-3.061	-2.965	-3.898	4.401	3.577	12.872	12.600	10.921	257.812
-4.778	-6.452	-4.820	-4.945	-0.718	-1.523	5.971	4.859	9.044	8.258	7.754	5.734	0.327	-0.247	-5.446	-9.402	-6.769	-7.365	-5.614	-6.520	-2.805	-2.855	-3.732	4.343	3.594	12.848	12.366	10.828	261.719
-4.664	-6.305	-4.801	-4.875	-0.501	-1.426	5.828	4.501	8.579	7.914	7.541	5.714	0.445	0.016	-5.422	-9.024	-6.690	-7.625	-5.484	-6.160	-2.451	-2.667	-3.605	4.357	3.592	12.737	12.143	10.687	265.625
-4.525	-6.167	-4.784	-4.783	-0.244	-1.320	5.750	4.127	8.080	7.622	7.298	5.700	0.754	0.410	-5.382	-8.620	-6.606	-7.932	-5.313	-5.754	-2.012	-2.396	-3.518	4.460	3.589	12.574	11.976	10.513	269.531
-4.371	-6.054	-4.785	-4.679	0.027	-1.226	5.739	3.749	7.570	7.398	7.026	5.674	1.228	0.914	-5.319	-8.208	-6.510	-8.251	-5.100	-5.312	-1.506	-2.043	-3.461	4.653	3.596	12.382	11.894	10.320	273.438
-4.208	-5.972	-4.814	-4.566	0.288	-1.155	5.790	3.375	7.068	7.250	6.723	5.612	1.825	1.498	-5.222	-7.793	-6.385	-8.539	-4.840	-4.838	-0.950	-1.614	-3.413	4.925	3.611	12.178	11.901	10.112	277.344
-4.038	-5.910	-4.882	-4.439	0.525	-1.117	5.885	3.006	6.583	7.171	6.381	5.495	2.494	2.129	-5.075	-7.371	-6.213	-8.752	-4.528	-4.329	-0.361	-1.125	-3.351	5.252	3.628	11.966	11.981	9.891	281.250
-3.854	-5.848	-4.989	-4.292	0.731	-1.112	6.004	2.638	6.114	7.149	5.998	5.309	3.180	2.773	-4.864	-6.928	-5.974	-8.853	-4.158	-3.780	0.243	-0.594	-3.252	5.605	3.632	11.743	12.105	9.657	285.156
-3.651	-5.764	-5.132	-4.119	0.905	-1.137	6.125	2.264	5.659	7.166	5.571	5.050	3.833	3.397	-4.580	-6.451	-5.655	-8.818	-3.731	-3.191	0.844	-0.047	-3.099	5.953	3.615	11.505	12.242	9.410	289.062
-3.427	-5.642	-5.303	-3.922	1.051	-1.185	6.232	1.880	5.214	7.202	5.110	4.725	4.410	3.972	-4.223	-5.931	-5.253	-8.638	-3.254	-2.570	1.422	0.490	-2.884	6.272	3.572	11.252	12.364	9.157	292.969
-3.186	-5.478	-5.494	-3.708	1.168	-1.248	6.313	1.486	4.781	7.242	4.629	4.353	4.880	4.474	-3.803	-5.372	-4.782	-8.324	-2.741	-1.938	1.957	0.994	-2.613	6.543	3.508	10.987	12.455	8.905	296.875
-2.938	-5.280	-5.695	-3.493	1.255	-1.317	6.363	1.094	4.366	7.278	4.155	3.957	5.227	4.886	-3.343	-4.790	-4.267	-7.899	-2.212	-1.322	2.431	1.444	-2.298	6.763	3.436	10.721	12.512	8.666	300.781
-2.699	-5.072	-5.899	-3.296	1.307	-1.391	6.384	0.721	3.985	7.307	3.716	3.566	5.453	5.200	-2.873	-4.211	-3.742	-7.401	-1.692	-0.754	2.829	1.829	-1.961	6.938	3.378	10.473	12.544	8.453	304.688
-2.488	-4.884	-6.100	-3.138	1.316	-1.469	6.382	0.391	3.654	7.328	3.340	3.205	5.568	5.418	-2.422	-3.666	-3.239	-6.870	-1.198	-0.260	3.147	2.148	-1.622	7.082	3.355	10.258	12.569	8.273	308.594
-2.322	-4.749	-6.297	-3.037	1.275	-1.556	6.365	0.133	3.391	7.348	3.049	2.889	5.596	5.550	-2.019	-3.183	-2.781	-6.349	-0.747	0.140	3.389	2.411	-1.299	7.214	3.381	10.090	12.602	8.126	312.500
-2.212	-4.694	-6.486	-3.004	1.179	-1.658	6.339	-0.029	3.209	7.369	2.854	2.624	5.562	5.612	-1.682	-2.784	-2.375	-5.876	-0.342	0.443	3.566	2.632	-0.999	7.352	3.462	9.971	12.655	8.004	316.406
-2.161	-4.734	-6.666	-3.040	1.026	-1.781	6.310	-0.078	3.114	7.396	2.756	2.407	5.490	5.622	-1.418	-2.478	-2.010	-5.478	0.018	0.659	3.696	2.830	-0.726	7.505	3.589	9.895	12.730	7.897	320.312
-2.164	-4.863	-6.832	-3.139	0.825	-1.924	6.284	-0.007	3.104	7.432	2.748	2.230	5.399	5.597	-1.221	-2.263	-1.665	-5.171	0.339	0.808	3.793	3.017	-0.475	7.672	3.743	9.849	12.820	7.793	324.219
-2.205	-5.062	-6.984	-3.283	0.588	-2.081	6.264	0.176	3.174	7.482	2.816	2.089	5.300	5.548	-1.078	-2.127	-1.319	-4.956	0.626	0.913	3.871	3.199	-0.245	7.840	3.902	9.819	12.913	7.687	328.125
-2.270	-5.298	-7.116	-3.454	0.335	-2.239	6.255	0.454	3.315	7.555	2.951	1.986	5.198	5.481	-0.976	-2.056	-0.965	-4.818	0.879	0.994	3.935	3.367	-0.039	7.989	4.043	9.794	12.995	7.587	332.031
-2.346	-5.537	-7.229	-3.630	0.084	-2.382	6.260	0.800	3.520	7.664	3.148	1.938	5.091	5.399	-0.902	-2.038	-0.619	-4.735	1.089	1.058	3.983	3.510	0.135	8.096	4.152	9.776	13.055	7.514	335.938
-2.425	-5.748	-7.325	-3.796	-0.143	-2.496	6.285	1.187	3.785	7.825	3.411	1.968	4.977	5.299	-0.858	-2.070	-0.324	-4.685	1.240	1.104	4.009	3.606	0.263	8.141	4.224	9.774	13.092	7.499	339.844
-2.512	-5.919	-7.411	-3.946	-0.335	-2.573	6.339	1.589	4.111	8.056	3.752	2.109	4.857	5.182	-0.852	-2.155	-0.142	-4.650	1.313	1.119	4.005	3.641	0.330	8.113	4.267	9.805	13.109	7.574	343.750
-2.616	-6.051	-7.499	-4.080	-0.484	-2.614	6.430	1.990	4.504	8.372	4.185	2.387	4.734	5.050	-0.903	-2.304	-0.133	-4.628	1.294	1.086	3.966	3.604	0.326	8.016	4.294	9.885	13.118	7.768	347.656
-2.752	-6.161	-7.600	-4.204	-0.590	-2.629	6.566	2.382	4.965	8.781	4.719	2.815	4.616	4.909	-1.028	-2.528	-0.335	-4.628	1.175	0.988	3.891	3.495	0.247	7.863	4.323	10.023	13.131	8.090	351.562
-2.929	-6.274	-7.722	-4.327	-0.657	-2.629	6.749	2.762	5.492	9.273	5.345	3.382	4.511	4.764	-1.237	-2.832	-0.752	-4.671	0.966	0.816	3.781	3.329	0.100	7.678	4.369	10.213	13.154	8.527	355.469
-3.148	-6.411	-7.863	-4.455	-0.691	-2.625	6.977	3.138	6.069	9.820	6.032	4.048	4.422	4.622	-1.525	-3.210	-1.338	-4.775	0.687	0.571	3.645	3.125	-0.099	7.486	4.441	10.437	13.186	9.035	359.375
-3.401	-6.580	-8.013	-4.586	-0.701	-2.619	7.234	3.513	6.664	10.374	6.718	4.744	4.345	4.483	-1.872	-3.638	-2.013	-4.948	0.375	0.263	3.486	2.910	-0.324	7.309	4.541	10.666	13.215	9.545	363.281
-3.666	-6.774	-8.150	-4.712	-0.693	-2.604	7.494	3.893	7.236	10.869	7.322	5.383	4.263	4.341	-2.242	-4.083	-2.673	-5.180	0.067	-0.087	3.310	2.711	-0.546	7.162	4.665	10.866	13.222	9.974	367.188
-3.916	-6.967	-8.252	-4.817	-0.671	-2.564	7.723	4.273	7.734	11.230	7.753	5.873	4.152	4.184	-2.593	-4.501	-3.215	-5.441	-0.199	-0.458	3.113	2.548	-0.736	7.049	4.804	11.010	13.182	10.238	371.094
-4.123	-7.122	-8.294	-4.885	-0.639	-2.481	7.881	4.644	8.110	11.390	7.930	6.137	3.981	3.995	-2.882	-4.851	-3.561	-5.683	-0.398	-0.825	2.891	2.430	-0.870	6.964	4.950	11.080	13.078	10.276	375.000
-4.266	-7.200	-8.263	-4.901	-0.600	-2.340	7.933	4.988	8.329	11.300	7.809	6.134	3.723	3.758	-3.080	-5.101	-3.677	-5.855	-0.523	-1.173	2.637	2.356	-0.933	6.894	5.094	11.079	12.900	10.064	378.906
-4.336	-7.171	-8.154	-4.858	-0.559	-2.138	7.858	5.288	8.380	10.952	7.393	5.873	3.359	3.461	-3.175	-5.241	-3.580	-5.913	-0.584	-1.491	2.346	2.310	-0.924	6.822	5.234	11.026	12.655	9.629	382.812
-4.339	-7.029	-7.979	-4.762	-0.521	-1.884	7.656	5.528	8.280	10.376	6.743	5.417	2.893	3.103	-3.176	-5.282	-3.334	-5.830	-0.608	-1.778	2.018	2.272	-0.850	6.732	5.368	10.950	12.361	9.041	386.719
-4.295	-6.790	-7.757	-4.627	-0.493	-1.601	7.351	5.697	8.068	9.646	5.965	4.871	2.346	2.696	-3.113	-5.256	-3.035	-5.603	-0.630	-2.038	1.664	2.221	-0.729	6.616	5.495	10.883	12.047	8.402	390.625
-4.229	-6.491	-7.517	-4.476	-0.480	-1.319	6.984	5.791	7.796	8.859	5.190	4.358	1.765	2.267	-3.021	-5.207	-2.784	-5.255	-0.681	-2.278	1.303	2.147	-0.579	6.471	5.613	10.844	11.739	7.814	394.531
-4.169	-6.181	-7.285	-4.334	-0.487	-1.070	6.608	5.805	7.515	8.118	4.540	3.987	1.204	1.854	-2.935	-5.174	-2.658	-4.820	-0.778	-2.499	0.964	2.049	-0.417	6.303	5.711	10.834	11.451	7.356	398.438
-4.131	-5.900	-7.086	-4.218	-0.511	-0.877	6.268	5.742	7.260	7.502	4.102	3.825	0.722	1.498	-2.877	-5.184	-2.695	-4.341	-0.919	-2.695	0.679	1.944	-0.253	6.122	5.777	10.829	11.184	7.060	402.344
-4.119	-5.675	-6.932	-4.136	-0.548	-0.755	6.000	5.599	7.042	7.057	3.906	3.876	0.365	1.234	-2.853	-5.240	-2.881	-3.858	-1.083	-2.851	0.481	1.858	-0.094	5.939	5.791	10.789	10.917	6.903	406.250
-4.123	-5.509	-6.821	-4.082	-0.585	-0.707	5.813	5.377	6.848	6.779	3.923	4.084	0.159	1.091	-2.849	-5.321	-3.162	-3.403	-1.234	-2.939	0.396	1.816	0.055	5.762	5.736	10.665	10.622	6.819	410.156
-4.118	-5.382	-6.743	-4.037	-0.609	-0.724	5.698	5.075	6.646	6.627	4.069	4.342	0.105	1.078	-2.838	-5.383	-3.456	-2.997	-1.330	-2.931	0.444	1.841	0.187	5.594	5.596	10.414	10.265	6.717	414.062
-4.076	-5.253	-6.677	-3.973	-0.602	-0.792	5.626	4.694	6.395	6.530	4.231	4.524	0.181	1.191	-2.790	-5.376	-3.672	-2.652	-1.337	-2.797	0.631	1.941	0.290	5.432	5.364	10.005	9.821	6.509	417.969
-3.966	-5.078	-6.601	-3.862	-0.549	-0.887	5.561	4.242	6.061	6.413	4.296	4.515	0.351	1.411	-2.676	-5.251	-3.732	-2.378	-1.233	-2.519	0.952	2.108	0.348	5.270	5.036	9.433	9.280	6.133	421.875
-3.766	-4.816	-6.497	-3.676	-0.436	-0.986	5.468	3.732	5.626	6.216	4.177	4.246	0.572	1.713	-2.475	-4.978	-3.580	-2.179	-1.012	-2.089	1.393	2.322	0.343	5.102	4.617	8.712	8.653	5.569	425.781
-3.468	-4.442	-6.352	-3.403	-0.258	-1.068	5.325	3.185	5.093	5.908	3.835	3.704	0.810	2.068	-2.182	-4.548	-3.195	-2.055	-0.688	-1.521	1.932	2.556	0.265	4.921	4.116	7.877	7.963	4.845	429.688
-3.078	-3.955	-6.165	-3.043	-0.015	-1.114	5.126	2.635	4.489	5.495	3.287	2.938	1.044	2.454	-1.806	-3.980	-2.594	-2.005	-0.290	-0.843	2.540	2.781	0.112	4.728	3.548	6.972	7.246	4.024	433.594
-2.619	-3.377	-5.945	-2.617	0.285	-1.114	4.887	2.115	3.860	5.016	2.599	2.048	1.272	2.852	-1.370	-3.314	-1.829	-2.021	0.144	-0.098	3.187	2.975	-0.104	4.530	2.931	6.047	6.540	3.191	437.500
-2.127	-2.752	-5.712	-2.158	0.627	-1.066	4.637	1.659	3.256	4.526	1.868	1.154	1.505	3.253	-0.908	-2.604	-0.985	-2.088	0.572	0.666	3.844	3.123	-0.360	4.335	2.287	5.147	5.879	2.429	441.406
-1.644	-2.138	-5.491	-1.710	0.991	-0.976	4.411	1.291	2.724	4.087	1.194	0.375	1.764	3.654	-0.461	-1.906	-0.162	-2.186	0.956	1.402	4.486	3.225	-0.630	4.156	1.639	4.306	5.282	1.802	445.312
-1.212	-1.590	-5.302	-1.315	1.355	-0.858	4.240	1.018	2.297	3.748	0.663	-0.198	2.067	4.052	-0.066	-1.270	0.541	-2.289	1.269	2.075	5.093	3.292	-0.886	4.005	1.009	3.552	4.760	1.346	449.219
-0.861	-1.158	-5.165	-1.011	1.697	-0.730	4.140	0.834	1.990	3.535	0.330	-0.513	2.422	4.446	0.247	-0.728	1.045	-2.381	1.499	2.660	5.651	3.340	-1.104	3.889	0.419	2.896	4.313	1.067	453.125
-0.612	-0.872	-5.087	-0.819	1.997	-0.612	4.111	0.715	1.797	3.450	0.211	-0.565	2.819	4.827	0.459	-0.293	1.308	-2.449	1.648	3.149	6.150	3.388	-1.266	3.809	-0.116	2.346	3.934	0.947	457.031
-0.469	-0.744	-5.066	-0.745	2.239	-0.526	4.135	0.631	1.698	3.474	0.289	-0.384	3.235	5.183	0.570	0.035	1.335	-2.497	1.729	3.542	6.581	3.454	-1.360	3.761	-0.584	1.901	3.619	0.958	460.938
-0.420	-0.765	-5.093	-0.778	2.412	-0.489	4.181	0.550	1.665	3.573	0.523	-0.024	3.631	5.496	0.589	0.267	1.171	-2.530	1.762	3.844	6.937	3.543	-1.383	3.736	-0.980	1.559	3.363	1.070	464.844
-0.447	-0.909	-5.154	-0.893	2.511	-0.510	4.215	0.443	1.660	3.708	0.858	0.449	3.971	5.746	0.540	0.419	0.889	-2.561	1.769	4.059	7.206	3.656	-1.336	3.725	-1.302	1.315	3.170	1.262	468.750
-0.524	-1.138	-5.232	-1.058	2.538	-0.591	4.207	0.297	1.653	3.844	1.239	0.972	4.222	5.918	0.450	0.501	0.571	-2.596	1.765	4.188	7.381	3.780	-1.227	3.719	-1.550	1.165	3.043	1.519	472.656
-0.628	-1.410	-5.313	-1.239	2.499	-0.725	4.139	0.112	1.617	3.954	1.617	1.491	4.369	6.005	0.343	0.518	0.285	-2.639	1.756	4.229	7.455	3.897	-1.072	3.711	-1.723	1.105	2.989	1.835	476.562
-0.740	-1.683	-5.384	-1.411	2.408	-0.898	4.011	-0.099	1.540	4.023	1.957	1.969	4.415	6.013	0.239	0.471	0.077	-2.690	1.739	4.176	7.429	3.987	-0.894	3.702	-1.819	1.128	3.012	2.207	480.469
-0.846	-1.920	-5.434	-1.554	2.285	-1.093	3.835	-0.309	1.426	4.049	2.235	2.379	4.381	5.959	0.144	0.353	-0.045	-2.748	1.705	4.031	7.315	4.032	-0.724	3.697	-1.834	1.223	3.108	2.624	484.375
-0.938	-2.096	-5.457	-1.657	2.151	-1.290	3.639	-0.489	1.294	4.037	2.443	2.710	4.304	5.871	0.056	0.162	-0.103	-2.812	1.640	3.798	7.135	4.021	-0.592	3.703	-1.767	1.375	3.270	3.069	488.281
-1.016	-2.199	-5.447	-1.719	2.027	-1.472	3.455	-0.609	1.170	4.000	2.583	2.955	4.222	5.780	-0.035	-0.101	-0.139	-2.885	1.532	3.491	6.917	3.950	-0.523	3.727	-1.623	1.562	3.481	3.513	492.188
-1.081	-2.227	-5.400	-1.741	1.932	-1.627	3.313	-0.649	1.086	3.953	2.663	3.115	4.169	5.719	-0.143	-0.428	-0.204	-2.975	1.377	3.136	6.696	3.826	-0.528	3.776	-1.418	1.759	3.717	3.918	496.094
-1.136	-2.193	-5.314	-1.729	1.878	-1.745	3.239	-0.601	1.071	3.907	2.699	3.188	4.168	5.707	-0.280	-0.801	-0.338	-3.093	1.180	2.763	6.502	3.662	-0.605	3.849	-1.175	1.939	3.955	4.242	500.000
-1.182	-2.114	-5.188	-1.692	1.868	-1.820	3.248	-0.469	1.143	3.873	2.705	3.176	4.223	5.754	-0.453	-1.195	-0.561	-3.252	0.954	2.403	6.358	3.477	-0.735	3.939	-0.925	2.079	4.168	4.450	503.906
-1.220	-2.011	-5.019	-1.639	1.902	-1.848	3.345	-0.263	1.305	3.857	2.696	3.081	4.324	5.855	-0.662	-1.582	-0.867	-3.463	0.717	2.086	6.276	3.290	-0.889	4.035	-0.699	2.160	4.338	4.517	507.812
-1.244	-1.898	-4.803	-1.577	1.971	-1.828	3.521	-0.004	1.544	3.860	2.683	2.910	4.447	5.989	-0.895	-1.934	-1.227	-3.731	0.491	1.832	6.251	3.118	-1.035	4.121	-0.524	2.176	4.450	4.436	511.719
-1.249	-1.784	-4.539	-1.508	2.065	-1.754	3.760	0.284	1.833	3.878	2.665	2.670	4.560	6.128	-1.138	-2.231	-1.601	-4.047	0.291	1.649	6.267	2.972	-1.144	4.181	-0.414	2.133	4.496	4.221	515.625
-1.226	-1.666	-4.223	-1.434	2.177	-1.625	4.036	0.576	2.135	3.900	2.634	2.371	4.633	6.241	-1.370	-2.460	-1.943	-4.391	0.127	1.535	6.299	2.855	-1.200	4.199	-0.369	2.047	4.478	3.900	519.531
-1.169	-1.533	-3.855	-1.348	2.297	-1.442	4.318	0.844	2.405	3.911	2.570	2.028	4.638	6.300	-1.571	-2.615	-2.215	-4.732	0.003	1.475	6.321	2.767	-1.198	4.167	-0.370	1.944	4.402	3.513	523.438
-1.075	-1.369	-3.440	-1.244	2.419	-1.210	4.573	1.063	2.602	3.892	2.449	1.652	4.561	6.285	-1.723	-2.700	-2.393	-5.030	-0.083	1.450	6.311	2.702	-1.146	4.083	-0.387	1.853	4.281	3.103	527.344
-0.943	-1.163	-2.992	-1.116	2.537	-0.943	4.770	1.209	2.691	3.822	2.243	1.256	4.399	6.191	-1.816	-2.726	-2.471	-5.249	-0.135	1.439	6.256	2.658	-1.056	3.955	-0.387	1.799	4.128	2.706	531.250
-0.782	-0.907	-2.532	-0.961	2.643	-0.660	4.884	1.268	2.650	3.683	1.934	0.850	4.163	6.023	-1.845	-2.702	-2.456	-5.361	-0.154	1.425	6.152	2.638	-0.940	3.799	-0.339	1.793	3.957	2.348	535.156
-0.600	-0.601	-2.088	-0.779	2.727	-0.387	4.899	1.232	2.472	3.463	1.518	0.441	3.871	5.798	-1.814	-2.642	-2.366	-5.348	-0.138	1.397	6.008	2.647	-0.805	3.633	-0.228	1.834	3.775	2.034	539.062
-0.412	-0.254	-1.691	-0.581	2.777	-0.152	4.809	1.106	2.167	3.160	1.004	0.029	3.547	5.538	-1.728	-2.551	-2.219	-5.209	-0.080	1.351	5.840	2.697	-0.645	3.480	-0.057	1.903	3.580	1.758	542.969
-0.228	0.115	-1.364	-0.380	2.778	0.020	4.619	0.900	1.756	2.777	0.417	-0.386	3.212	5.266	-1.599	-2.433	-2.028	-4.958	0.030	1.296	5.668	2.797	-0.445	3.354	0.156	1.969	3.364	1.496	546.875
-0.058	0.483	-1.121	-0.195	2.720	0.113	4.340	0.635	1.273	2.325	-0.209	-0.810	2.885	5.002	-1.433	-2.283	-1.791	-4.619	0.204	1.246	5.515	2.955	-0.189	3.264	0.378	1.997	3.112	1.224	550.781
0.097	0.826	-0.958	-0.045	2.595	0.119	3.993	0.331	0.754	1.821	-0.839	-1.246	2.573	4.758	-1.237	-2.094	-1.500	-4.225	0.450	1.217	5.398	3.168	0.135	3.211	0.573	1.956	2.810	0.917	554.688
0.236	1.119	-0.861	0.054	2.406	0.048	3.596	0.009	0.235	1.282	-1.440	-1.698	2.277	4.538	-1.014	-1.857	-1.138	-3.807	0.768	1.227	5.327	3.424	0.527	3.184	0.713	1.828	2.449	0.560	558.594
0.365	1.348	-0.805	0.096	2.163	-0.083	3.171	-0.310	-0.253	0.727	-1.988	-2.160	1.989	4.340	-0.768	-1.567	-0.690	-3.389	1.148	1.286	5.303	3.701	0.966	3.166	0.780	1.613	2.030	0.154	562.500
0.489	1.506	-0.761	0.082	1.884	-0.246	2.736	-0.611	-0.686	0.172	-2.468	-2.626	1.699	4.155	-0.502	-1.225	-0.159	-2.990	1.565	1.396	5.317	3.970	1.418	3.138	0.775	1.326	1.565	-0.288	566.406
0.609	1.592	-0.703	0.024	1.591	-0.412	2.309	-0.879	-1.046	-0.368	-2.873	-3.080	1.398	3.973	-0.224	-0.840	0.437	-2.616	1.986	1.549	5.349	4.200	1.837	3.080	0.714	0.996	1.076	-0.742	570.312
0.724	1.618	-0.616	-0.060	1.305	-0.558	1.904	-1.106	-1.326	-0.882	-3.204	-3.503	1.080	3.782	0.053	-0.431	1.053	-2.270	2.370	1.725	5.373	4.363	2.178	2.981	0.625	0.662	0.593	-1.180	574.219
0.828	1.597	-0.494	-0.154	1.046	-0.665	1.533	-1.287	-1.522	-1.359	-3.463	-3.873	0.745	3.572	0.308	-0.024	1.633	-1.952	2.681	1.899	5.364	4.441	2.408	2.836	0.539	0.360	0.150	-1.573	578.125
0.913	1.549	-0.345	-0.238	0.823	-0.728	1.201	-1.419	-1.635	-1.795	-3.655	-4.173	0.398	3.337	0.522	0.355	2.113	-1.665	2.888	2.047	5.301	4.430	2.511	2.648	0.480	0.121	-0.224	-1.900	582.031
0.973	1.495	-0.184	-0.301	0.640	-0.747	0.909	-1.505	-1.670	-2.190	-3.785	-4.390	0.045	3.073	0.675	0.685	2.441	-1.414	2.977	2.150	5.171	4.337	2.499	2.428	0.463	-0.041	-0.509	-2.149	585.938
1.004	1.455	-0.027	-0.334	0.491	-0.734	0.650	-1.547	-1.637	-2.546	-3.855	-4.517	-0.307	2.782	0.758	0.955	2.587	-1.205	2.948	2.196	4.975	4.181	2.398	2.189	0.488	-0.123	-0.698	-2.316	589.844
1.010	1.447	0.111	-0.336	0.365	-0.705	0.413	-1.550	-1.548	-2.870	-3.870	-4.558	-0.650	2.472	0.769	1.166	2.549	-1.045	2.820	2.187	4.726	3.988	2.249	1.945	0.544	-0.139	-0.797	-2.409	593.750
0.998	1.484	0.225	-0.308	0.251	-0.676	0.184	-1.517	-1.418	-3.166	-3.836	-4.523	-0.977	2.154	0.720	1.330	2.359	-0.936	2.624	2.134	4.443	3.787	2.091	1.708	0.612	-0.108	-0.818	-2.436	597.656
0.981	1.565	0.315	-0.258	0.136	-0.666	-0.048	-1.455	-1.264	-3.437	-3.763	-4.430	-1.280	1.843	0.632	1.464	2.071	-0.879	2.396	2.052	4.151	3.601	1.957	1.486	0.673	-0.052	-0.783	-2.411	601.562
0.971	1.682	0.388	-0.200	0.012	-0.685	-0.289	-1.371	-1.106	-3.678	-3.659	-4.295	-1.549	1.556	0.528	1.585	1.752	-0.869	2.169	1.958	3.872	3.447	1.864	1.287	0.713	0.012	-0.709	-2.343	605.469
0.975	1.813	0.456	-0.146	-0.123	-0.734	-0.536	-1.272	-0.957	-3.882	-3.534	-4.137	-1.773	1.309	0.430	1.705	1.464	-0.897	1.970	1.863	3.622	3.334	1.818	1.113	0.726	0.073	-0.615	-2.245	609.375
0.995	1.934	0.529	-0.110	-0.262	-0.805	-0.776	-1.168	-0.827	-4.033	-3.392	-3.969	-1.944	1.112	0.355	1.823	1.253	-0.955	1.810	1.770	3.409	3.257	1.810	0.964	0.714	0.125	-0.516	-2.125	613.281
1.027	2.021	0.614	-0.099	-0.397	-0.878	-0.992	-1.061	-0.718	-4.117	-3.236	-3.804	-2.054	0.968	0.304	1.931	1.134	-1.033	1.684	1.676	3.228	3.199	1.825	0.834	0.685	0.164	-0.430	-1.995	617.188
1.062	2.062	0.719	-0.114	-0.511	-0.926	-1.161	-0.950	-0.620	-4.125	-3.061	-3.648	-2.106	0.872	0.272	2.010	1.095	-1.124	1.572	1.570	3.072	3.138	1.844	0.714	0.648	0.187	-0.374	-1.868	621.094
1.090	2.058	0.851	-0.145	-0.591	-0.925	-1.268	-0.828	-0.520	-4.058	-2.863	-3.505	-2.107	0.812	0.243	2.040	1.101	-1.225	1.446	1.439	2.926	3.044	1.844	0.590	0.614	0.187	-0.370	-1.758	625.000
1.103	2.022	1.017	-0.177	-0.626	-0.855	-1.305	-0.679	-0.400	-3.930	-2.641	-3.379	-2.076	0.770	0.196	2.005	1.104	-1.334	1.278	1.273	2.778	2.893	1.804	0.447	0.586	0.154	-0.436	-1.679	628.906
1.096	1.977	1.221	-0.192	-0.609	-0.710	-1.277	-0.491	-0.250	-3.772	-2.399	-3.270	-2.040	0.724	0.116	1.895	1.061	-1.450	1.046	1.064	2.617	2.664	1.708	0.275	0.563	0.079	-0.587	-1.643	632.812
1.071	1.946	1.469	-0.176	-0.546	-0.498	-1.204	-0.255	-0.065	-3.620	-2.150	-3.180	-2.028	0.655	-0.008	1.713	0.944	-1.570	0.743	0.812	2.436	2.354	1.546	0.065	0.535	-0.049	-0.831	-1.657	636.719
1.032	1.951	1.762	-0.125	-0.446	-0.242	-1.114	0.027	0.144	-3.517	-1.911	-3.107	-2.066	0.546	-0.175	1.469	0.742	-1.686	0.378	0.522	2.236	1.973	1.325	-0.180	0.490	-0.232	-1.160	-1.719	640.625
0.988	2.000	2.098	-0.043	-0.326	0.029	-1.040	0.338	0.355	-3.497	-1.704	-3.046	-2.172	0.389	-0.374	1.181	0.465	-1.784	-0.024	0.205	2.020	1.549	1.061	-0.451	0.413	-0.467	-1.553	-1.818	644.531
0.949	2.096	2.465	0.054	-0.205	0.281	-1.013	0.652	0.537	-3.577	-1.550	-2.990	-2.351	0.188	-0.586	0.870	0.137	-1.847	-0.429	-0.120	1.802	1.120	0.780	-0.732	0.294	-0.742	-1.980	-1.934	648.438
0.921	2.228	2.847	0.150	-0.101	0.485	-1.053	0.935	0.660	-3.756	-1.461	-2.929	-2.590	-0.042	-0.789	0.560	-0.205	-1.861	-0.792	-0.430	1.594	0.732	0.515	-1.001	0.126	-1.042	-2.408	-2.046	652.344
0.910	2.379	3.221	0.225	-0.023	0.623	-1.166	1.152	0.700	-4.012	-1.442	-2.856	-2.863	-0.280	-0.961	0.268	-0.517	-1.818	-1.074	-0.704	1.416	0.427	0.296	-1.239	-0.086	-1.349	-2.807	-2.134	656.250
0.916	2.527	3.557	0.266	0.020	0.686	-1.346	1.278	0.648	-4.310	-1.484	-2.766	-3.133	-0.495	-1.083	0.008	-0.753	-1.724	-1.241	-0.920	1.281	0.239	0.144	-1.428	-0.330	-1.648	-3.155	-2.185	660.156
0.935	2.646	3.827	0.265	0.029	0.680	-1.573	1.299	0.509	-4.606	-1.572	-2.659	-3.359	-0.659	-1.146	-0.216	-0.875	-1.594	-1.274	-1.064	1.202	0.189	0.073	-1.557	-0.586	-1.923	-3.440	-2.197	664.062
0.959	2.715	4.006	0.218	0.004	0.615	-1.824	1.216	0.305	-4.862	-1.680	-2.540	-3.506	-0.750	-1.148	-0.403	-0.855	-1.455	-1.174	-1.133	1.183	0.276	0.083	-1.622	-0.829	-2.160	-3.658	-2.176	667.969
0.974	2.717	4.074	0.126	-0.052	0.507	-2.070	1.045	0.063	-5.049	-1.782	-2.415	-3.548	-0.754	-1.099	-0.565	-0.692	-1.333	-0.959	-1.135	1.221	0.483	0.171	-1.623	-1.031	-2.344	-3.806	-2.129	671.875
0.966	2.638	4.026	-0.010	-0.136	0.369	-2.289	0.812	-0.184	-5.152	-1.852	-2.290	-3.472	-0.668	-1.020	-0.713	-0.411	-1.253	-0.668	-1.087	1.302	0.776	0.326	-1.564	-1.165	-2.459	-3.875	-2.063	675.781
0.924	2.474	3.866	-0.185	-0.248	0.216	-2.463	0.547	-0.411	-5.172	-1.870	-2.170	-3.282	-0.502	-0.935	-0.862	-0.061	-1.231	-0.348	-1.016	1.409	1.112	0.535	-1.446	-1.211	-2.493	-3.856	-1.975	679.688
0.838	2.230	3.612	-0.395	-0.387	0.055	-2.587	0.277	-0.602	-5.122	-1.832	-2.059	-2.995	-0.275	-0.871	-1.026	0.295	-1.275	-0.049	-0.952	1.520	1.445	0.784	-1.273	-1.157	-2.432	-3.732	-1.861	683.594
0.708	1.922	3.292	-0.625	-0.549	-0.108	-2.661	0.022	-0.758	-5.021	-1.747	-1.958	-2.639	-0.013	-0.847	-1.211	0.592	-1.379	0.189	-0.920	1.615	1.736	1.058	-1.048	-1.003	-2.272	-3.491	-1.708	687.500
0.543	1.575	2.937	-0.862	-0.730	-0.272	-2.696	-0.206	-0.887	-4.898	-1.636	-1.867	-2.250	0.255	-0.872	-1.412	0.784	-1.528	0.340	-0.937	1.679	1.960	1.339	-0.776	-0.761	-2.019	-3.132	-1.511	691.406
0.360	1.225	2.581	-1.086	-0.923	-0.439	-2.710	-0.401	-1.009	-4.778	-1.534	-1.787	-1.866	0.500	-0.941	-1.618	0.852	-1.696	0.401	-1.007	1.704	2.103	1.613	-0.471	-0.456	-1.695	-2.672	-1.268	695.312
0.179	0.907	2.254	-1.280	-1.121	-0.615	-2.725	-0.565	-1.143	-4.690	-1.476	-1.720	-1.525	0.699	-1.036	-1.809	0.807	-1.849	0.389	-1.124	1.692	2.171	1.863	-0.151	-0.119	-1.333	-2.152	-0.991	699.219
0.023	0.657	1.975	-1.431	-1.316	-0.802	-2.766	-0.705	-1.310	-4.662	-1.492	-1.668	-1.262	0.833	-1.131	-1.961	0.689	-1.955	0.338	-1.270	1.650	2.185	2.079	0.156	0.212	-0.977	-1.628	-0.702	703.125
-0.089	0.500	1.761	-1.533	-1.506	-1.002	-2.859	-0.834	-1.522	-4.718	-1.602	-1.635	-1.108	0.891	-1.199	-2.049	0.558	-1.985	0.292	-1.421	1.593	2.175	2.259	0.422	0.504	-0.675	-1.172	-0.431	707.031
-0.145	0.449	1.616	-1.587	-1.689	-1.209	-3.028	-0.967	-1.787	-4.886	-1.816	-1.628	-1.084	0.870	-1.212	-2.054	0.483	-1.918	0.302	-1.548	1.536	2.178	2.409	0.619	0.726	-0.474	-0.855	-0.215	710.938
-0.139	0.503	1.542	-1.601	-1.865	-1.413	-3.294	-1.120	-2.107	-5.186	-2.130	-1.656	-1.204	0.773	-1.152	-1.960	0.527	-1.744	0.411	-1.626	1.493	2.228	2.546	0.723	0.859	-0.411	-0.738	-0.089	714.844
-0.069	0.649	1.536	-1.585	-2.035	-1.599	-3.670	-1.308	-2.480	-5.635	-2.534	-1.736	-1.469	0.611	-1.006	-1.755	0.738	-1.462	0.650	-1.630	1.476	2.352	2.690	0.720	0.892	-0.512	-0.859	-0.088	718.750
0.060	0.870	1.598	-1.549	-2.203	-1.755	-4.157	-1.543	-2.902	-6.238	-3.017	-1.883	-1.872	0.396	-0.771	-1.437	1.141	-1.071	1.031	-1.540	1.492	2.563	2.865	0.608	0.824	-0.790	-1.234	-0.238	722.656
0.240	1.144	1.723	-1.500	-2.369	-1.870	-4.745	-1.830	-3.366	-6.986	-3.565	-2.114	-2.390	0.145	-0.451	-1.007	1.727	-0.577	1.540	-1.345	1.546	2.859	3.087	0.395	0.659	-1.241	-1.845	-0.557	726.562
0.465	1.451	1.910	-1.442	-2.534	-1.941	-5.411	-2.165	-3.866	-7.855	-4.162	-2.442	-2.993	-0.122	-0.059	-0.480	2.462	0.014	2.146	-1.044	1.636	3.224	3.365	0.099	0.411	-1.846	-2.652	-1.048	730.469
0.722	1.771	2.152	-1.374	-2.698	-1.974	-6.123	-2.538	-4.391	-8.803	-4.791	-2.869	-3.640	-0.385	0.389	0.125	3.290	0.688	2.799	-0.651	1.759	3.631	3.694	-0.254	0.094	-2.571	-3.590	-1.703	734.375
1.002	2.091	2.441	-1.293	-2.857	-1.978	-6.840	-2.930	-4.930	-9.778	-5.434	-3.386	-4.283	-0.623	0.867	0.777	4.143	1.426	3.444	-0.188	1.909	4.044	4.057	-0.630	-0.271	-3.374	-4.584	-2.496	738.281
1.291	2.403	2.763	-1.195	-3.005	-1.969	-7.522	-3.317	-5.465	-10.722	-6.066	-3.974	-4.873	-0.817	1.352	1.442	4.952	2.194	4.033	0.308	2.075	4.430	4.428	-1.000	-0.665	-4.211	-5.561	-3.389	742.188
1.581	2.704	3.098	-1.076	-3.134	-1.961	-8.128	-3.670	-5.975	-11.581	-6.665	-4.602	-5.364	-0.952	1.815	2.087	5.659	2.954	4.523	0.801	2.248	4.756	4.775	-1.333	-1.067	-5.037	-6.456	-4.336	746.094
1.859	2.993	3.428	-0.935	-3.234	-1.963	-8.628	-3.963	-6.435	-12.306	-7.209	-5.231	-5.714	-1.016	2.233	2.681	6.216	3.661	4.887	1.250	2.416	4.997	5.066	-1.609	-1.461	-5.817	-7.219	-5.282	750.000
2.116	3.267	3.733	-0.774	-3.295	-1.976	-8.995	-4.173	-6.818	-12.860	-7.679	-5.824	-5.896	-1.002	2.584	3.199	6.592	4.269	5.110	1.624	2.568	5.135	5.274	-1.815	-1.830	-6.522	-7.822	-6.174	753.906
2.340	3.521	3.996	-0.602	-3.310	-1.996	-9.215	-4.279	-7.099	-13.218	-8.061	-6.341	-5.897	-0.913	2.848	3.624	6.771	4.740	5.192	1.901	2.693	5.164	5.376	-1.946	-2.161	-7.132	-8.256	-6.960	757.812
2.520	3.741	4.202	-0.433	-3.277	-2.011	-9.278	-4.269	-7.257	-13.369	-8.343	-6.749	-5.723	-0.756	3.016	3.947	6.756	5.048	5.141	2.070	2.784	5.083	5.358	-2.007	-2.438	-7.628	-8.522	-7.594	761.719
2.647	3.910	4.340	-0.284	-3.200	-2.013	-9.186	-4.142	-7.279	-13.312	-8.519	-7.025	-5.397	-0.548	3.085	4.167	6.568	5.185	4.976	2.132	2.833	4.904	5.217	-2.010	-2.650	-7.998	-8.631	-8.043	765.625
2.716	4.010	4.406	-0.175	-3.090	-1.998	-8.946	-3.901	-7.160	-13.058	-8.583	-7.159	-4.961	-0.315	3.064	4.286	6.250	5.162	4.723	2.095	2.836	4.643	4.959	-1.973	-2.789	-8.230	-8.601	-8.289	769.531
2.725	4.026	4.399	-0.126	-2.963	-1.969	-8.576	-3.562	-6.911	-12.630	-8.537	-7.157	-4.468	-0.084	2.975	4.312	5.863	5.010	4.413	1.973	2.788	4.325	4.611	-1.917	-2.856	-8.319	-8.454	-8.334	773.438
2.682	3.950	4.324	-0.150	-2.838	-1.936	-8.097	-3.148	-6.551	-12.061	-8.386	-7.038	-3.975	0.115	2.847	4.256	5.481	4.773	4.081	1.784	2.688	3.975	4.211	-1.861	-2.862	-8.272	-8.214	-8.198	777.344
2.598	3.787	4.195	-0.251	-2.732	-1.913	-7.537	-2.685	-6.110	-11.388	-8.146	-6.835	-3.533	0.256	2.714	4.134	5.170	4.504	3.756	1.542	2.535	3.619	3.806	-1.823	-2.825	-8.102	-7.908	-7.919	781.250
2.489	3.552	4.028	-0.425	-2.656	-1.913	-6.925	-2.197	-5.617	-10.647	-7.836	-6.582	-3.175	0.325	2.603	3.961	4.982	4.249	3.462	1.263	2.334	3.276	3.438	-1.817	-2.766	-7.834	-7.563	-7.543	785.156
2.370	3.266	3.840	-0.660	-2.614	-1.943	-6.283	-1.704	-5.102	-9.872	-7.480	-6.311	-2.913	0.322	2.533	3.754	4.933	4.041	3.207	0.959	2.092	2.956	3.131	-1.844	-2.703	-7.496	-7.198	-7.113	789.062
2.251	2.950	3.646	-0.937	-2.600	-2.001	-5.631	-1.216	-4.584	-9.087	-7.100	-6.044	-2.732	0.262	2.506	3.531	5.006	3.889	2.989	0.643	1.822	2.659	2.889	-1.901	-2.650	-7.121	-6.831	-6.669	792.969
2.139	2.624	3.457	-1.232	-2.604	-2.077	-4.980	-0.736	-4.074	-8.306	-6.716	-5.794	-2.600	0.170	2.511	3.307	5.154	3.783	2.794	0.327	1.539	2.376	2.689	-1.977	-2.609	-6.736	-6.469	-6.236	796.875
