FP1	F3	F7	FC3	C3	C5	P3	P7	PO7	PO3	O1	Oz	Pz	CPz	FP2	Fz	F4	F8	FC4	FCz	Cz	C4	C6	P4	P8	PO8	PO4	O2	time
-0.504	-0.074	1.155	0.511	0.511	0.778	-0.143	2.000	-0.603	-0.514	-0.296	0.556	0.966	0.464	-1.529	-2.307	-2.882	-1.143	-2.203	-1.956	-0.422	-1.688	-2.755	2.138	1.776	3.298	2.549	1.650	-199.219
-0.254	0.138	1.469	0.377	0.437	0.833	-0.572	1.463	-0.829	-1.098	-1.079	-0.272	0.540	0.249	-1.152	-1.940	-2.189	-0.588	-1.744	-1.871	-0.550	-1.211	-1.876	1.779	1.679	3.083	2.240	1.137	-195.312
-0.016	0.336	1.736	0.260	0.366	0.846	-0.958	0.957	-1.028	-1.612	-1.782	-1.026	0.143	0.064	-0.790	-1.558	-1.540	-0.068	-1.291	-1.738	-0.633	-0.758	-1.052	1.427	1.549	2.833	1.910	0.645	-191.406
0.194	0.504	1.914	0.170	0.300	0.791	-1.255	0.515	-1.166	-1.985	-2.324	-1.636	-0.200	-0.072	-0.457	-1.158	-0.969	0.380	-0.861	-1.523	-0.639	-0.357	-0.345	1.083	1.371	2.526	1.554	0.203	-187.500
0.362	0.618	1.977	0.108	0.240	0.655	-1.431	0.162	-1.211	-2.166	-2.641	-2.044	-0.471	-0.149	-0.170	-0.744	-0.505	0.727	-0.474	-1.217	-0.557	-0.034	0.205	0.754	1.144	2.158	1.175	-0.163	-183.594
0.472	0.651	1.917	0.060	0.183	0.434	-1.471	-0.081	-1.141	-2.125	-2.699	-2.219	-0.661	-0.168	0.056	-0.334	-0.171	0.956	-0.152	-0.830	-0.392	0.189	0.575	0.447	0.883	1.746	0.789	-0.431	-179.688
0.513	0.581	1.743	0.010	0.128	0.146	-1.375	-0.208	-0.947	-1.861	-2.490	-2.157	-0.769	-0.139	0.208	0.046	0.024	1.062	0.083	-0.395	-0.166	0.304	0.764	0.171	0.615	1.317	0.423	-0.589	-175.781
0.481	0.399	1.477	-0.059	0.072	-0.178	-1.161	-0.225	-0.638	-1.399	-2.043	-1.877	-0.802	-0.081	0.281	0.369	0.085	1.049	0.217	0.043	0.083	0.309	0.787	-0.063	0.373	0.909	0.105	-0.637	-171.875
0.383	0.117	1.149	-0.155	0.013	-0.495	-0.858	-0.149	-0.241	-0.786	-1.411	-1.426	-0.771	-0.013	0.279	0.610	0.035	0.934	0.248	0.434	0.320	0.218	0.669	-0.248	0.186	0.558	-0.138	-0.586	-167.969
0.234	-0.232	0.789	-0.276	-0.055	-0.765	-0.506	-0.007	0.205	-0.084	-0.669	-0.863	-0.691	0.047	0.217	0.757	-0.089	0.741	0.187	0.738	0.510	0.055	0.442	-0.377	0.073	0.287	-0.287	-0.459	-164.062
0.058	-0.602	0.425	-0.414	-0.139	-0.955	-0.144	0.165	0.654	0.640	0.099	-0.255	-0.570	0.093	0.121	0.808	-0.238	0.500	0.061	0.927	0.634	-0.144	0.141	-0.444	0.038	0.106	-0.332	-0.284	-160.156
-0.117	-0.943	0.076	-0.556	-0.245	-1.053	0.194	0.334	1.056	1.322	0.816	0.333	-0.413	0.127	0.018	0.773	-0.364	0.247	-0.094	0.996	0.689	-0.338	-0.192	-0.449	0.070	0.007	-0.277	-0.092	-156.250
-0.267	-1.214	-0.244	-0.693	-0.380	-1.069	0.478	0.469	1.370	1.909	1.416	0.850	-0.220	0.161	-0.062	0.671	-0.427	0.018	-0.239	0.959	0.689	-0.482	-0.514	-0.393	0.139	-0.036	-0.138	0.090	-152.344
-0.376	-1.392	-0.527	-0.820	-0.545	-1.032	0.693	0.547	1.561	2.365	1.853	1.255	0.013	0.213	-0.098	0.522	-0.405	-0.154	-0.337	0.845	0.660	-0.539	-0.777	-0.280	0.211	-0.058	0.055	0.239	-148.438
-0.438	-1.478	-0.774	-0.942	-0.734	-0.983	0.831	0.555	1.611	2.668	2.108	1.530	0.284	0.301	-0.081	0.348	-0.297	-0.242	-0.362	0.693	0.637	-0.485	-0.939	-0.120	0.249	-0.092	0.271	0.341	-144.531
-0.459	-1.493	-0.983	-1.067	-0.934	-0.961	0.894	0.493	1.515	2.813	2.182	1.675	0.590	0.437	-0.014	0.165	-0.123	-0.234	-0.303	0.543	0.647	-0.315	-0.972	0.077	0.228	-0.167	0.478	0.392	-140.625
-0.455	-1.473	-1.157	-1.200	-1.123	-0.996	0.890	0.371	1.284	2.809	2.102	1.706	0.914	0.621	0.088	-0.013	0.087	-0.134	-0.163	0.424	0.713	-0.043	-0.866	0.293	0.138	-0.291	0.649	0.398	-136.719
-0.443	-1.455	-1.296	-1.343	-1.275	-1.098	0.833	0.207	0.948	2.675	1.909	1.650	1.228	0.842	0.205	-0.179	0.301	0.038	0.040	0.353	0.836	0.295	-0.636	0.508	-0.007	-0.458	0.769	0.375	-132.812
-0.439	-1.467	-1.400	-1.489	-1.364	-1.253	0.739	0.025	0.545	2.436	1.650	1.539	1.499	1.073	0.311	-0.326	0.491	0.246	0.279	0.334	1.003	0.654	-0.320	0.699	-0.178	-0.643	0.832	0.347	-128.906
-0.454	-1.521	-1.463	-1.617	-1.372	-1.428	0.619	-0.154	0.120	2.114	1.373	1.404	1.688	1.282	0.387	-0.451	0.640	0.448	0.522	0.353	1.187	0.986	0.026	0.842	-0.333	-0.809	0.842	0.336	-125.000
-0.489	-1.610	-1.481	-1.702	-1.289	-1.578	0.482	-0.311	-0.283	1.731	1.113	1.267	1.762	1.434	0.418	-0.548	0.743	0.603	0.738	0.390	1.353	1.248	0.344	0.922	-0.429	-0.919	0.808	0.359	-121.094
-0.540	-1.709	-1.448	-1.717	-1.122	-1.657	0.329	-0.436	-0.626	1.307	0.891	1.145	1.702	1.500	0.401	-0.615	0.801	0.683	0.903	0.422	1.466	1.411	0.587	0.929	-0.432	-0.941	0.742	0.425	-117.188
-0.596	-1.787	-1.362	-1.644	-0.890	-1.630	0.160	-0.528	-0.887	0.855	0.711	1.042	1.507	1.466	0.338	-0.649	0.824	0.673	0.998	0.429	1.500	1.464	0.726	0.866	-0.326	-0.859	0.657	0.533	-113.281
-0.644	-1.812	-1.227	-1.472	-0.620	-1.481	-0.027	-0.596	-1.057	0.389	0.559	0.959	1.199	1.332	0.239	-0.652	0.818	0.576	1.015	0.399	1.446	1.412	0.760	0.746	-0.115	-0.671	0.562	0.671	-109.375
-0.672	-1.758	-1.052	-1.209	-0.345	-1.218	-0.231	-0.651	-1.140	-0.079	0.418	0.888	0.819	1.118	0.118	-0.627	0.788	0.407	0.951	0.330	1.310	1.272	0.706	0.589	0.175	-0.396	0.467	0.820	-105.469
-0.672	-1.613	-0.854	-0.872	-0.094	-0.870	-0.445	-0.705	-1.152	-0.536	0.268	0.824	0.418	0.855	-0.010	-0.579	0.737	0.190	0.816	0.230	1.117	1.066	0.596	0.422	0.502	-0.069	0.380	0.957	-101.562
-0.642	-1.379	-0.650	-0.490	0.111	-0.481	-0.657	-0.768	-1.110	-0.967	0.094	0.756	0.049	0.579	-0.134	-0.518	0.662	-0.049	0.623	0.116	0.898	0.821	0.466	0.267	0.814	0.271	0.307	1.063	-97.656
-0.582	-1.073	-0.460	-0.098	0.258	-0.101	-0.848	-0.839	-1.031	-1.352	-0.104	0.679	-0.241	0.327	-0.242	-0.451	0.559	-0.285	0.391	0.008	0.686	0.558	0.346	0.141	1.060	0.581	0.255	1.121	-93.750
-0.499	-0.722	-0.296	0.270	0.343	0.225	-0.999	-0.914	-0.927	-1.668	-0.314	0.591	-0.423	0.124	-0.331	-0.386	0.427	-0.500	0.145	-0.079	0.507	0.298	0.260	0.055	1.201	0.828	0.228	1.123	-89.844
-0.400	-0.362	-0.169	0.582	0.372	0.464	-1.091	-0.981	-0.807	-1.893	-0.513	0.493	-0.489	-0.016	-0.397	-0.326	0.269	-0.683	-0.093	-0.132	0.372	0.057	0.221	0.010	1.216	0.989	0.226	1.072	-85.938
-0.298	-0.028	-0.082	0.816	0.356	0.603	-1.113	-1.028	-0.675	-2.009	-0.673	0.391	-0.452	-0.093	-0.442	-0.277	0.090	-0.828	-0.299	-0.150	0.278	-0.152	0.233	0.002	1.107	1.059	0.249	0.978	-82.031
-0.200	0.256	-0.034	0.961	0.310	0.649	-1.059	-1.043	-0.535	-2.004	-0.768	0.293	-0.342	-0.123	-0.469	-0.237	-0.097	-0.935	-0.455	-0.139	0.210	-0.318	0.287	0.021	0.896	1.045	0.291	0.854	-78.125
-0.112	0.476	-0.019	1.019	0.246	0.624	-0.933	-1.019	-0.391	-1.878	-0.782	0.206	-0.197	-0.127	-0.480	-0.206	-0.277	-1.007	-0.549	-0.114	0.143	-0.434	0.369	0.053	0.620	0.961	0.338	0.716	-74.219
-0.038	0.637	-0.030	1.004	0.176	0.560	-0.747	-0.952	-0.244	-1.644	-0.711	0.134	-0.057	-0.130	-0.476	-0.183	-0.429	-1.046	-0.574	-0.092	0.056	-0.499	0.462	0.087	0.323	0.825	0.374	0.575	-70.312
0.025	0.753	-0.058	0.936	0.107	0.488	-0.522	-0.844	-0.095	-1.328	-0.568	0.072	0.043	-0.155	-0.454	-0.163	-0.530	-1.053	-0.530	-0.087	-0.070	-0.510	0.549	0.110	0.042	0.651	0.373	0.434	-66.406
0.081	0.847	-0.096	0.842	0.042	0.429	-0.280	-0.700	0.055	-0.961	-0.374	0.014	0.084	-0.215	-0.412	-0.142	-0.556	-1.030	-0.423	-0.108	-0.240	-0.469	0.619	0.110	-0.199	0.444	0.313	0.289	-62.500
0.137	0.937	-0.135	0.744	-0.020	0.394	-0.045	-0.525	0.207	-0.578	-0.160	-0.051	0.058	-0.315	-0.343	-0.116	-0.488	-0.978	-0.262	-0.158	-0.448	-0.384	0.666	0.079	-0.390	0.204	0.172	0.128	-58.594
0.196	1.038	-0.171	0.660	-0.079	0.381	0.166	-0.328	0.358	-0.212	0.044	-0.134	-0.027	-0.448	-0.247	-0.080	-0.321	-0.895	-0.063	-0.226	-0.678	-0.262	0.687	0.011	-0.535	-0.071	-0.059	-0.059	-54.688
0.261	1.154	-0.202	0.601	-0.130	0.384	0.342	-0.120	0.499	0.112	0.211	-0.237	-0.152	-0.597	-0.124	-0.028	-0.071	-0.780	0.152	-0.298	-0.906	-0.121	0.676	-0.094	-0.647	-0.382	-0.374	-0.280	-50.781
0.330	1.278	-0.223	0.572	-0.163	0.398	0.483	0.088	0.618	0.377	0.325	-0.357	-0.292	-0.743	0.019	0.047	0.229	-0.631	0.356	-0.353	-1.108	0.020	0.631	-0.233	-0.745	-0.725	-0.753	-0.535	-46.875
0.401	1.401	-0.231	0.574	-0.164	0.421	0.598	0.280	0.701	0.574	0.377	-0.485	-0.422	-0.866	0.172	0.148	0.526	-0.452	0.524	-0.373	-1.261	0.136	0.545	-0.398	-0.845	-1.084	-1.160	-0.813	-42.969
0.471	1.513	-0.222	0.606	-0.115	0.459	0.697	0.440	0.733	0.700	0.374	-0.604	-0.523	-0.952	0.320	0.280	0.769	-0.253	0.635	-0.344	-1.351	0.206	0.414	-0.579	-0.956	-1.436	-1.551	-1.095	-39.062
0.540	1.605	-0.190	0.667	-0.002	0.522	0.793	0.555	0.711	0.757	0.327	-0.701	-0.586	-0.993	0.451	0.443	0.918	-0.048	0.675	-0.261	-1.374	0.213	0.239	-0.766	-1.083	-1.756	-1.885	-1.355	-35.156
0.607	1.677	-0.131	0.756	0.180	0.619	0.891	0.618	0.637	0.748	0.256	-0.766	-0.612	-0.992	0.555	0.635	0.953	0.143	0.646	-0.126	-1.334	0.153	0.028	-0.949	-1.223	-2.016	-2.127	-1.564	-31.250
0.673	1.732	-0.042	0.872	0.424	0.756	0.985	0.626	0.523	0.679	0.179	-0.795	-0.612	-0.962	0.629	0.852	0.882	0.301	0.560	0.049	-1.247	0.032	-0.202	-1.123	-1.365	-2.196	-2.258	-1.698	-27.344
0.739	1.772	0.074	1.009	0.710	0.930	1.065	0.589	0.392	0.554	0.114	-0.793	-0.606	-0.922	0.674	1.085	0.735	0.413	0.440	0.247	-1.135	-0.132	-0.431	-1.286	-1.496	-2.288	-2.279	-1.740	-23.438
0.805	1.802	0.212	1.157	1.006	1.131	1.113	0.520	0.267	0.383	0.070	-0.771	-0.619	-0.896	0.695	1.322	0.556	0.477	0.311	0.446	-1.025	-0.318	-0.632	-1.437	-1.603	-2.294	-2.204	-1.686	-19.531
0.865	1.823	0.359	1.306	1.278	1.343	1.112	0.437	0.170	0.175	0.050	-0.746	-0.673	-0.907	0.701	1.550	0.396	0.498	0.201	0.626	-0.944	-0.501	-0.781	-1.578	-1.676	-2.227	-2.061	-1.548	-15.625
0.917	1.836	0.503	1.445	1.498	1.550	1.050	0.359	0.121	-0.056	0.050	-0.736	-0.789	-0.975	0.704	1.755	0.296	0.493	0.126	0.767	-0.917	-0.662	-0.860	-1.713	-1.714	-2.110	-1.884	-1.351	-11.719
0.957	1.845	0.626	1.565	1.648	1.741	0.928	0.299	0.130	-0.292	0.064	-0.756	-0.977	-1.113	0.711	1.925	0.278	0.485	0.095	0.860	-0.957	-0.790	-0.858	-1.842	-1.721	-1.968	-1.704	-1.132	-7.812
0.982	1.856	0.715	1.663	1.725	1.906	0.755	0.266	0.200	-0.514	0.085	-0.818	-1.237	-1.321	0.732	2.055	0.346	0.499	0.104	0.906	-1.064	-0.883	-0.779	-1.965	-1.708	-1.822	-1.546	-0.934	-3.906
0.995	1.880	0.759	1.740	1.738	2.044	0.556	0.265	0.325	-0.699	0.103	-0.927	-1.556	-1.587	0.771	2.147	0.482	0.555	0.142	0.914	-1.224	-0.944	-0.639	-2.082	-1.689	-1.693	-1.426	-0.791	0.000
1.000	1.924	0.755	1.800	1.706	2.151	0.354	0.292	0.492	-0.832	0.114	-1.079	-1.910	-1.887	0.830	2.211	0.658	0.663	0.195	0.903	-1.408	-0.979	-0.463	-2.188	-1.673	-1.594	-1.350	-0.731	3.906
1.007	1.998	0.709	1.854	1.654	2.228	0.172	0.336	0.677	-0.905	0.112	-1.266	-2.272	-2.190	0.912	2.268	0.848	0.825	0.255	0.901	-1.578	-0.990	-0.280	-2.282	-1.669	-1.535	-1.321	-0.763	7.812
1.026	2.105	0.634	1.911	1.599	2.274	0.023	0.378	0.848	-0.922	0.091	-1.474	-2.612	-2.464	1.020	2.342	1.036	1.034	0.319	0.930	-1.700	-0.979	-0.115	-2.361	-1.680	-1.523	-1.339	-0.882	11.719
1.070	2.247	0.554	1.983	1.555	2.293	-0.096	0.390	0.967	-0.903	0.046	-1.689	-2.905	-2.683	1.155	2.454	1.221	1.273	0.391	1.011	-1.747	-0.942	0.017	-2.426	-1.703	-1.564	-1.406	-1.069	15.625
1.144	2.416	0.493	2.079	1.526	2.294	-0.197	0.345	0.995	-0.877	-0.026	-1.893	-3.137	-2.832	1.314	2.613	1.410	1.523	0.479	1.147	-1.714	-0.876	0.108	-2.479	-1.733	-1.658	-1.525	-1.293	19.531
1.250	2.601	0.478	2.201	1.509	2.288	-0.299	0.224	0.905	-0.875	-0.125	-2.068	-3.302	-2.911	1.489	2.811	1.613	1.761	0.589	1.325	-1.615	-0.779	0.165	-2.521	-1.763	-1.803	-1.699	-1.522	23.438
1.381	2.788	0.529	2.346	1.495	2.288	-0.418	0.021	0.683	-0.922	-0.250	-2.196	-3.406	-2.931	1.666	3.024	1.835	1.965	0.718	1.517	-1.483	-0.659	0.197	-2.554	-1.785	-1.989	-1.928	-1.729	27.344
1.523	2.959	0.658	2.503	1.476	2.308	-0.559	-0.249	0.339	-1.029	-0.395	-2.269	-3.460	-2.914	1.827	3.211	2.073	2.121	0.857	1.684	-1.361	-0.526	0.218	-2.579	-1.791	-2.203	-2.206	-1.897	31.250
1.662	3.101	0.870	2.656	1.442	2.354	-0.718	-0.552	-0.093	-1.188	-0.559	-2.293	-3.477	-2.883	1.954	3.330	2.311	2.221	0.989	1.789	-1.292	-0.394	0.240	-2.594	-1.781	-2.431	-2.527	-2.028	35.156
1.784	3.208	1.159	2.791	1.391	2.428	-0.876	-0.843	-0.566	-1.380	-0.747	-2.294	-3.470	-2.857	2.035	3.349	2.532	2.273	1.094	1.803	-1.305	-0.281	0.271	-2.597	-1.759	-2.664	-2.876	-2.148	39.062
1.883	3.284	1.510	2.901	1.328	2.523	-1.007	-1.079	-1.025	-1.577	-0.974	-2.325	-3.444	-2.841	2.069	3.254	2.716	2.298	1.158	1.721	-1.407	-0.197	0.317	-2.588	-1.736	-2.896	-3.238	-2.301	42.969
1.962	3.341	1.907	2.986	1.264	2.627	-1.086	-1.225	-1.422	-1.752	-1.266	-2.452	-3.401	-2.831	2.067	3.055	2.850	2.327	1.177	1.554	-1.581	-0.148	0.374	-2.566	-1.726	-3.123	-3.594	-2.541	46.875
2.031	3.398	2.327	3.051	1.214	2.726	-1.095	-1.267	-1.720	-1.892	-1.658	-2.751	-3.337	-2.813	2.050	2.783	2.933	2.397	1.154	1.334	-1.791	-0.136	0.436	-2.531	-1.737	-3.337	-3.922	-2.919	50.781
2.102	3.474	2.746	3.107	1.191	2.804	-1.028	-1.209	-1.899	-1.992	-2.175	-3.281	-3.245	-2.772	2.042	2.480	2.968	2.537	1.104	1.095	-1.998	-0.153	0.490	-2.480	-1.771	-3.520	-4.191	-3.463	54.688
2.182	3.580	3.138	3.162	1.205	2.845	-0.893	-1.072	-1.952	-2.064	-2.828	-4.070	-3.121	-2.695	2.060	2.183	2.959	2.766	1.040	0.864	-2.167	-0.194	0.529	-2.409	-1.816	-3.639	-4.361	-4.166	58.594
2.266	3.709	3.474	3.214	1.249	2.840	-0.712	-0.881	-1.882	-2.129	-3.600	-5.096	-2.967	-2.584	2.107	1.914	2.909	3.082	0.973	0.654	-2.285	-0.251	0.546	-2.310	-1.847	-3.641	-4.389	-4.978	62.500
2.338	3.838	3.729	3.252	1.306	2.779	-0.519	-0.664	-1.699	-2.213	-4.441	-6.282	-2.796	-2.459	2.171	1.669	2.809	3.465	0.908	0.454	-2.364	-0.321	0.545	-2.178	-1.830	-3.463	-4.227	-5.807	66.406
2.370	3.931	3.880	3.252	1.346	2.660	-0.355	-0.434	-1.412	-2.347	-5.269	-7.506	-2.634	-2.353	2.224	1.429	2.649	3.877	0.838	0.239	-2.440	-0.406	0.534	-2.012	-1.727	-3.042	-3.838	-6.533	70.312
2.330	3.948	3.915	3.191	1.333	2.485	-0.264	-0.199	-1.029	-2.556	-5.983	-8.611	-2.517	-2.311	2.230	1.157	2.415	4.272	0.749	-0.024	-2.564	-0.515	0.524	-1.817	-1.506	-2.334	-3.209	-7.031	74.219
2.194	3.860	3.829	3.047	1.234	2.259	-0.281	0.048	-0.560	-2.857	-6.481	-9.433	-2.485	-2.381	2.155	0.823	2.103	4.598	0.627	-0.365	-2.788	-0.661	0.519	-1.610	-1.148	-1.327	-2.357	-7.191	78.125
1.946	3.653	3.632	2.808	1.022	1.992	-0.433	0.321	-0.017	-3.254	-6.672	-9.826	-2.569	-2.597	1.975	0.407	1.718	4.812	0.454	-0.798	-3.149	-0.858	0.513	-1.420	-0.654	-0.052	-1.338	-6.943	82.031
1.588	3.331	3.340	2.473	0.688	1.698	-0.719	0.634	0.586	-3.730	-6.494	-9.684	-2.787	-2.974	1.683	-0.091	1.281	4.882	0.220	-1.320	-3.664	-1.120	0.488	-1.278	-0.046	1.418	-0.234	-6.264	85.938
1.137	2.915	2.975	2.057	0.240	1.392	-1.115	1.000	1.230	-4.241	-5.924	-8.955	-3.127	-3.501	1.289	-0.654	0.818	4.792	-0.081	-1.909	-4.316	-1.456	0.420	-1.218	0.632	2.974	0.854	-5.185	89.844
0.624	2.433	2.561	1.584	-0.294	1.092	-1.573	1.419	1.890	-4.728	-4.979	-7.655	-3.554	-4.136	0.817	-1.247	0.357	4.547	-0.445	-2.528	-5.064	-1.863	0.284	-1.259	1.322	4.491	1.835	-3.778	93.750
0.083	1.910	2.123	1.086	-0.870	0.816	-2.026	1.882	2.532	-5.114	-3.721	-5.864	-4.008	-4.816	0.304	-1.830	-0.083	4.168	-0.863	-3.130	-5.843	-2.327	0.059	-1.403	1.963	5.848	2.640	-2.149	97.656
-0.449	1.369	1.683	0.596	-1.437	0.581	-2.406	2.361	3.117	-5.327	-2.250	-3.723	-4.418	-5.465	-0.212	-2.363	-0.495	3.694	-1.316	-3.671	-6.580	-2.819	-0.257	-1.631	2.498	6.945	3.238	-0.421	101.562
-0.938	0.825	1.261	0.147	-1.942	0.400	-2.653	2.818	3.604	-5.312	-0.691	-1.411	-4.716	-6.008	-0.694	-2.811	-0.887	3.174	-1.780	-4.109	-7.204	-3.302	-0.651	-1.905	2.888	7.718	3.635	1.281	105.469
-1.358	0.291	0.875	-0.236	-2.342	0.279	-2.730	3.210	3.956	-5.040	0.819	0.870	-4.853	-6.385	-1.113	-3.151	-1.273	2.657	-2.226	-4.416	-7.658	-3.731	-1.091	-2.173	3.111	8.147	3.872	2.844	109.375
-1.689	-0.219	0.542	-0.535	-2.608	0.223	-2.629	3.495	4.148	-4.515	2.148	2.930	-4.802	-6.562	-1.447	-3.368	-1.668	2.189	-2.624	-4.577	-7.910	-4.065	-1.530	-2.388	3.168	8.255	4.011	4.178	113.281
-1.918	-0.686	0.269	-0.744	-2.728	0.226	-2.364	3.643	4.175	-3.770	3.196	4.612	-4.574	-6.537	-1.685	-3.460	-2.079	1.803	-2.943	-4.596	-7.957	-4.270	-1.921	-2.510	3.081	8.100	4.116	5.229	117.188
-2.043	-1.086	0.057	-0.863	-2.712	0.280	-1.969	3.648	4.057	-2.858	3.905	5.820	-4.205	-6.334	-1.825	-3.437	-2.503	1.516	-3.164	-4.495	-7.824	-4.327	-2.220	-2.519	2.880	7.765	4.249	5.980	121.094
-2.069	-1.395	-0.102	-0.905	-2.586	0.371	-1.487	3.525	3.840	-1.837	4.273	6.528	-3.752	-6.007	-1.875	-3.321	-2.931	1.329	-3.278	-4.307	-7.561	-4.240	-2.399	-2.418	2.605	7.346	4.456	6.454	125.000
-2.015	-1.598	-0.224	-0.888	-2.391	0.481	-0.958	3.315	3.587	-0.761	4.356	6.787	-3.283	-5.619	-1.854	-3.142	-3.356	1.229	-3.291	-4.076	-7.230	-4.031	-2.449	-2.229	2.299	6.937	4.764	6.710	128.906
-1.908	-1.694	-0.334	-0.840	-2.170	0.592	-0.412	3.078	3.377	0.333	4.253	6.705	-2.859	-5.237	-1.789	-2.941	-3.776	1.192	-3.226	-3.847	-6.897	-3.738	-2.379	-1.985	2.001	6.622	5.185	6.830	132.812
-1.782	-1.704	-0.456	-0.789	-1.967	0.683	0.136	2.881	3.287	1.426	4.089	6.432	-2.527	-4.915	-1.715	-2.763	-4.196	1.185	-3.119	-3.659	-6.618	-3.412	-2.219	-1.722	1.748	6.464	5.716	6.909	136.719
-1.680	-1.674	-0.616	-0.765	-1.819	0.736	0.683	2.788	3.382	2.518	3.998	6.125	-2.311	-4.691	-1.668	-2.651	-4.628	1.171	-3.013	-3.547	-6.435	-3.103	-2.012	-1.468	1.567	6.502	6.340	7.029	140.625
-1.638	-1.660	-0.833	-0.792	-1.745	0.737	1.240	2.845	3.702	3.620	4.091	5.920	-2.210	-4.576	-1.680	-2.645	-5.084	1.111	-2.950	-3.530	-6.364	-2.856	-1.805	-1.241	1.478	6.748	7.037	7.255	144.531
-1.688	-1.728	-1.121	-0.888	-1.751	0.679	1.819	3.076	4.257	4.743	4.445	5.913	-2.204	-4.562	-1.778	-2.772	-5.568	0.970	-2.961	-3.615	-6.401	-2.699	-1.645	-1.039	1.492	7.187	7.779	7.620	148.438
-1.851	-1.932	-1.487	-1.061	-1.828	0.560	2.430	3.474	5.025	5.891	5.086	6.144	-2.256	-4.622	-1.974	-3.042	-6.079	0.722	-3.064	-3.795	-6.524	-2.644	-1.569	-0.855	1.605	7.783	8.538	8.121	152.344
-2.130	-2.308	-1.924	-1.311	-1.958	0.386	3.071	4.006	5.953	7.054	5.989	6.597	-2.327	-4.719	-2.266	-3.451	-6.607	0.357	-3.257	-4.055	-6.699	-2.683	-1.594	-0.671	1.806	8.487	9.284	8.728	156.250
-2.513	-2.862	-2.417	-1.625	-2.114	0.172	3.728	4.622	6.972	8.204	7.081	7.213	-2.381	-4.816	-2.639	-3.976	-7.134	-0.111	-3.520	-4.368	-6.888	-2.794	-1.721	-0.475	2.073	9.243	9.989	9.385	160.156
-2.975	-3.569	-2.941	-1.986	-2.276	-0.064	4.370	5.257	8.005	9.297	8.260	7.903	-2.392	-4.881	-3.067	-4.582	-7.639	-0.650	-3.823	-4.707	-7.058	-2.945	-1.930	-0.259	2.379	9.997	10.628	10.029	164.062
-3.481	-4.381	-3.462	-2.371	-2.426	-0.301	4.960	5.853	8.983	10.283	9.410	8.570	-2.350	-4.896	-3.515	-5.230	-8.100	-1.211	-4.133	-5.045	-7.185	-3.108	-2.189	-0.027	2.695	10.704	11.179	10.598	167.969
-3.988	-5.226	-3.944	-2.756	-2.557	-0.521	5.456	6.361	9.851	11.110	10.424	9.127	-2.258	-4.858	-3.948	-5.881	-8.493	-1.737	-4.419	-5.361	-7.260	-3.256	-2.460	0.209	2.999	11.331	11.629	11.046	171.875
-4.459	-6.031	-4.353	-3.122	-2.671	-0.712	5.825	6.752	10.578	11.732	11.217	9.511	-2.131	-4.776	-4.331	-6.503	-8.799	-2.175	-4.661	-5.644	-7.285	-3.378	-2.706	0.430	3.271	11.860	11.974	11.345	175.781
-4.860	-6.723	-4.661	-3.452	-2.773	-0.868	6.043	7.015	11.151	12.121	11.741	9.691	-1.991	-4.669	-4.640	-7.073	-9.003	-2.483	-4.845	-5.893	-7.272	-3.468	-2.898	0.618	3.503	12.287	12.216	11.491	179.688
-5.169	-7.247	-4.855	-3.734	-2.870	-0.992	6.102	7.158	11.570	12.265	11.981	9.663	-1.860	-4.557	-4.858	-7.583	-9.095	-2.633	-4.968	-6.113	-7.237	-3.531	-3.017	0.759	3.690	12.618	12.365	11.500	183.594
-5.376	-7.571	-4.936	-3.961	-2.966	-1.088	6.011	7.198	11.845	12.170	11.955	9.444	-1.753	-4.457	-4.977	-8.031	-9.069	-2.619	-5.028	-6.313	-7.195	-3.569	-3.055	0.847	3.836	12.866	12.432	11.398	187.500
-5.481	-7.683	-4.919	-4.127	-3.058	-1.165	5.793	7.156	11.987	11.862	11.702	9.066	-1.681	-4.379	-4.999	-8.423	-8.931	-2.445	-5.028	-6.503	-7.156	-3.583	-3.010	0.888	3.942	13.040	12.427	11.212	191.406
-5.498	-7.601	-4.831	-4.231	-3.133	-1.229	5.481	7.051	12.009	11.381	11.272	8.561	-1.639	-4.320	-4.933	-8.765	-8.698	-2.128	-4.969	-6.688	-7.120	-3.571	-2.889	0.897	4.012	13.151	12.360	10.966	195.312
-5.445	-7.358	-4.706	-4.271	-3.177	-1.284	5.118	6.901	11.924	10.778	10.712	7.958	-1.615	-4.268	-4.795	-9.063	-8.399	-1.692	-4.856	-6.866	-7.083	-3.524	-2.709	0.896	4.046	13.202	12.240	10.673	199.219
-5.346	-7.004	-4.577	-4.248	-3.172	-1.331	4.747	6.718	11.748	10.113	10.068	7.282	-1.588	-4.205	-4.605	-9.321	-8.078	-1.163	-4.699	-7.031	-7.034	-3.437	-2.492	0.907	4.046	13.196	12.076	10.338	203.125
-5.226	-6.595	-4.470	-4.168	-3.104	-1.367	4.414	6.513	11.504	9.447	9.376	6.552	-1.536	-4.108	-4.387	-9.537	-7.783	-0.577	-4.516	-7.173	-6.960	-3.311	-2.272	0.949	4.017	13.135	11.881	9.962	207.031
-5.104	-6.183	-4.400	-4.038	-2.966	-1.380	4.160	6.300	11.216	8.836	8.664	5.787	-1.434	-3.959	-4.164	-9.707	-7.561	0.028	-4.327	-7.276	-6.852	-3.153	-2.084	1.034	3.962	13.026	11.673	9.546	210.938
-4.995	-5.814	-4.372	-3.868	-2.759	-1.358	4.015	6.091	10.912	8.327	7.957	5.008	-1.265	-3.744	-3.960	-9.825	-7.443	0.605	-4.154	-7.327	-6.699	-2.975	-1.958	1.162	3.888	12.882	11.470	9.097	214.844
-4.904	-5.519	-4.381	-3.673	-2.493	-1.286	3.998	5.902	10.619	7.952	7.275	4.241	-1.020	-3.458	-3.789	-9.882	-7.435	1.103	-4.013	-7.313	-6.499	-2.799	-1.915	1.323	3.802	12.720	11.292	8.629	218.750
-4.832	-5.311	-4.414	-3.466	-2.185	-1.157	4.111	5.748	10.361	7.725	6.640	3.515	-0.702	-3.105	-3.660	-9.872	-7.515	1.469	-3.913	-7.226	-6.251	-2.641	-1.956	1.504	3.708	12.560	11.158	8.165	222.656
-4.771	-5.190	-4.460	-3.263	-1.859	-0.971	4.343	5.642	10.152	7.641	6.071	2.864	-0.323	-2.701	-3.573	-9.790	-7.635	1.660	-3.853	-7.068	-5.963	-2.519	-2.065	1.687	3.612	12.423	11.077	7.728	226.562
-4.711	-5.144	-4.504	-3.077	-1.540	-0.745	4.668	5.594	9.994	7.678	5.583	2.316	0.096	-2.264	-3.522	-9.638	-7.738	1.647	-3.825	-6.847	-5.646	-2.442	-2.215	1.857	3.517	12.330	11.058	7.342	230.469
-4.645	-5.155	-4.538	-2.923	-1.250	-0.505	5.054	5.606	9.884	7.805	5.185	1.893	0.529	-1.821	-3.499	-9.424	-7.772	1.425	-3.823	-6.587	-5.320	-2.415	-2.371	2.006	3.430	12.296	11.101	7.028	234.375
-4.568	-5.202	-4.554	-2.808	-1.006	-0.286	5.465	5.678	9.812	7.983	4.879	1.608	0.947	-1.395	-3.496	-9.165	-7.712	1.011	-3.842	-6.315	-5.005	-2.438	-2.510	2.133	3.359	12.335	11.202	6.798	238.281
-4.480	-5.265	-4.548	-2.737	-0.815	-0.121	5.871	5.802	9.766	8.179	4.660	1.459	1.328	-1.006	-3.510	-8.885	-7.563	0.444	-3.884	-6.063	-4.721	-2.508	-2.618	2.243	3.315	12.455	11.355	6.659	242.188
-4.387	-5.330	-4.519	-2.711	-0.677	-0.035	6.248	5.965	9.734	8.366	4.520	1.433	1.655	-0.667	-3.545	-8.607	-7.365	-0.226	-3.956	-5.855	-4.486	-2.615	-2.701	2.346	3.313	12.656	11.550	6.610	246.094
-4.296	-5.387	-4.468	-2.721	-0.580	-0.038	6.581	6.149	9.713	8.528	4.448	1.506	1.924	-0.382	-3.605	-8.349	-7.178	-0.941	-4.068	-5.708	-4.308	-2.749	-2.776	2.453	3.364	12.928	11.776	6.646	250.000
-4.218	-5.433	-4.403	-2.758	-0.511	-0.126	6.866	6.337	9.702	8.664	4.437	1.649	2.141	-0.145	-3.696	-8.124	-7.063	-1.647	-4.222	-5.621	-4.185	-2.896	-2.861	2.574	3.473	13.252	12.019	6.756	253.906
-4.160	-5.475	-4.337	-2.808	-0.456	-0.283	7.107	6.511	9.706	8.781	4.482	1.831	2.321	0.058	-3.819	-7.932	-7.064	-2.302	-4.414	-5.581	-4.105	-3.038	-2.973	2.712	3.638	13.597	12.267	6.923	257.812
-4.131	-5.525	-4.289	-2.861	-0.403	-0.481	7.311	6.660	9.736	8.895	4.583	2.027	2.485	0.242	-3.968	-7.769	-7.198	-2.876	-4.630	-5.566	-4.052	-3.158	-3.111	2.867	3.844	13.932	12.509	7.131	261.719
-4.137	-5.601	-4.286	-2.907	-0.347	-0.690	7.490	6.781	9.804	9.027	4.744	2.222	2.655	0.420	-4.133	-7.624	-7.448	-3.359	-4.847	-5.550	-4.006	-3.241	-3.261	3.033	4.067	14.225	12.738	7.362	265.625
-4.184	-5.722	-4.355	-2.945	-0.289	-0.878	7.655	6.878	9.923	9.195	4.971	2.412	2.847	0.603	-4.302	-7.487	-7.771	-3.756	-5.042	-5.513	-3.954	-3.277	-3.402	3.200	4.277	14.455	12.950	7.605	269.531
-4.274	-5.903	-4.523	-2.977	-0.234	-1.021	7.814	6.963	10.099	9.411	5.268	2.602	3.068	0.792	-4.463	-7.350	-8.109	-4.084	-5.194	-5.439	-3.885	-3.264	-3.510	3.356	4.449	14.611	13.148	7.851	273.438
-4.407	-6.149	-4.804	-3.009	-0.189	-1.099	7.972	7.049	10.335	9.679	5.633	2.802	3.312	0.980	-4.605	-7.210	-8.404	-4.366	-5.290	-5.322	-3.796	-3.203	-3.566	3.490	4.563	14.699	13.334	8.102	277.344
-4.578	-6.452	-5.205	-3.049	-0.160	-1.104	8.126	7.149	10.623	9.990	6.057	3.025	3.565	1.159	-4.718	-7.066	-8.608	-4.621	-5.323	-5.164	-3.688	-3.101	-3.562	3.594	4.609	14.734	13.516	8.362	281.250
-4.775	-6.793	-5.716	-3.105	-0.155	-1.041	8.270	7.267	10.949	10.328	6.523	3.277	3.809	1.316	-4.795	-6.919	-8.687	-4.858	-5.295	-4.971	-3.565	-2.966	-3.502	3.669	4.596	14.741	13.704	8.638	285.156
-4.985	-7.141	-6.313	-3.181	-0.174	-0.922	8.394	7.400	11.292	10.669	7.005	3.560	4.025	1.444	-4.830	-6.770	-8.631	-5.078	-5.213	-4.751	-3.429	-2.805	-3.400	3.723	4.542	14.745	13.908	8.939	289.062
-5.188	-7.467	-6.962	-3.278	-0.218	-0.773	8.487	7.538	11.626	10.986	7.474	3.867	4.200	1.541	-4.820	-6.617	-8.447	-5.273	-5.081	-4.512	-3.284	-2.616	-3.272	3.779	4.476	14.774	14.144	9.271	292.969
-5.366	-7.744	-7.626	-3.395	-0.282	-0.626	8.540	7.663	11.929	11.256	7.902	4.186	4.328	1.611	-4.764	-6.458	-8.158	-5.436	-4.903	-4.260	-3.130	-2.395	-3.133	3.863	4.432	14.847	14.422	9.631	296.875
-5.507	-7.959	-8.265	-3.528	-0.357	-0.515	8.550	7.759	12.180	11.459	8.261	4.502	4.415	1.663	-4.667	-6.287	-7.797	-5.559	-4.678	-4.000	-2.967	-2.132	-2.987	4.008	4.440	14.978	14.751	10.013	300.781
-5.602	-8.109	-8.846	-3.675	-0.437	-0.474	8.517	7.814	12.365	11.584	8.532	4.794	4.469	1.708	-4.539	-6.101	-7.403	-5.643	-4.405	-3.735	-2.793	-1.818	-2.826	4.240	4.519	15.173	15.131	10.402	304.688
-5.653	-8.208	-9.344	-3.832	-0.512	-0.529	8.446	7.825	12.479	11.629	8.705	5.043	4.504	1.757	-4.395	-5.900	-7.014	-5.695	-4.080	-3.467	-2.608	-1.448	-2.634	4.572	4.675	15.431	15.554	10.779	308.594
-5.668	-8.274	-9.745	-3.995	-0.577	-0.689	8.346	7.797	12.519	11.598	8.775	5.227	4.529	1.816	-4.253	-5.688	-6.667	-5.723	-3.710	-3.201	-2.414	-1.027	-2.392	5.004	4.901	15.743	16.002	11.119	312.500
-5.659	-8.330	-10.045	-4.159	-0.630	-0.947	8.222	7.743	12.491	11.501	8.743	5.329	4.550	1.885	-4.130	-5.476	-6.388	-5.739	-3.306	-2.943	-2.214	-0.570	-2.088	5.513	5.181	16.096	16.447	11.398	316.406
-5.643	-8.391	-10.251	-4.317	-0.670	-1.277	8.081	7.683	12.398	11.348	8.616	5.337	4.561	1.957	-4.041	-5.279	-6.193	-5.748	-2.888	-2.701	-2.016	-0.105	-1.726	6.061	5.491	16.471	16.856	11.596	320.312
-5.634	-8.464	-10.371	-4.455	-0.701	-1.641	7.921	7.634	12.247	11.153	8.408	5.249	4.550	2.017	-3.993	-5.111	-6.079	-5.748	-2.480	-2.486	-1.835	0.334	-1.325	6.599	5.809	16.843	17.195	11.699	324.219
-5.638	-8.546	-10.419	-4.559	-0.729	-1.994	7.741	7.610	12.044	10.929	8.140	5.076	4.497	2.045	-3.981	-4.987	-6.029	-5.733	-2.107	-2.310	-1.684	0.712	-0.919	7.073	6.117	17.187	17.435	11.703	328.125
-5.659	-8.626	-10.411	-4.619	-0.764	-2.295	7.539	7.618	11.799	10.690	7.842	4.846	4.380	2.018	-3.996	-4.915	-6.012	-5.688	-1.789	-2.185	-1.581	0.998	-0.548	7.437	6.396	17.475	17.558	11.620	332.031
-5.695	-8.690	-10.366	-4.625	-0.811	-2.512	7.320	7.657	11.529	10.460	7.559	4.603	4.181	1.917	-4.021	-4.901	-5.992	-5.600	-1.537	-2.120	-1.542	1.173	-0.250	7.658	6.632	17.690	17.563	11.481	335.938
-5.738	-8.725	-10.305	-4.581	-0.877	-2.628	7.095	7.725	11.257	10.269	7.346	4.409	3.895	1.733	-4.036	-4.945	-5.939	-5.460	-1.356	-2.123	-1.576	1.232	-0.049	7.727	6.815	17.819	17.467	11.333	339.844
-5.786	-8.723	-10.251	-4.495	-0.966	-2.643	6.888	7.812	11.014	10.156	7.267	4.332	3.529	1.464	-4.030	-5.047	-5.835	-5.272	-1.244	-2.196	-1.687	1.182	0.046	7.653	6.937	17.864	17.304	11.240	343.750
-5.832	-8.685	-10.226	-4.387	-1.079	-2.571	6.725	7.910	10.834	10.164	7.382	4.434	3.107	1.126	-3.998	-5.205	-5.685	-5.046	-1.196	-2.338	-1.867	1.042	0.041	7.469	6.994	17.838	17.115	11.262	347.656
-5.875	-8.616	-10.245	-4.278	-1.216	-2.435	6.634	8.011	10.749	10.332	7.737	4.759	2.664	0.744	-3.945	-5.417	-5.512	-4.805	-1.209	-2.540	-2.101	0.837	-0.043	7.218	6.990	17.758	16.945	11.450	351.562
-5.913	-8.524	-10.309	-4.186	-1.373	-2.264	6.634	8.105	10.781	10.678	8.343	5.311	2.240	0.353	-3.882	-5.677	-5.352	-4.575	-1.278	-2.789	-2.366	0.595	-0.180	6.947	6.934	17.642	16.824	11.824	355.469
-5.943	-8.418	-10.404	-4.126	-1.544	-2.084	6.723	8.182	10.929	11.191	9.163	6.048	1.876	-0.011	-3.823	-5.972	-5.239	-4.383	-1.392	-3.065	-2.632	0.343	-0.343	6.698	6.837	17.504	16.768	12.360	359.375
-5.958	-8.302	-10.499	-4.098	-1.720	-1.915	6.882	8.231	11.172	11.822	10.109	6.880	1.598	-0.313	-3.780	-6.284	-5.191	-4.248	-1.538	-3.342	-2.869	0.107	-0.502	6.502	6.718	17.350	16.768	12.991	363.281
-5.947	-8.172	-10.554	-4.094	-1.889	-1.767	7.068	8.239	11.461	12.480	11.045	7.674	1.423	-0.527	-3.753	-6.584	-5.202	-4.175	-1.690	-3.592	-3.048	-0.085	-0.632	6.377	6.595	17.177	16.799	13.608	367.188
-5.897	-8.013	-10.525	-4.092	-2.038	-1.643	7.225	8.195	11.731	13.047	11.810	8.286	1.348	-0.641	-3.737	-6.840	-5.237	-4.157	-1.819	-3.785	-3.149	-0.210	-0.714	6.323	6.485	16.981	16.822	14.085	371.094
-5.793	-7.809	-10.375	-4.066	-2.155	-1.540	7.295	8.088	11.910	13.396	12.246	8.580	1.354	-0.655	-3.713	-7.017	-5.246	-4.171	-1.893	-3.899	-3.157	-0.251	-0.730	6.324	6.406	16.753	16.794	14.300	375.000
-5.627	-7.543	-10.088	-3.990	-2.228	-1.453	7.230	7.914	11.933	13.420	12.234	8.470	1.410	-0.583	-3.664	-7.088	-5.174	-4.185	-1.886	-3.916	-3.073	-0.197	-0.676	6.353	6.369	16.486	16.675	14.166	378.906
-5.401	-7.212	-9.666	-3.848	-2.252	-1.372	7.005	7.674	11.756	13.053	11.725	7.937	1.483	-0.447	-3.573	-7.038	-4.984	-4.162	-1.788	-3.833	-2.906	-0.054	-0.552	6.376	6.376	16.179	16.436	13.651	382.812
-5.127	-6.822	-9.136	-3.633	-2.220	-1.295	6.622	7.378	11.371	12.295	10.749	7.041	1.541	-0.275	-3.434	-6.870	-4.667	-4.070	-1.607	-3.658	-2.674	0.161	-0.373	6.358	6.420	15.830	16.061	12.789	386.719
-4.829	-6.399	-8.540	-3.352	-2.131	-1.216	6.116	7.045	10.802	11.209	9.416	5.906	1.562	-0.093	-3.249	-6.601	-4.250	-3.881	-1.371	-3.412	-2.401	0.417	-0.161	6.270	6.478	15.434	15.550	11.665	390.625
-4.533	-5.973	-7.927	-3.022	-1.987	-1.135	5.541	6.702	10.103	9.910	7.888	4.692	1.537	0.080	-3.031	-6.261	-3.787	-3.581	-1.118	-3.121	-2.110	0.677	0.056	6.093	6.518	14.983	14.908	10.394	394.531
-4.259	-5.571	-7.338	-2.664	-1.789	-1.050	4.963	6.375	9.341	8.537	6.338	3.553	1.470	0.230	-2.796	-5.881	-3.346	-3.169	-0.888	-2.813	-1.820	0.908	0.248	5.819	6.500	14.462	14.145	9.092	398.438
-4.021	-5.209	-6.804	-2.295	-1.542	-0.957	4.442	6.085	8.582	7.219	4.911	2.599	1.376	0.353	-2.560	-5.486	-2.984	-2.653	-0.712	-2.511	-1.543	1.083	0.395	5.456	6.381	13.852	13.272	7.842	402.344
-3.816	-4.884	-6.333	-1.925	-1.249	-0.846	4.016	5.844	7.871	6.049	3.696	1.870	1.272	0.454	-2.328	-5.088	-2.737	-2.054	-0.602	-2.228	-1.287	1.196	0.491	5.022	6.131	13.136	12.299	6.689	406.250
-3.630	-4.578	-5.919	-1.556	-0.916	-0.706	3.696	5.647	7.228	5.068	2.713	1.336	1.171	0.540	-2.101	-4.684	-2.606	-1.398	-0.548	-1.967	-1.049	1.254	0.543	4.544	5.734	12.302	11.239	5.628	410.156
-3.444	-4.263	-5.544	-1.184	-0.551	-0.524	3.468	5.479	6.648	4.267	1.921	0.909	1.082	0.621	-1.873	-4.263	-2.559	-0.720	-0.526	-1.723	-0.826	1.281	0.571	4.053	5.197	11.358	10.113	4.630	414.062
-3.237	-3.916	-5.188	-0.803	-0.163	-0.290	3.297	5.317	6.110	3.603	1.249	0.483	1.002	0.705	-1.635	-3.813	-2.547	-0.058	-0.505	-1.486	-0.610	1.304	0.599	3.581	4.551	10.329	8.953	3.658	417.969
-2.999	-3.524	-4.839	-0.410	0.235	-0.002	3.143	5.136	5.593	3.023	0.624	-0.036	0.924	0.795	-1.386	-3.326	-2.517	0.543	-0.457	-1.245	-0.396	1.345	0.642	3.150	3.842	9.259	7.802	2.691	421.875
-2.730	-3.094	-4.494	-0.011	0.627	0.335	2.977	4.921	5.084	2.484	0.002	-0.695	0.834	0.889	-1.128	-2.809	-2.423	1.039	-0.366	-0.994	-0.181	1.415	0.703	2.778	3.126	8.201	6.711	1.734	425.781
-2.443	-2.650	-4.164	0.383	0.996	0.704	2.786	4.664	4.591	1.973	-0.618	-1.483	0.723	0.984	-0.873	-2.279	-2.243	1.388	-0.236	-0.734	0.034	1.509	0.770	2.465	2.453	7.213	5.727	0.823	429.688
-2.157	-2.228	-3.863	0.751	1.323	1.079	2.580	4.375	4.137	1.509	-1.193	-2.330	0.589	1.074	-0.639	-1.769	-1.973	1.560	-0.085	-0.476	0.243	1.604	0.816	2.203	1.864	6.340	4.893	0.014	433.594
-1.894	-1.865	-3.609	1.075	1.599	1.431	2.390	4.071	3.756	1.134	-1.657	-3.130	0.441	1.155	-0.442	-1.312	-1.636	1.542	0.057	-0.237	0.439	1.672	0.809	1.975	1.377	5.613	4.232	-0.632	437.500
-1.672	-1.589	-3.416	1.338	1.817	1.729	2.253	3.776	3.477	0.898	-1.935	-3.769	0.298	1.228	-0.296	-0.942	-1.269	1.342	0.160	-0.034	0.618	1.684	0.722	1.764	0.994	5.043	3.753	-1.062	441.406
-1.503	-1.416	-3.292	1.531	1.983	1.946	2.204	3.510	3.320	0.837	-1.973	-4.151	0.186	1.300	-0.207	-0.678	-0.914	0.989	0.204	0.120	0.779	1.624	0.548	1.557	0.698	4.621	3.445	-1.251	445.312
-1.390	-1.347	-3.241	1.652	2.106	2.059	2.263	3.289	3.281	0.964	-1.752	-4.225	0.134	1.381	-0.174	-0.529	-0.613	0.531	0.182	0.220	0.926	1.495	0.298	1.352	0.464	4.328	3.288	-1.200	449.219
-1.331	-1.367	-3.261	1.704	2.199	2.057	2.426	3.116	3.340	1.255	-1.294	-3.990	0.163	1.481	-0.189	-0.483	-0.400	0.027	0.107	0.274	1.068	1.320	0.009	1.159	0.270	4.136	3.254	-0.939	453.125
-1.321	-1.459	-3.349	1.694	2.272	1.937	2.668	2.985	3.459	1.659	-0.659	-3.493	0.283	1.607	-0.239	-0.519	-0.289	-0.463	0.006	0.296	1.214	1.137	-0.273	0.996	0.096	4.020	3.313	-0.517	457.031
-1.349	-1.601	-3.500	1.628	2.329	1.709	2.946	2.879	3.594	2.102	0.072	-2.814	0.488	1.757	-0.308	-0.606	-0.281	-0.883	-0.085	0.305	1.369	0.990	-0.496	0.882	-0.065	3.958	3.436	0.005	460.938
-1.411	-1.774	-3.708	1.512	2.366	1.396	3.210	2.779	3.706	2.510	0.808	-2.048	0.757	1.923	-0.383	-0.716	-0.362	-1.194	-0.132	0.320	1.532	0.918	-0.617	0.835	-0.211	3.939	3.602	0.571	464.844
-1.499	-1.963	-3.966	1.349	2.374	1.028	3.413	2.664	3.765	2.820	1.473	-1.285	1.058	2.090	-0.452	-0.826	-0.513	-1.373	-0.115	0.346	1.693	0.942	-0.618	0.863	-0.333	3.958	3.794	1.133	468.750
-1.611	-2.161	-4.261	1.141	2.340	0.642	3.528	2.519	3.759	2.999	2.018	-0.594	1.356	2.235	-0.513	-0.926	-0.707	-1.419	-0.030	0.379	1.833	1.059	-0.505	0.962	-0.417	4.020	4.001	1.660	472.656
-1.746	-2.368	-4.579	0.890	2.251	0.274	3.545	2.345	3.697	3.051	2.426	-0.015	1.619	2.340	-0.567	-1.021	-0.926	-1.349	0.106	0.399	1.930	1.242	-0.308	1.117	-0.446	4.133	4.222	2.139	476.562
-1.904	-2.589	-4.905	0.600	2.101	-0.046	3.480	2.154	3.604	3.008	2.712	0.442	1.828	2.386	-0.621	-1.129	-1.156	-1.197	0.257	0.375	1.959	1.449	-0.077	1.306	-0.411	4.308	4.459	2.572	480.469
-2.084	-2.826	-5.219	0.282	1.892	-0.296	3.367	1.972	3.511	2.930	2.914	0.791	1.972	2.364	-0.686	-1.276	-1.389	-1.004	0.381	0.271	1.896	1.627	0.137	1.505	-0.308	4.553	4.718	2.971	484.375
-2.284	-3.075	-5.507	-0.050	1.635	-0.460	3.250	1.833	3.454	2.880	3.079	1.057	2.055	2.269	-0.773	-1.489	-1.625	-0.814	0.435	0.058	1.730	1.731	0.293	1.688	-0.141	4.867	5.003	3.349	488.281
-2.497	-3.324	-5.755	-0.369	1.352	-0.532	3.169	1.768	3.456	2.914	3.245	1.271	2.087	2.107	-0.889	-1.788	-1.862	-0.667	0.392	-0.283	1.457	1.731	0.365	1.836	0.079	5.244	5.316	3.716	492.188
-2.710	-3.546	-5.950	-0.650	1.068	-0.515	3.150	1.801	3.525	3.058	3.434	1.451	2.075	1.884	-1.035	-2.178	-2.094	-0.587	0.245	-0.749	1.090	1.619	0.350	1.936	0.338	5.665	5.650	4.075	496.094
-2.908	-3.713	-6.082	-0.865	0.807	-0.418	3.200	1.934	3.649	3.307	3.645	1.607	2.023	1.614	-1.203	-2.652	-2.310	-0.581	0.007	-1.317	0.650	1.407	0.262	1.984	0.625	6.104	5.990	4.417	500.000
-3.074	-3.797	-6.136	-0.997	0.586	-0.259	3.300	2.152	3.799	3.620	3.851	1.729	1.929	1.306	-1.378	-3.184	-2.490	-0.632	-0.287	-1.948	0.172	1.125	0.125	1.983	0.931	6.529	6.312	4.726	503.906
-3.193	-3.779	-6.101	-1.039	0.412	-0.063	3.411	2.420	3.930	3.930	4.009	1.797	1.781	0.973	-1.539	-3.738	-2.614	-0.701	-0.592	-2.588	-0.310	0.813	-0.025	1.940	1.249	6.906	6.587	4.974	507.812
-3.252	-3.652	-5.965	-0.996	0.283	0.143	3.481	2.687	3.992	4.156	4.069	1.784	1.565	0.623	-1.664	-4.271	-2.661	-0.737	-0.860	-3.181	-0.760	0.516	-0.153	1.868	1.574	7.205	6.786	5.129	511.719
-3.243	-3.421	-5.723	-0.886	0.188	0.332	3.453	2.901	3.938	4.223	3.984	1.664	1.272	0.271	-1.729	-4.737	-2.620	-0.683	-1.049	-3.675	-1.143	0.273	-0.219	1.780	1.895	7.401	6.880	5.160	515.625
-3.163	-3.099	-5.375	-0.725	0.117	0.487	3.284	3.011	3.731	4.074	3.723	1.419	0.904	-0.066	-1.721	-5.092	-2.490	-0.495	-1.129	-4.023	-1.433	0.114	-0.191	1.690	2.198	7.479	6.849	5.043	519.531
-3.011	-2.704	-4.930	-0.529	0.063	0.600	2.948	2.980	3.351	3.684	3.276	1.043	0.478	-0.367	-1.630	-5.300	-2.279	-0.152	-1.086	-4.194	-1.609	0.058	-0.045	1.607	2.464	7.429	6.680	4.759	523.438
-2.792	-2.252	-4.405	-0.306	0.025	0.678	2.448	2.792	2.798	3.061	2.650	0.546	0.028	-0.606	-1.457	-5.334	-2.003	0.336	-0.920	-4.173	-1.658	0.109	0.226	1.538	2.672	7.254	6.373	4.306	527.344
-2.508	-1.758	-3.820	-0.057	0.007	0.735	1.812	2.454	2.095	2.249	1.876	-0.047	-0.399	-0.756	-1.212	-5.185	-1.679	0.934	-0.649	-3.963	-1.577	0.256	0.607	1.484	2.801	6.957	5.936	3.694	531.250
-2.169	-1.233	-3.198	0.223	0.020	0.789	1.095	1.993	1.284	1.317	0.995	-0.703	-0.759	-0.800	-0.910	-4.859	-1.327	1.581	-0.304	-3.589	-1.373	0.474	1.061	1.440	2.838	6.553	5.390	2.951	535.156
-1.785	-0.691	-2.560	0.538	0.069	0.856	0.365	1.460	0.422	0.350	0.062	-1.381	-1.010	-0.730	-0.577	-4.386	-0.971	2.204	0.073	-3.091	-1.068	0.724	1.532	1.393	2.780	6.065	4.767	2.118	539.062
-1.375	-0.153	-1.925	0.883	0.159	0.946	-0.307	0.917	-0.420	-0.567	-0.863	-2.038	-1.131	-0.557	-0.244	-3.810	-0.639	2.730	0.432	-2.525	-0.694	0.962	1.957	1.331	2.638	5.524	4.111	1.252	542.969
-0.965	0.357	-1.310	1.246	0.283	1.057	-0.856	0.431	-1.173	-1.354	-1.718	-2.634	-1.122	-0.306	0.051	-3.193	-0.367	3.096	0.724	-1.954	-0.292	1.142	2.275	1.241	2.433	4.970	3.473	0.421	546.875
-0.583	0.807	-0.734	1.603	0.427	1.181	-1.233	0.063	-1.773	-1.954	-2.444	-3.131	-1.004	-0.018	0.272	-2.600	-0.194	3.258	0.907	-1.440	0.090	1.227	2.440	1.115	2.196	4.451	2.909	-0.307	550.781
-0.261	1.168	-0.213	1.926	0.574	1.302	-1.416	-0.141	-2.175	-2.333	-2.999	-3.505	-0.815	0.262	0.386	-2.089	-0.156	3.198	0.954	-1.034	0.410	1.194	2.429	0.951	1.956	4.009	2.467	-0.870	554.688
-0.021	1.419	0.235	2.187	0.701	1.408	-1.411	-0.162	-2.362	-2.490	-3.360	-3.743	-0.606	0.490	0.378	-1.699	-0.274	2.925	0.856	-0.764	0.632	1.040	2.249	0.753	1.739	3.674	2.180	-1.224	558.594
0.128	1.558	0.598	2.369	0.791	1.486	-1.249	-0.009	-2.347	-2.453	-3.534	-3.854	-0.425	0.629	0.250	-1.443	-0.544	2.477	0.634	-0.635	0.739	0.785	1.931	0.532	1.558	3.460	2.056	-1.359	562.500
0.192	1.602	0.870	2.468	0.828	1.531	-0.986	0.279	-2.174	-2.277	-3.556	-3.859	-0.314	0.660	0.029	-1.300	-0.930	1.917	0.328	-0.626	0.727	0.465	1.529	0.296	1.416	3.356	2.073	-1.296	566.406
0.193	1.585	1.055	2.494	0.807	1.546	-0.692	0.642	-1.909	-2.035	-3.483	-3.799	-0.303	0.577	-0.240	-1.224	-1.370	1.322	-0.006	-0.698	0.612	0.127	1.104	0.056	1.301	3.331	2.186	-1.088	570.312
0.167	1.551	1.166	2.469	0.733	1.536	-0.440	1.011	-1.628	-1.805	-3.378	-3.719	-0.404	0.393	-0.502	-1.154	-1.784	0.773	-0.306	-0.797	0.424	-0.179	0.720	-0.186	1.197	3.341	2.327	-0.812	574.219
0.148	1.547	1.229	2.425	0.618	1.515	-0.296	1.320	-1.407	-1.663	-3.305	-3.667	-0.613	0.131	-0.700	-1.027	-2.089	0.341	-0.520	-0.875	0.196	-0.414	0.422	-0.434	1.090	3.336	2.423	-0.553	578.125
0.170	1.609	1.272	2.391	0.482	1.495	-0.307	1.520	-1.301	-1.669	-3.309	-3.680	-0.917	-0.180	-0.792	-0.796	-2.215	0.076	-0.608	-0.893	-0.036	-0.552	0.240	-0.696	0.968	3.273	2.405	-0.387	582.031
0.253	1.756	1.327	2.392	0.348	1.492	-0.499	1.587	-1.345	-1.860	-3.415	-3.782	-1.291	-0.510	-0.753	-0.440	-2.119	0.006	-0.559	-0.830	-0.244	-0.589	0.180	-0.982	0.828	3.121	2.220	-0.372	585.938
0.400	1.983	1.424	2.442	0.235	1.517	-0.873	1.519	-1.541	-2.246	-3.626	-3.976	-1.713	-0.834	-0.585	0.036	-1.795	0.128	-0.380	-0.687	-0.409	-0.535	0.233	-1.300	0.674	2.865	1.841	-0.535	589.844
0.600	2.268	1.582	2.544	0.157	1.579	-1.406	1.343	-1.862	-2.811	-3.926	-4.250	-2.156	-1.132	-0.309	0.596	-1.268	0.419	-0.100	-0.485	-0.524	-0.412	0.376	-1.654	0.513	2.506	1.268	-0.874	593.750
0.832	2.570	1.814	2.685	0.116	1.679	-2.056	1.097	-2.259	-3.516	-4.284	-4.576	-2.601	-1.396	0.036	1.190	-0.591	0.835	0.239	-0.254	-0.595	-0.250	0.582	-2.037	0.356	2.054	0.524	-1.360	597.656
1.068	2.850	2.119	2.847	0.103	1.811	-2.771	0.833	-2.669	-4.309	-4.665	-4.917	-3.035	-1.626	0.405	1.760	0.172	1.319	0.593	-0.030	-0.634	-0.077	0.817	-2.436	0.209	1.530	-0.347	-1.946	601.562
1.284	3.076	2.486	3.005	0.102	1.959	-3.498	0.601	-3.030	-5.133	-5.034	-5.239	-3.448	-1.826	0.755	2.256	0.955	1.811	0.925	0.161	-0.659	0.082	1.051	-2.831	0.079	0.956	-1.290	-2.577	605.469
1.466	3.234	2.894	3.136	0.092	2.101	-4.186	0.440	-3.294	-5.934	-5.366	-5.514	-3.835	-2.006	1.055	2.648	1.707	2.256	1.207	0.301	-0.687	0.209	1.258	-3.196	-0.031	0.359	-2.243	-3.198	609.375
1.610	3.334	3.321	3.227	0.053	2.213	-4.798	0.375	-3.440	-6.670	-5.644	-5.728	-4.195	-2.172	1.290	2.928	2.389	2.617	1.425	0.393	-0.729	0.295	1.420	-3.508	-0.122	-0.235	-3.149	-3.764	613.281
1.725	3.401	3.740	3.274	-0.026	2.274	-5.309	0.406	-3.472	-7.314	-5.862	-5.879	-4.524	-2.330	1.459	3.108	2.976	2.879	1.577	0.450	-0.790	0.340	1.528	-3.745	-0.197	-0.799	-3.951	-4.238	617.188
1.822	3.467	4.125	3.280	-0.148	2.270	-5.710	0.512	-3.421	-7.851	-6.022	-5.977	-4.820	-2.480	1.573	3.218	3.449	3.046	1.673	0.492	-0.863	0.348	1.591	-3.890	-0.261	-1.307	-4.605	-4.600	621.094
1.914	3.556	4.455	3.257	-0.305	2.203	-6.004	0.658	-3.335	-8.275	-6.128	-6.034	-5.074	-2.615	1.648	3.289	3.795	3.141	1.723	0.542	-0.937	0.328	1.623	-3.936	-0.319	-1.734	-5.076	-4.836	625.000
2.007	3.679	4.714	3.215	-0.481	2.086	-6.202	0.799	-3.267	-8.591	-6.182	-6.064	-5.279	-2.726	1.697	3.345	4.003	3.193	1.741	0.611	-1.000	0.291	1.645	-3.887	-0.376	-2.060	-5.347	-4.947	628.906
2.097	3.827	4.893	3.162	-0.657	1.946	-6.320	0.892	-3.263	-8.801	-6.184	-6.072	-5.422	-2.800	1.729	3.398	4.065	3.235	1.735	0.699	-1.040	0.243	1.676	-3.758	-0.432	-2.275	-5.421	-4.939	632.812
2.174	3.974	4.989	3.097	-0.813	1.811	-6.373	0.910	-3.349	-8.911	-6.130	-6.053	-5.493	-2.825	1.748	3.441	3.988	3.294	1.711	0.793	-1.049	0.190	1.729	-3.574	-0.488	-2.382	-5.323	-4.830	636.719
2.223	4.082	5.006	3.014	-0.936	1.708	-6.370	0.844	-3.528	-8.920	-6.013	-5.995	-5.480	-2.793	1.753	3.457	3.790	3.388	1.672	0.866	-1.029	0.133	1.806	-3.368	-0.545	-2.398	-5.097	-4.642	640.625
2.229	4.112	4.953	2.904	-1.020	1.653	-6.315	0.709	-3.775	-8.828	-5.828	-5.880	-5.376	-2.700	1.743	3.420	3.506	3.520	1.619	0.889	-0.987	0.074	1.905	-3.177	-0.604	-2.354	-4.805	-4.405	644.531
2.179	4.034	4.847	2.753	-1.069	1.648	-6.207	0.537	-4.044	-8.634	-5.571	-5.690	-5.179	-2.547	1.713	3.305	3.179	3.683	1.555	0.834	-0.934	0.014	2.019	-3.030	-0.670	-2.286	-4.511	-4.152	648.438
2.070	3.832	4.705	2.556	-1.095	1.684	-6.044	0.371	-4.276	-8.340	-5.250	-5.416	-4.895	-2.344	1.661	3.093	2.851	3.862	1.480	0.682	-0.886	-0.045	2.142	-2.947	-0.743	-2.236	-4.274	-3.915	652.344
1.904	3.515	4.550	2.311	-1.116	1.745	-5.829	0.255	-4.421	-7.958	-4.884	-5.062	-4.544	-2.109	1.583	2.777	2.556	4.035	1.397	0.425	-0.858	-0.100	2.267	-2.933	-0.823	-2.233	-4.136	-3.723	656.250
1.697	3.114	4.406	2.028	-1.149	1.814	-5.573	0.218	-4.443	-7.513	-4.505	-4.650	-4.154	-1.864	1.479	2.364	2.312	4.183	1.310	0.073	-0.865	-0.148	2.390	-2.978	-0.905	-2.297	-4.117	-3.597	660.156
1.468	2.680	4.294	1.728	-1.205	1.872	-5.299	0.273	-4.336	-7.045	-4.157	-4.218	-3.765	-1.638	1.351	1.873	2.125	4.291	1.228	-0.349	-0.913	-0.181	2.509	-3.059	-0.981	-2.429	-4.208	-3.550	664.062
1.244	2.273	4.231	1.437	-1.290	1.911	-5.045	0.408	-4.125	-6.608	-3.886	-3.816	-3.424	-1.456	1.209	1.338	1.992	4.359	1.163	-0.802	-0.999	-0.192	2.628	-3.147	-1.043	-2.616	-4.383	-3.584	667.969
1.051	1.952	4.228	1.184	-1.402	1.924	-4.852	0.593	-3.860	-6.263	-3.739	-3.499	-3.176	-1.340	1.067	0.803	1.914	4.396	1.133	-1.242	-1.115	-0.167	2.748	-3.214	-1.080	-2.834	-4.604	-3.696	671.875
0.914	1.762	4.287	0.999	-1.530	1.913	-4.763	0.779	-3.610	-6.071	-3.747	-3.315	-3.062	-1.305	0.948	0.313	1.895	4.425	1.157	-1.620	-1.242	-0.097	2.872	-3.240	-1.088	-3.056	-4.832	-3.877	675.781
0.848	1.727	4.407	0.899	-1.662	1.885	-4.815	0.913	-3.443	-6.080	-3.927	-3.302	-3.109	-1.353	0.874	-0.089	1.951	4.480	1.253	-1.896	-1.359	0.025	2.998	-3.217	-1.068	-3.262	-5.041	-4.118	679.688
0.863	1.847	4.581	0.895	-1.784	1.853	-5.028	0.944	-3.421	-6.324	-4.276	-3.474	-3.325	-1.476	0.869	-0.366	2.098	4.594	1.429	-2.041	-1.443	0.200	3.121	-3.153	-1.024	-3.441	-5.219	-4.408	683.594
0.957	2.102	4.802	0.988	-1.881	1.830	-5.405	0.836	-3.584	-6.810	-4.770	-3.829	-3.699	-1.658	0.949	-0.497	2.351	4.796	1.686	-2.042	-1.478	0.419	3.236	-3.068	-0.971	-3.597	-5.373	-4.744	687.500
1.124	2.458	5.066	1.168	-1.944	1.830	-5.926	0.573	-3.946	-7.519	-5.371	-4.342	-4.195	-1.870	1.120	-0.476	2.715	5.102	2.012	-1.905	-1.455	0.667	3.337	-2.987	-0.924	-3.744	-5.526	-5.122	691.406
1.348	2.873	5.365	1.423	-1.963	1.864	-6.551	0.165	-4.492	-8.404	-6.030	-4.970	-4.762	-2.084	1.375	-0.314	3.178	5.509	2.386	-1.651	-1.370	0.923	3.422	-2.939	-0.904	-3.910	-5.706	-5.542	695.312
1.614	3.310	5.693	1.730	-1.930	1.937	-7.223	-0.355	-5.184	-9.399	-6.699	-5.661	-5.334	-2.266	1.698	-0.034	3.713	5.997	2.775	-1.315	-1.230	1.162	3.495	-2.948	-0.929	-4.120	-5.942	-6.000	699.219
1.901	3.739	6.038	2.068	-1.844	2.050	-7.879	-0.935	-5.961	-10.421	-7.330	-6.358	-5.843	-2.390	2.059	0.333	4.277	6.530	3.145	-0.936	-1.047	1.360	3.557	-3.028	-1.015	-4.402	-6.252	-6.490	703.125
2.191	4.138	6.384	2.412	-1.707	2.197	-8.453	-1.513	-6.756	-11.388	-7.888	-7.006	-6.228	-2.433	2.427	0.751	4.814	7.063	3.460	-0.550	-0.833	1.500	3.613	-3.180	-1.172	-4.770	-6.644	-7.001	707.031
2.468	4.495	6.713	2.738	-1.526	2.368	-8.894	-2.027	-7.502	-12.221	-8.350	-7.558	-6.440	-2.383	2.769	1.189	5.266	7.551	3.693	-0.186	-0.602	1.572	3.661	-3.394	-1.404	-5.228	-7.106	-7.517	710.938
2.717	4.803	7.003	3.025	-1.316	2.551	-9.171	-2.431	-8.145	-12.865	-8.708	-7.980	-6.454	-2.237	3.056	1.620	5.584	7.953	3.830	0.139	-0.363	1.579	3.699	-3.645	-1.708	-5.766	-7.617	-8.016	714.844
2.927	5.057	7.237	3.255	-1.096	2.732	-9.280	-2.697	-8.652	-13.293	-8.968	-8.254	-6.265	-2.001	3.269	2.030	5.738	8.236	3.871	0.424	-0.119	1.537	3.726	-3.900	-2.073	-6.358	-8.142	-8.477	718.750
3.094	5.251	7.401	3.415	-0.888	2.899	-9.243	-2.826	-9.017	-13.512	-9.147	-8.380	-5.898	-1.692	3.400	2.414	5.723	8.384	3.835	0.676	0.129	1.473	3.743	-4.125	-2.480	-6.968	-8.643	-8.880	722.656
3.218	5.381	7.495	3.497	-0.719	3.038	-9.108	-2.843	-9.255	-13.558	-9.271	-8.379	-5.396	-1.330	3.454	2.777	5.562	8.396	3.748	0.910	0.384	1.420	3.753	-4.286	-2.906	-7.553	-9.086	-9.213	726.562
3.303	5.444	7.525	3.501	-0.612	3.135	-8.934	-2.789	-9.399	-13.493	-9.363	-8.284	-4.817	-0.945	3.446	3.130	5.301	8.292	3.646	1.145	0.649	1.407	3.760	-4.363	-3.321	-8.071	-9.444	-9.469	730.469
3.362	5.445	7.508	3.436	-0.589	3.178	-8.784	-2.714	-9.485	-13.382	-9.444	-8.137	-4.227	-0.564	3.402	3.489	4.995	8.108	3.559	1.396	0.924	1.453	3.765	-4.346	-3.695	-8.484	-9.701	-9.654	734.375
3.407	5.395	7.467	3.316	-0.661	3.158	-8.707	-2.664	-9.546	-13.285	-9.525	-7.981	-3.685	-0.213	3.349	3.870	4.698	7.891	3.509	1.672	1.208	1.566	3.764	-4.242	-4.002	-8.767	-9.853	-9.775	738.281
3.453	5.312	7.419	3.161	-0.833	3.067	-8.736	-2.677	-9.602	-13.241	-9.604	-7.854	-3.238	0.088	3.316	4.283	4.453	7.691	3.508	1.975	1.496	1.738	3.750	-4.067	-4.221	-8.909	-9.900	-9.845	742.188
3.511	5.217	7.378	2.988	-1.101	2.907	-8.877	-2.772	-9.660	-13.259	-9.676	-7.778	-2.915	0.326	3.323	4.732	4.285	7.548	3.553	2.298	1.779	1.948	3.715	-3.846	-4.342	-8.913	-9.843	-9.875	746.094
3.588	5.128	7.341	2.813	-1.451	2.679	-9.114	-2.952	-9.713	-13.323	-9.731	-7.762	-2.723	0.497	3.382	5.209	4.204	7.487	3.635	2.627	2.047	2.171	3.658	-3.603	-4.367	-8.792	-9.686	-9.868	750.000
3.683	5.058	7.294	2.646	-1.862	2.395	-9.415	-3.202	-9.751	-13.398	-9.760	-7.802	-2.648	0.604	3.494	5.700	4.207	7.507	3.737	2.942	2.286	2.380	3.586	-3.357	-4.306	-8.570	-9.429	-9.825	753.906
3.786	5.009	7.219	2.491	-2.304	2.066	-9.737	-3.495	-9.767	-13.445	-9.762	-7.883	-2.667	0.657	3.648	6.181	4.282	7.588	3.843	3.223	2.486	2.554	3.511	-3.123	-4.178	-8.277	-9.076	-9.741	757.812
3.889	4.981	7.098	2.353	-2.744	1.715	-10.041	-3.798	-9.759	-13.434	-9.744	-7.988	-2.750	0.665	3.828	6.627	4.415	7.698	3.942	3.453	2.636	2.681	3.451	-2.909	-4.006	-7.946	-8.642	-9.615	761.719
3.979	4.967	6.923	2.235	-3.145	1.366	-10.295	-4.076	-9.739	-13.355	-9.720	-8.101	-2.868	0.639	4.015	7.018	4.592	7.800	4.028	3.625	2.734	2.759	3.421	-2.720	-3.813	-7.617	-8.158	-9.454	765.625
4.048	4.963	6.701	2.147	-3.470	1.050	-10.483	-4.300	-9.731	-13.221	-9.707	-8.216	-2.999	0.588	4.190	7.345	4.803	7.864	4.108	3.745	2.782	2.797	3.430	-2.559	-3.624	-7.330	-7.672	-9.278	769.531
4.097	4.966	6.449	2.102	-3.687	0.798	-10.600	-4.454	-9.764	-13.065	-9.726	-8.338	-3.130	0.521	4.344	7.609	5.045	7.873	4.193	3.829	2.792	2.808	3.478	-2.426	-3.460	-7.129	-7.246	-9.120	773.438
4.128	4.981	6.192	2.114	-3.774	0.635	-10.656	-4.531	-9.869	-12.926	-9.792	-8.475	-3.258	0.443	4.475	7.825	5.328	7.822	4.305	3.903	2.778	2.812	3.556	-2.320	-3.336	-7.053	-6.947	-9.019	777.344
4.152	5.013	5.957	2.194	-3.726	0.579	-10.665	-4.540	-10.070	-12.842	-9.913	-8.643	-3.381	0.359	4.589	8.016	5.665	7.720	4.465	3.993	2.759	2.826	3.648	-2.242	-3.259	-7.129	-6.829	-9.011	781.250
4.179	5.067	5.761	2.345	-3.552	0.629	-10.642	-4.496	-10.377	-12.838	-10.088	-8.851	-3.505	0.274	4.699	8.208	6.071	7.582	4.687	4.125	2.751	2.860	3.735	-2.188	-3.230	-7.364	-6.921	-9.120	785.156
4.219	5.147	5.611	2.563	-3.275	0.771	-10.606	-4.418	-10.787	-12.920	-10.309	-9.103	-3.633	0.189	4.815	8.420	6.553	7.423	4.976	4.311	2.763	2.920	3.803	-2.151	-3.240	-7.743	-7.215	-9.348	789.062
4.274	5.248	5.502	2.832	-2.929	0.979	-10.568	-4.327	-11.275	-13.075	-10.563	-9.395	-3.767	0.105	4.945	8.662	7.102	7.259	5.321	4.550	2.800	3.004	3.846	-2.125	-3.276	-8.228	-7.668	-9.672	792.969
4.342	5.362	5.419	3.128	-2.557	1.217	-10.541	-4.236	-11.808	-13.278	-10.834	-9.712	-3.910	0.022	5.088	8.933	7.691	7.099	5.701	4.826	2.854	3.106	3.869	-2.100	-3.323	-8.765	-8.205	-10.050	796.875
