FP1	F3	F7	FC3	C3	C5	P3	P7	PO7	PO3	O1	Oz	Pz	CPz	FP2	Fz	F4	F8	FC4	FCz	Cz	C4	C6	P4	P8	PO8	PO4	O2	time
1.099	1.611	0.458	0.590	-0.454	0.195	-2.657	-2.296	-3.893	-4.125	-2.360	-1.216	-0.061	0.792	1.357	1.943	2.412	1.021	1.786	1.970	1.699	1.098	0.423	0.295	-0.396	0.050	-0.585	-0.412	-199.219
0.663	0.931	-0.195	0.045	-0.835	-0.173	-2.062	-1.848	-2.976	-3.256	-1.965	-0.723	0.121	0.859	0.997	1.718	1.825	0.607	1.327	1.827	1.594	1.001	0.222	0.622	-0.046	0.414	-0.197	-0.135	-195.312
0.246	0.296	-0.822	-0.464	-1.174	-0.495	-1.491	-1.390	-2.084	-2.424	-1.568	-0.270	0.290	0.907	0.654	1.497	1.263	0.222	0.883	1.670	1.468	0.886	0.040	0.918	0.276	0.769	0.175	0.142	-191.406
-0.136	-0.264	-1.392	-0.918	-1.439	-0.743	-0.960	-0.924	-1.242	-1.657	-1.169	0.114	0.438	0.922	0.340	1.276	0.745	-0.112	0.470	1.481	1.299	0.745	-0.110	1.165	0.557	1.110	0.526	0.420	-187.500
-0.471	-0.729	-1.884	-1.300	-1.614	-0.900	-0.485	-0.462	-0.475	-0.975	-0.771	0.413	0.562	0.894	0.065	1.050	0.289	-0.383	0.104	1.247	1.076	0.583	-0.219	1.358	0.791	1.438	0.859	0.704	-183.594
-0.751	-1.093	-2.284	-1.601	-1.696	-0.970	-0.073	-0.028	0.192	-0.389	-0.387	0.629	0.659	0.823	-0.165	0.816	-0.088	-0.590	-0.199	0.965	0.797	0.415	-0.285	1.502	0.984	1.754	1.185	0.997	-179.688
-0.972	-1.362	-2.589	-1.815	-1.696	-0.972	0.275	0.350	0.739	0.098	-0.030	0.774	0.734	0.718	-0.347	0.570	-0.379	-0.741	-0.429	0.638	0.475	0.268	-0.306	1.613	1.149	2.061	1.515	1.299	-175.781
-1.136	-1.550	-2.803	-1.944	-1.634	-0.932	0.560	0.642	1.150	0.492	0.283	0.871	0.795	0.596	-0.483	0.314	-0.584	-0.848	-0.577	0.277	0.130	0.167	-0.289	1.708	1.303	2.354	1.854	1.604	-171.875
-1.250	-1.678	-2.937	-1.994	-1.532	-0.881	0.788	0.825	1.419	0.805	0.538	0.943	0.852	0.479	-0.583	0.047	-0.721	-0.927	-0.644	-0.102	-0.207	0.135	-0.237	1.808	1.458	2.620	2.200	1.899	-167.969
-1.323	-1.765	-3.007	-1.973	-1.410	-0.846	0.967	0.884	1.550	1.049	0.726	1.007	0.919	0.387	-0.655	-0.223	-0.816	-0.986	-0.639	-0.476	-0.506	0.184	-0.155	1.922	1.621	2.838	2.539	2.161	-164.062
-1.367	-1.823	-3.027	-1.891	-1.276	-0.839	1.102	0.821	1.555	1.235	0.845	1.072	1.006	0.342	-0.712	-0.487	-0.899	-1.034	-0.575	-0.820	-0.736	0.311	-0.041	2.053	1.786	2.983	2.846	2.363	-160.156
-1.385	-1.855	-3.013	-1.754	-1.132	-0.862	1.196	0.646	1.455	1.370	0.896	1.132	1.119	0.355	-0.759	-0.728	-0.990	-1.072	-0.466	-1.108	-0.871	0.502	0.105	2.194	1.937	3.029	3.091	2.474	-156.250
-1.381	-1.855	-2.974	-1.568	-0.969	-0.897	1.251	0.384	1.274	1.452	0.883	1.173	1.256	0.429	-0.795	-0.925	-1.089	-1.101	-0.328	-1.311	-0.895	0.730	0.285	2.329	2.052	2.956	3.242	2.474	-152.344
-1.349	-1.810	-2.914	-1.336	-0.778	-0.920	1.264	0.064	1.036	1.473	0.808	1.173	1.407	0.560	-0.813	-1.055	-1.177	-1.122	-0.168	-1.406	-0.803	0.966	0.498	2.439	2.109	2.756	3.276	2.351	-148.438
-1.281	-1.701	-2.830	-1.062	-0.552	-0.902	1.228	-0.281	0.759	1.419	0.674	1.110	1.553	0.733	-0.802	-1.096	-1.215	-1.137	0.009	-1.376	-0.599	1.181	0.735	2.503	2.088	2.437	3.179	2.106	-144.531
-1.167	-1.515	-2.711	-0.750	-0.296	-0.825	1.138	-0.622	0.457	1.277	0.479	0.968	1.670	0.925	-0.747	-1.036	-1.158	-1.150	0.205	-1.215	-0.303	1.351	0.984	2.501	1.982	2.024	2.951	1.760	-140.625
-0.999	-1.247	-2.544	-0.412	-0.027	-0.681	0.988	-0.934	0.139	1.041	0.222	0.743	1.734	1.112	-0.640	-0.875	-0.965	-1.164	0.420	-0.933	0.059	1.465	1.222	2.422	1.796	1.552	2.607	1.342	-136.719
-0.777	-0.905	-2.315	-0.065	0.230	-0.483	0.776	-1.199	-0.188	0.713	-0.094	0.444	1.724	1.265	-0.478	-0.628	-0.615	-1.180	0.652	-0.557	0.449	1.516	1.423	2.260	1.546	1.062	2.175	0.891	-132.812
-0.510	-0.513	-2.014	0.267	0.444	-0.258	0.506	-1.403	-0.516	0.311	-0.457	0.096	1.626	1.360	-0.270	-0.322	-0.114	-1.197	0.895	-0.128	0.829	1.507	1.560	2.020	1.257	0.597	1.691	0.446	-128.906
-0.216	-0.109	-1.646	0.557	0.586	-0.041	0.195	-1.540	-0.827	-0.132	-0.840	-0.262	1.443	1.380	-0.031	0.001	0.504	-1.212	1.132	0.306	1.161	1.444	1.607	1.710	0.955	0.186	1.194	0.046	-125.000
0.078	0.261	-1.225	0.781	0.639	0.130	-0.134	-1.608	-1.101	-0.570	-1.204	-0.582	1.191	1.321	0.212	0.301	1.175	-1.221	1.343	0.695	1.418	1.333	1.547	1.346	0.662	-0.149	0.722	-0.281	-121.094
0.343	0.552	-0.780	0.918	0.598	0.228	-0.448	-1.608	-1.312	-0.951	-1.503	-0.817	0.899	1.191	0.433	0.537	1.824	-1.218	1.502	0.999	1.582	1.179	1.374	0.945	0.395	-0.403	0.305	-0.513	-117.188
0.550	0.731	-0.351	0.961	0.470	0.238	-0.717	-1.550	-1.435	-1.229	-1.688	-0.925	0.606	1.012	0.606	0.681	2.368	-1.200	1.586	1.190	1.654	0.986	1.097	0.529	0.157	-0.579	-0.031	-0.640	-113.281
0.680	0.781	0.025	0.910	0.275	0.162	-0.911	-1.444	-1.454	-1.369	-1.726	-0.882	0.354	0.815	0.712	0.717	2.737	-1.163	1.577	1.261	1.645	0.755	0.740	0.123	-0.052	-0.684	-0.272	-0.658	-109.375
0.723	0.707	0.316	0.780	0.037	0.020	-1.014	-1.308	-1.366	-1.360	-1.600	-0.685	0.179	0.635	0.739	0.646	2.882	-1.109	1.467	1.218	1.575	0.490	0.339	-0.247	-0.238	-0.728	-0.408	-0.572	-105.469
0.685	0.538	0.505	0.593	-0.216	-0.159	-1.026	-1.159	-1.182	-1.217	-1.323	-0.356	0.103	0.501	0.689	0.480	2.789	-1.039	1.258	1.084	1.468	0.194	-0.065	-0.559	-0.408	-0.716	-0.440	-0.393	-101.562
0.582	0.316	0.593	0.376	-0.458	-0.341	-0.962	-1.010	-0.928	-0.978	-0.931	0.061	0.127	0.430	0.572	0.244	2.474	-0.958	0.963	0.886	1.344	-0.126	-0.428	-0.793	-0.567	-0.650	-0.376	-0.136	-97.656
0.442	0.098	0.601	0.157	-0.668	-0.491	-0.850	-0.874	-0.639	-0.699	-0.477	0.506	0.230	0.422	0.407	-0.034	1.987	-0.873	0.607	0.655	1.212	-0.460	-0.714	-0.941	-0.716	-0.536	-0.232	0.172	-93.750
0.295	-0.066	0.566	-0.037	-0.830	-0.583	-0.725	-0.752	-0.353	-0.442	-0.025	0.913	0.372	0.457	0.219	-0.322	1.400	-0.785	0.220	0.416	1.076	-0.794	-0.898	-1.007	-0.851	-0.379	-0.038	0.499	-89.844
0.171	-0.136	0.534	-0.184	-0.930	-0.599	-0.621	-0.641	-0.103	-0.263	0.363	1.221	0.502	0.502	0.032	-0.588	0.791	-0.694	-0.166	0.189	0.926	-1.108	-0.971	-1.004	-0.963	-0.193	0.173	0.808	-85.938
0.094	-0.092	0.550	-0.270	-0.959	-0.535	-0.565	-0.533	0.083	-0.199	0.641	1.382	0.568	0.518	-0.131	-0.806	0.236	-0.592	-0.519	-0.012	0.752	-1.381	-0.944	-0.957	-1.040	0.001	0.360	1.056	-82.031
0.076	0.060	0.649	-0.286	-0.911	-0.395	-0.569	-0.418	0.190	-0.266	0.778	1.370	0.530	0.470	-0.251	-0.956	-0.210	-0.473	-0.811	-0.183	0.544	-1.590	-0.839	-0.891	-1.072	0.175	0.485	1.205	-78.125
0.117	0.294	0.849	-0.233	-0.786	-0.193	-0.632	-0.291	0.215	-0.447	0.771	1.185	0.366	0.335	-0.320	-1.026	-0.513	-0.327	-1.024	-0.321	0.299	-1.715	-0.687	-0.829	-1.048	0.303	0.514	1.227	-74.219
0.209	0.570	1.147	-0.120	-0.590	0.054	-0.739	-0.150	0.162	-0.705	0.635	0.850	0.081	0.111	-0.337	-1.014	-0.674	-0.148	-1.147	-0.429	0.022	-1.743	-0.521	-0.788	-0.966	0.359	0.429	1.105	-70.312
0.332	0.842	1.519	0.036	-0.336	0.325	-0.863	-0.001	0.049	-0.984	0.408	0.405	-0.297	-0.186	-0.309	-0.925	-0.715	0.066	-1.181	-0.508	-0.274	-1.670	-0.371	-0.778	-0.830	0.325	0.225	0.843	-66.406
0.467	1.070	1.929	0.215	-0.042	0.596	-0.973	0.151	-0.101	-1.224	0.136	-0.094	-0.724	-0.524	-0.249	-0.774	-0.679	0.312	-1.136	-0.559	-0.566	-1.504	-0.255	-0.802	-0.652	0.197	-0.088	0.458	-62.500
0.592	1.227	2.330	0.395	0.269	0.844	-1.036	0.302	-0.260	-1.367	-0.130	-0.591	-1.146	-0.864	-0.171	-0.580	-0.616	0.582	-1.032	-0.586	-0.832	-1.268	-0.184	-0.857	-0.455	-0.021	-0.487	-0.016	-58.594
0.691	1.299	2.677	0.558	0.576	1.048	-1.028	0.451	-0.395	-1.371	-0.345	-1.032	-1.513	-1.169	-0.090	-0.369	-0.569	0.866	-0.892	-0.592	-1.055	-0.993	-0.159	-0.939	-0.265	-0.312	-0.939	-0.539	-54.688
0.751	1.287	2.932	0.692	0.860	1.189	-0.932	0.602	-0.476	-1.213	-0.472	-1.373	-1.790	-1.411	-0.016	-0.167	-0.565	1.153	-0.742	-0.585	-1.223	-0.715	-0.171	-1.044	-0.116	-0.656	-1.410	-1.067	-50.781
0.768	1.203	3.070	0.790	1.109	1.259	-0.746	0.762	-0.479	-0.897	-0.490	-1.590	-1.960	-1.579	0.046	0.003	-0.616	1.430	-0.603	-0.571	-1.336	-0.468	-0.207	-1.171	-0.037	-1.030	-1.867	-1.559	-46.875
0.743	1.065	3.086	0.850	1.314	1.262	-0.478	0.937	-0.388	-0.447	-0.390	-1.674	-2.024	-1.673	0.093	0.123	-0.712	1.686	-0.493	-0.559	-1.402	-0.283	-0.252	-1.321	-0.054	-1.411	-2.281	-1.982	-42.969
0.682	0.892	2.992	0.878	1.477	1.210	-0.147	1.132	-0.199	0.094	-0.179	-1.633	-2.002	-1.711	0.126	0.184	-0.836	1.909	-0.420	-0.556	-1.436	-0.175	-0.294	-1.495	-0.177	-1.783	-2.634	-2.314	-39.062
0.598	0.711	2.817	0.883	1.602	1.124	0.219	1.343	0.075	0.671	0.123	-1.493	-1.924	-1.712	0.147	0.191	-0.967	2.088	-0.386	-0.563	-1.454	-0.149	-0.327	-1.693	-0.405	-2.132	-2.914	-2.544	-35.156
0.507	0.547	2.597	0.879	1.700	1.033	0.589	1.562	0.413	1.229	0.485	-1.288	-1.823	-1.703	0.158	0.156	-1.086	2.215	-0.385	-0.576	-1.469	-0.198	-0.353	-1.912	-0.721	-2.452	-3.123	-2.674	-31.250
0.428	0.428	2.374	0.882	1.779	0.960	0.929	1.773	0.781	1.713	0.870	-1.058	-1.726	-1.700	0.164	0.104	-1.179	2.284	-0.408	-0.588	-1.491	-0.307	-0.381	-2.144	-1.099	-2.737	-3.265	-2.716	-27.344
0.378	0.374	2.181	0.907	1.850	0.923	1.214	1.962	1.139	2.088	1.239	-0.838	-1.654	-1.717	0.172	0.063	-1.235	2.297	-0.442	-0.590	-1.525	-0.457	-0.423	-2.376	-1.501	-2.981	-3.351	-2.692	-23.438
0.369	0.400	2.038	0.966	1.919	0.924	1.427	2.117	1.450	2.333	1.559	-0.654	-1.613	-1.757	0.190	0.056	-1.246	2.260	-0.482	-0.573	-1.568	-0.633	-0.496	-2.593	-1.888	-3.177	-3.387	-2.621	-19.531
0.404	0.501	1.953	1.062	1.988	0.955	1.567	2.236	1.687	2.452	1.811	-0.520	-1.598	-1.812	0.223	0.101	-1.208	2.183	-0.525	-0.534	-1.618	-0.826	-0.617	-2.775	-2.222	-3.316	-3.379	-2.521	-15.625
0.479	0.660	1.918	1.190	2.054	0.997	1.645	2.324	1.837	2.471	1.990	-0.432	-1.589	-1.870	0.275	0.200	-1.125	2.079	-0.578	-0.476	-1.670	-1.036	-0.798	-2.905	-2.471	-3.385	-3.325	-2.402	-11.719
0.578	0.841	1.915	1.336	2.114	1.028	1.684	2.392	1.907	2.428	2.109	-0.374	-1.563	-1.912	0.341	0.344	-1.007	1.954	-0.652	-0.407	-1.716	-1.267	-1.046	-2.973	-2.615	-3.377	-3.222	-2.267	-7.812
0.685	1.008	1.925	1.482	2.165	1.032	1.713	2.454	1.915	2.370	2.187	-0.323	-1.491	-1.918	0.414	0.514	-0.870	1.813	-0.757	-0.338	-1.749	-1.526	-1.358	-2.972	-2.650	-3.288	-3.066	-2.111	-3.906
0.779	1.125	1.927	1.606	2.204	1.002	1.760	2.520	1.891	2.341	2.249	-0.256	-1.352	-1.870	0.484	0.685	-0.733	1.655	-0.902	-0.280	-1.764	-1.813	-1.723	-2.905	-2.589	-3.125	-2.857	-1.930	0.000
0.849	1.169	1.910	1.695	2.232	0.941	1.843	2.591	1.860	2.370	2.314	-0.157	-1.131	-1.757	0.539	0.828	-0.612	1.478	-1.083	-0.242	-1.752	-2.123	-2.119	-2.783	-2.457	-2.904	-2.602	-1.721	3.906
0.887	1.136	1.870	1.740	2.255	0.865	1.971	2.660	1.839	2.469	2.394	-0.020	-0.830	-1.579	0.574	0.920	-0.521	1.287	-1.291	-0.231	-1.711	-2.436	-2.516	-2.620	-2.289	-2.649	-2.313	-1.485	7.812
0.894	1.040	1.817	1.740	2.281	0.794	2.134	2.708	1.830	2.625	2.487	0.153	-0.468	-1.347	0.584	0.938	-0.464	1.091	-1.508	-0.251	-1.644	-2.727	-2.882	-2.431	-2.116	-2.383	-2.009	-1.230	11.719
0.877	0.906	1.762	1.704	2.318	0.753	2.312	2.715	1.823	2.812	2.584	0.348	-0.074	-1.084	0.572	0.869	-0.445	0.908	-1.715	-0.308	-1.559	-2.968	-3.180	-2.232	-1.967	-2.133	-1.711	-0.966	15.625
0.845	0.771	1.724	1.647	2.374	0.763	2.477	2.657	1.799	2.987	2.669	0.551	0.310	-0.824	0.542	0.703	-0.461	0.761	-1.895	-0.407	-1.471	-3.136	-3.379	-2.033	-1.855	-1.914	-1.437	-0.705	19.531
0.808	0.671	1.715	1.588	2.454	0.837	2.597	2.521	1.739	3.113	2.727	0.745	0.644	-0.599	0.498	0.441	-0.511	0.671	-2.037	-0.552	-1.398	-3.214	-3.453	-1.845	-1.785	-1.740	-1.205	-0.456	23.438
0.773	0.637	1.742	1.547	2.560	0.975	2.649	2.301	1.626	3.158	2.748	0.919	0.890	-0.438	0.447	0.092	-0.592	0.659	-2.138	-0.745	-1.357	-3.200	-3.391	-1.677	-1.751	-1.616	-1.029	-0.233	27.344
0.746	0.687	1.803	1.535	2.685	1.166	2.619	2.008	1.455	3.108	2.731	1.062	1.028	-0.359	0.393	-0.324	-0.697	0.731	-2.198	-0.980	-1.355	-3.104	-3.197	-1.535	-1.744	-1.544	-0.922	-0.047	31.250
0.730	0.826	1.893	1.560	2.820	1.384	2.507	1.660	1.228	2.968	2.677	1.158	1.050	-0.363	0.344	-0.779	-0.817	0.885	-2.222	-1.242	-1.390	-2.946	-2.892	-1.429	-1.753	-1.524	-0.892	0.082	35.156
0.730	1.044	2.001	1.621	2.950	1.597	2.330	1.286	0.956	2.758	2.589	1.187	0.970	-0.434	0.309	-1.234	-0.930	1.112	-2.217	-1.509	-1.447	-2.751	-2.518	-1.364	-1.771	-1.558	-0.948	0.125	39.062
0.752	1.324	2.121	1.709	3.061	1.772	2.112	0.914	0.653	2.502	2.456	1.117	0.813	-0.546	0.301	-1.647	-1.009	1.394	-2.184	-1.751	-1.503	-2.543	-2.121	-1.345	-1.797	-1.647	-1.093	0.046	42.969
0.801	1.639	2.250	1.815	3.140	1.882	1.881	0.572	0.338	2.224	2.255	0.904	0.614	-0.665	0.333	-1.980	-1.021	1.715	-2.123	-1.936	-1.531	-2.339	-1.752	-1.369	-1.833	-1.790	-1.328	-0.198	46.875
0.887	1.966	2.398	1.928	3.181	1.916	1.663	0.280	0.025	1.935	1.945	0.497	0.408	-0.756	0.418	-2.197	-0.940	2.059	-2.030	-2.038	-1.505	-2.144	-1.451	-1.427	-1.887	-1.986	-1.641	-0.646	50.781
1.014	2.283	2.578	2.036	3.179	1.880	1.476	0.052	-0.270	1.633	1.476	-0.151	0.224	-0.797	0.562	-2.281	-0.746	2.413	-1.897	-2.040	-1.414	-1.956	-1.240	-1.504	-1.964	-2.223	-2.013	-1.323	54.688
1.186	2.577	2.806	2.131	3.138	1.793	1.322	-0.104	-0.535	1.300	0.801	-1.074	0.076	-0.779	0.763	-2.228	-0.437	2.768	-1.718	-1.941	-1.259	-1.760	-1.118	-1.578	-2.063	-2.479	-2.412	-2.229	58.594
1.398	2.840	3.092	2.203	3.059	1.681	1.191	-0.191	-0.756	0.910	-0.105	-2.272	-0.039	-0.716	1.013	-2.054	-0.025	3.115	-1.488	-1.757	-1.061	-1.541	-1.067	-1.629	-2.175	-2.719	-2.794	-3.330	62.500
1.638	3.068	3.434	2.238	2.942	1.568	1.057	-0.216	-0.922	0.429	-1.232	-3.706	-0.146	-0.641	1.290	-1.790	0.468	3.446	-1.207	-1.520	-0.858	-1.285	-1.048	-1.634	-2.280	-2.892	-3.107	-4.554	66.406
1.885	3.256	3.815	2.222	2.779	1.471	0.885	-0.190	-1.017	-0.168	-2.526	-5.292	-0.287	-0.605	1.573	-1.476	1.014	3.749	-0.879	-1.272	-0.701	-0.987	-1.018	-1.582	-2.347	-2.939	-3.299	-5.796	70.312
2.112	3.400	4.203	2.137	2.557	1.389	0.637	-0.126	-1.027	-0.897	-3.891	-6.905	-0.510	-0.667	1.834	-1.159	1.590	4.011	-0.516	-1.063	-0.644	-0.651	-0.937	-1.468	-2.339	-2.802	-3.329	-6.931	74.219
2.290	3.488	4.555	1.969	2.261	1.312	0.278	-0.033	-0.938	-1.753	-5.196	-8.393	-0.863	-0.886	2.047	-0.884	2.175	4.218	-0.133	-0.938	-0.739	-0.295	-0.777	-1.301	-2.220	-2.435	-3.175	-7.833	78.125
2.391	3.511	4.829	1.710	1.878	1.215	-0.210	0.088	-0.739	-2.709	-6.296	-9.595	-1.375	-1.299	2.193	-0.686	2.750	4.358	0.246	-0.932	-1.018	0.055	-0.531	-1.101	-1.965	-1.816	-2.842	-8.395	82.031
2.392	3.455	4.982	1.364	1.406	1.076	-0.823	0.242	-0.425	-3.715	-7.056	-10.363	-2.048	-1.918	2.256	-0.588	3.296	4.415	0.594	-1.063	-1.492	0.362	-0.217	-0.893	-1.567	-0.958	-2.362	-8.546	85.938
2.280	3.309	4.987	0.944	0.858	0.874	-1.530	0.440	0.004	-4.695	-7.369	-10.583	-2.849	-2.720	2.224	-0.600	3.785	4.376	0.879	-1.327	-2.143	0.591	0.128	-0.708	-1.042	0.098	-1.786	-8.256	89.844
2.051	3.060	4.828	0.475	0.263	0.601	-2.272	0.698	0.539	-5.565	-7.179	-10.194	-3.711	-3.645	2.092	-0.716	4.179	4.226	1.066	-1.701	-2.924	0.706	0.449	-0.569	-0.424	1.284	-1.172	-7.542	93.750
1.714	2.702	4.508	-0.015	-0.336	0.268	-2.970	1.027	1.159	-6.235	-6.495	-9.200	-4.546	-4.608	1.858	-0.917	4.435	3.955	1.126	-2.145	-3.768	0.682	0.686	-0.494	0.238	2.518	-0.570	-6.460	97.656
1.287	2.237	4.052	-0.494	-0.888	-0.101	-3.541	1.429	1.831	-6.632	-5.387	-7.672	-5.257	-5.511	1.531	-1.175	4.504	3.558	1.038	-2.604	-4.594	0.505	0.781	-0.486	0.890	3.722	-0.014	-5.097	101.562
0.801	1.680	3.498	-0.930	-1.344	-0.467	-3.914	1.890	2.511	-6.714	-3.986	-5.746	-5.760	-6.260	1.122	-1.454	4.351	3.041	0.796	-3.024	-5.324	0.174	0.694	-0.534	1.485	4.830	0.489	-3.556	105.469
0.295	1.062	2.897	-1.295	-1.663	-0.784	-4.038	2.384	3.150	-6.469	-2.455	-3.598	-5.998	-6.783	0.657	-1.719	3.958	2.424	0.408	-3.359	-5.891	-0.293	0.406	-0.618	1.986	5.798	0.955	-1.944	109.375
-0.189	0.428	2.300	-1.564	-1.818	-1.012	-3.898	2.871	3.698	-5.925	-0.964	-1.424	-5.947	-7.039	0.164	-1.942	3.338	1.737	-0.097	-3.575	-6.256	-0.863	-0.070	-0.707	2.377	6.611	1.418	-0.356	113.281
-0.614	-0.175	1.748	-1.723	-1.802	-1.118	-3.504	3.309	4.117	-5.128	0.339	0.593	-5.624	-7.024	-0.322	-2.108	2.530	1.018	-0.683	-3.666	-6.406	-1.491	-0.690	-0.768	2.656	7.276	1.925	1.130	117.188
-0.954	-0.701	1.265	-1.769	-1.629	-1.091	-2.897	3.661	4.391	-4.140	1.359	2.312	-5.074	-6.769	-0.771	-2.217	1.595	0.306	-1.307	-3.647	-6.361	-2.126	-1.385	-0.768	2.837	7.820	2.523	2.467	121.094
-1.197	-1.117	0.851	-1.713	-1.329	-0.939	-2.128	3.905	4.527	-3.020	2.062	3.653	-4.366	-6.328	-1.160	-2.287	0.600	-0.373	-1.929	-3.554	-6.166	-2.717	-2.076	-0.683	2.945	8.285	3.252	3.638	125.000
-1.349	-1.412	0.492	-1.581	-0.947	-0.694	-1.258	4.033	4.562	-1.816	2.481	4.607	-3.578	-5.774	-1.482	-2.346	-0.389	-1.005	-2.520	-3.435	-5.879	-3.228	-2.687	-0.500	3.011	8.718	4.134	4.653	128.906
-1.432	-1.598	0.160	-1.409	-0.536	-0.403	-0.344	4.058	4.554	-0.563	2.703	5.228	-2.789	-5.181	-1.742	-2.431	-1.323	-1.592	-3.062	-3.338	-5.566	-3.638	-3.166	-0.223	3.066	9.160	5.174	5.545	132.812
-1.476	-1.710	-0.173	-1.243	-0.151	-0.122	0.563	4.009	4.573	0.716	2.846	5.613	-2.068	-4.620	-1.958	-2.574	-2.169	-2.147	-3.552	-3.304	-5.286	-3.946	-3.490	0.130	3.139	9.647	6.348	6.356	136.719
-1.519	-1.800	-0.527	-1.129	0.156	0.094	1.424	3.922	4.689	2.007	3.034	5.883	-1.473	-4.150	-2.154	-2.797	-2.915	-2.688	-3.992	-3.359	-5.084	-4.168	-3.666	0.529	3.248	10.197	7.614	7.128	140.625
-1.593	-1.926	-0.913	-1.110	0.339	0.200	2.206	3.838	4.960	3.301	3.374	6.152	-1.043	-3.813	-2.354	-3.114	-3.560	-3.225	-4.392	-3.513	-4.991	-4.331	-3.725	0.934	3.403	10.814	8.910	7.892	144.531
-1.726	-2.141	-1.326	-1.216	0.371	0.170	2.886	3.792	5.418	4.586	3.937	6.509	-0.798	-3.635	-2.577	-3.522	-4.115	-3.755	-4.759	-3.762	-5.020	-4.462	-3.708	1.309	3.601	11.483	10.169	8.663	148.438
-1.934	-2.483	-1.757	-1.466	0.239	-0.001	3.450	3.813	6.069	5.847	4.746	7.001	-0.741	-3.621	-2.834	-4.013	-4.599	-4.262	-5.099	-4.091	-5.167	-4.586	-3.654	1.622	3.828	12.175	11.324	9.439	152.344
-2.219	-2.966	-2.187	-1.856	-0.048	-0.299	3.891	3.915	6.885	7.064	5.780	7.633	-0.858	-3.762	-3.123	-4.572	-5.027	-4.713	-5.412	-4.481	-5.413	-4.715	-3.593	1.852	4.061	12.853	12.319	10.201	156.250
-2.573	-3.576	-2.595	-2.365	-0.462	-0.688	4.213	4.099	7.814	8.211	6.973	8.368	-1.117	-4.032	-3.433	-5.184	-5.413	-5.068	-5.695	-4.914	-5.731	-4.850	-3.538	1.992	4.275	13.476	13.115	10.920	160.156
-2.973	-4.273	-2.960	-2.957	-0.958	-1.122	4.427	4.355	8.786	9.257	8.233	9.141	-1.477	-4.394	-3.744	-5.833	-5.760	-5.287	-5.943	-5.374	-6.090	-4.982	-3.491	2.048	4.445	14.006	13.694	11.559	164.062
-3.388	-4.996	-3.261	-3.583	-1.480	-1.549	4.551	4.660	9.726	10.167	9.453	9.868	-1.889	-4.804	-4.032	-6.503	-6.062	-5.344	-6.147	-5.846	-6.453	-5.094	-3.447	2.036	4.555	14.413	14.054	12.080	167.969
-3.784	-5.674	-3.487	-4.188	-1.970	-1.918	4.612	4.989	10.563	10.909	10.528	10.469	-2.303	-5.214	-4.270	-7.176	-6.301	-5.225	-6.301	-6.313	-6.789	-5.170	-3.403	1.975	4.593	14.674	14.205	12.450	171.875
-4.127	-6.240	-3.627	-4.719	-2.377	-2.189	4.633	5.311	11.241	11.451	11.368	10.871	-2.672	-5.579	-4.436	-7.828	-6.451	-4.940	-6.397	-6.754	-7.067	-5.196	-3.356	1.884	4.557	14.780	14.166	12.637	175.781
-4.386	-6.639	-3.682	-5.126	-2.661	-2.339	4.637	5.600	11.725	11.768	11.906	11.021	-2.956	-5.858	-4.510	-8.429	-6.486	-4.515	-6.426	-7.144	-7.261	-5.161	-3.311	1.777	4.452	14.728	13.956	12.617	179.688
-4.540	-6.836	-3.654	-5.373	-2.800	-2.364	4.639	5.831	11.997	11.844	12.105	10.886	-3.129	-6.021	-4.482	-8.946	-6.382	-3.989	-6.380	-7.456	-7.351	-5.065	-3.276	1.662	4.284	14.525	13.594	12.377	183.594
-4.581	-6.820	-3.552	-5.438	-2.789	-2.275	4.644	5.985	12.059	11.672	11.960	10.458	-3.177	-6.048	-4.353	-9.345	-6.128	-3.412	-6.253	-7.660	-7.323	-4.909	-3.255	1.543	4.062	14.185	13.094	11.914	187.500
-4.507	-6.605	-3.387	-5.318	-2.638	-2.099	4.649	6.049	11.926	11.264	11.495	9.752	-3.099	-5.931	-4.133	-9.598	-5.729	-2.832	-6.045	-7.737	-7.171	-4.699	-3.251	1.425	3.793	13.727	12.476	11.243	191.406
-4.334	-6.226	-3.173	-5.029	-2.369	-1.865	4.649	6.022	11.628	10.646	10.760	8.804	-2.902	-5.677	-3.843	-9.691	-5.214	-2.296	-5.762	-7.677	-6.901	-4.438	-3.255	1.315	3.486	13.176	11.761	10.393	195.312
-4.085	-5.733	-2.925	-4.608	-2.011	-1.604	4.635	5.911	11.201	9.861	9.821	7.670	-2.603	-5.303	-3.516	-9.629	-4.631	-1.844	-5.419	-7.491	-6.528	-4.132	-3.253	1.225	3.152	12.566	10.982	9.413	199.219
-3.791	-5.190	-2.657	-4.103	-1.597	-1.339	4.604	5.732	10.685	8.966	8.756	6.420	-2.220	-4.834	-3.188	-9.438	-4.038	-1.508	-5.038	-7.204	-6.081	-3.786	-3.228	1.174	2.803	11.937	10.180	8.360	203.125
-3.487	-4.656	-2.384	-3.572	-1.160	-1.084	4.553	5.507	10.124	8.025	7.640	5.130	-1.775	-4.304	-2.895	-9.159	-3.499	-1.306	-4.645	-6.855	-5.593	-3.404	-3.162	1.180	2.454	11.329	9.402	7.297	207.031
-3.204	-4.185	-2.121	-3.066	-0.729	-0.845	4.489	5.263	9.556	7.101	6.542	3.875	-1.292	-3.746	-2.666	-8.840	-3.061	-1.244	-4.268	-6.493	-5.103	-2.996	-3.041	1.260	2.124	10.786	8.701	6.285	210.938
-2.965	-3.812	-1.882	-2.631	-0.331	-0.620	4.417	5.024	9.018	6.253	5.515	2.724	-0.792	-3.194	-2.519	-8.533	-2.753	-1.313	-3.933	-6.166	-4.650	-2.576	-2.862	1.422	1.832	10.349	8.125	5.374	214.844
-2.787	-3.556	-1.683	-2.295	0.015	-0.410	4.349	4.814	8.541	5.530	4.599	1.730	-0.296	-2.678	-2.457	-8.280	-2.579	-1.489	-3.661	-5.916	-4.267	-2.161	-2.637	1.667	1.605	10.052	7.716	4.603	218.750
-2.676	-3.416	-1.540	-2.070	0.297	-0.216	4.300	4.655	8.153	4.968	3.825	0.930	0.180	-2.219	-2.470	-8.114	-2.525	-1.745	-3.468	-5.775	-3.980	-1.778	-2.390	1.983	1.467	9.924	7.502	4.001	222.656
-2.636	-3.383	-1.474	-1.955	0.508	-0.044	4.288	4.564	7.880	4.595	3.215	0.347	0.626	-1.831	-2.545	-8.052	-2.568	-2.048	-3.369	-5.762	-3.804	-1.452	-2.156	2.353	1.444	9.985	7.498	3.586	226.562
-2.665	-3.443	-1.501	-1.944	0.646	0.091	4.335	4.559	7.746	4.428	2.786	-0.012	1.035	-1.518	-2.666	-8.098	-2.687	-2.371	-3.375	-5.881	-3.745	-1.211	-1.976	2.752	1.555	10.242	7.703	3.370	230.469
-2.764	-3.586	-1.637	-2.025	0.718	0.170	4.462	4.650	7.775	4.474	2.553	-0.153	1.405	-1.275	-2.822	-8.246	-2.872	-2.691	-3.493	-6.120	-3.793	-1.080	-1.884	3.157	1.811	10.689	8.102	3.358	234.375
-2.931	-3.807	-1.893	-2.189	0.734	0.176	4.687	4.844	7.982	4.731	2.524	-0.096	1.738	-1.092	-3.005	-8.476	-3.123	-2.992	-3.724	-6.455	-3.930	-1.074	-1.904	3.543	2.209	11.309	8.666	3.541	238.281
-3.166	-4.107	-2.268	-2.425	0.708	0.098	5.015	5.138	8.375	5.185	2.696	0.126	2.032	-0.959	-3.214	-8.764	-3.446	-3.266	-4.061	-6.853	-4.131	-1.193	-2.045	3.892	2.733	12.068	9.357	3.904	242.188
-3.464	-4.485	-2.753	-2.726	0.657	-0.062	5.440	5.518	8.943	5.810	3.053	0.472	2.287	-0.862	-3.448	-9.078	-3.849	-3.514	-4.485	-7.271	-4.364	-1.423	-2.297	4.193	3.355	12.923	10.132	4.414	246.094
-3.813	-4.937	-3.331	-3.082	0.599	-0.292	5.942	5.963	9.658	6.571	3.565	0.894	2.500	-0.789	-3.702	-9.388	-4.326	-3.740	-4.965	-7.669	-4.596	-1.732	-2.635	4.445	4.037	13.825	10.947	5.031	250.000
-4.199	-5.449	-3.978	-3.482	0.548	-0.566	6.489	6.441	10.474	7.419	4.186	1.345	2.670	-0.730	-3.972	-9.664	-4.857	-3.961	-5.458	-8.008	-4.797	-2.077	-3.023	4.658	4.740	14.728	11.765	5.708	253.906
-4.598	-5.999	-4.665	-3.908	0.516	-0.850	7.045	6.919	11.330	8.301	4.865	1.781	2.794	-0.675	-4.244	-9.880	-5.403	-4.194	-5.920	-8.256	-4.940	-2.404	-3.418	4.850	5.424	15.590	12.557	6.398	257.812
-4.986	-6.555	-5.367	-4.340	0.508	-1.113	7.570	7.363	12.162	9.162	5.546	2.171	2.875	-0.619	-4.505	-10.018	-5.909	-4.461	-6.303	-8.391	-5.008	-2.662	-3.778	5.044	6.059	16.383	13.307	7.060	261.719
-5.338	-7.085	-6.060	-4.752	0.524	-1.325	8.032	7.745	12.914	9.952	6.179	2.494	2.917	-0.556	-4.735	-10.065	-6.314	-4.782	-6.570	-8.403	-4.990	-2.808	-4.062	5.260	6.621	17.091	14.007	7.665	265.625
-5.635	-7.559	-6.724	-5.117	0.561	-1.471	8.409	8.043	13.539	10.631	6.729	2.744	2.930	-0.486	-4.918	-10.022	-6.567	-5.163	-6.695	-8.293	-4.888	-2.819	-4.243	5.511	7.098	17.712	14.655	8.197	269.531
-5.865	-7.960	-7.345	-5.411	0.609	-1.546	8.692	8.244	14.010	11.170	7.174	2.929	2.926	-0.407	-5.041	-9.897	-6.633	-5.598	-6.670	-8.076	-4.711	-2.690	-4.303	5.799	7.488	18.250	15.253	8.654	273.438
-6.025	-8.280	-7.912	-5.619	0.659	-1.558	8.883	8.344	14.318	11.561	7.511	3.064	2.920	-0.321	-5.100	-9.709	-6.506	-6.065	-6.509	-7.774	-4.477	-2.440	-4.243	6.116	7.796	18.717	15.802	9.043	277.344
-6.124	-8.526	-8.418	-5.737	0.701	-1.528	8.994	8.346	14.471	11.808	7.752	3.175	2.928	-0.230	-5.096	-9.482	-6.213	-6.528	-6.237	-7.419	-4.207	-2.105	-4.074	6.446	8.033	19.122	16.304	9.375	281.250
-6.175	-8.716	-8.858	-5.775	0.726	-1.485	9.043	8.263	14.488	11.934	7.918	3.286	2.967	-0.130	-5.040	-9.243	-5.807	-6.943	-5.893	-7.041	-3.921	-1.726	-3.819	6.770	8.211	19.471	16.757	9.664	285.156
-6.196	-8.871	-9.231	-5.753	0.728	-1.459	9.049	8.111	14.396	11.967	8.036	3.419	3.050	-0.021	-4.947	-9.020	-5.359	-7.267	-5.517	-6.671	-3.637	-1.346	-3.505	7.071	8.345	19.765	17.160	9.921	289.062
-6.206	-9.016	-9.543	-5.702	0.703	-1.476	9.029	7.910	14.224	11.939	8.135	3.594	3.185	0.104	-4.835	-8.832	-4.943	-7.468	-5.146	-6.329	-3.362	-0.995	-3.162	7.338	8.443	19.996	17.510	10.155	292.969
-6.221	-9.167	-9.800	-5.651	0.654	-1.553	8.994	7.675	13.998	11.878	8.235	3.822	3.373	0.251	-4.723	-8.690	-4.621	-7.531	-4.807	-6.026	-3.098	-0.691	-2.815	7.567	8.513	20.155	17.803	10.370	296.875
-6.250	-9.330	-10.014	-5.626	0.581	-1.695	8.950	7.419	13.737	11.804	8.353	4.103	3.608	0.424	-4.624	-8.595	-4.432	-7.460	-4.514	-5.762	-2.839	-0.433	-2.487	7.763	8.559	20.232	18.033	10.566	300.781
-6.294	-9.501	-10.196	-5.641	0.491	-1.895	8.895	7.151	13.454	11.725	8.489	4.429	3.878	0.624	-4.545	-8.539	-4.388	-7.274	-4.268	-5.526	-2.576	-0.209	-2.193	7.933	8.579	20.220	18.195	10.740	304.688
-6.349	-9.665	-10.356	-5.695	0.389	-2.134	8.825	6.874	13.153	11.638	8.633	4.776	4.164	0.848	-4.486	-8.509	-4.472	-7.003	-4.055	-5.307	-2.301	0.001	-1.939	8.088	8.572	20.116	18.282	10.881	308.594
-6.407	-9.806	-10.500	-5.778	0.282	-2.388	8.733	6.592	12.835	11.531	8.761	5.113	4.443	1.090	-4.442	-8.490	-4.643	-6.678	-3.853	-5.091	-2.007	0.222	-1.721	8.236	8.533	19.919	18.286	10.974	312.500
-6.459	-9.904	-10.631	-5.871	0.175	-2.628	8.610	6.307	12.501	11.385	8.839	5.398	4.696	1.337	-4.402	-8.471	-4.844	-6.326	-3.637	-4.871	-1.693	0.473	-1.525	8.380	8.458	19.637	18.200	10.999	316.406
-6.494	-9.951	-10.746	-5.954	0.076	-2.830	8.451	6.025	12.149	11.186	8.834	5.588	4.900	1.578	-4.352	-8.442	-5.014	-5.969	-3.382	-4.643	-1.363	0.769	-1.331	8.521	8.343	19.280	18.024	10.939	320.312
-6.506	-9.946	-10.841	-6.010	-0.009	-2.975	8.254	5.752	11.783	10.927	8.719	5.651	5.040	1.798	-4.281	-8.400	-5.097	-5.617	-3.072	-4.413	-1.026	1.116	-1.117	8.657	8.191	18.864	17.763	10.782	324.219
-6.492	-9.894	-10.913	-6.030	-0.078	-3.053	8.022	5.498	11.409	10.615	8.487	5.572	5.105	1.983	-4.176	-8.342	-5.048	-5.278	-2.700	-4.187	-0.698	1.507	-0.867	8.782	8.009	18.413	17.433	10.535	328.125
-6.453	-9.808	-10.962	-6.008	-0.128	-3.069	7.770	5.270	11.042	10.279	8.161	5.364	5.090	2.122	-4.033	-8.272	-4.848	-4.957	-2.276	-3.975	-0.397	1.924	-0.579	8.893	7.809	17.956	17.062	10.227	332.031
-6.392	-9.702	-10.995	-5.947	-0.159	-3.037	7.521	5.081	10.706	9.966	7.795	5.071	4.996	2.204	-3.856	-8.195	-4.508	-4.659	-1.824	-3.786	-0.141	2.342	-0.265	8.983	7.608	17.526	16.688	9.910	335.938
-6.319	-9.589	-11.023	-5.852	-0.172	-2.983	7.306	4.940	10.431	9.739	7.472	4.766	4.832	2.224	-3.658	-8.124	-4.072	-4.398	-1.378	-3.629	0.051	2.727	0.043	9.047	7.425	17.157	16.355	9.655	339.844
-6.243	-9.479	-11.062	-5.731	-0.170	-2.931	7.159	4.859	10.250	9.668	7.290	4.542	4.609	2.177	-3.461	-8.071	-3.611	-4.193	-0.984	-3.515	0.164	3.044	0.305	9.078	7.276	16.875	16.102	9.537	343.750
-6.179	-9.376	-11.130	-5.594	-0.159	-2.905	7.109	4.846	10.196	9.809	7.343	4.491	4.346	2.066	-3.294	-8.052	-3.208	-4.066	-0.681	-3.447	0.192	3.266	0.482	9.069	7.166	16.694	15.955	9.616	347.656
-6.135	-9.276	-11.236	-5.446	-0.141	-2.914	7.176	4.906	10.286	10.192	7.693	4.682	4.062	1.899	-3.184	-8.078	-2.935	-4.040	-0.501	-3.430	0.136	3.376	0.544	9.013	7.092	16.608	15.921	9.920	351.562
-6.112	-9.165	-11.378	-5.290	-0.119	-2.955	7.357	5.033	10.518	10.803	8.350	5.138	3.781	1.691	-3.146	-8.149	-2.837	-4.131	-0.452	-3.456	0.014	3.372	0.480	8.905	7.038	16.590	15.981	10.429	355.469
-6.098	-9.022	-11.536	-5.125	-0.092	-3.008	7.628	5.208	10.858	11.578	9.255	5.821	3.523	1.464	-3.177	-8.248	-2.909	-4.338	-0.521	-3.510	-0.150	3.271	0.299	8.741	6.982	16.597	16.093	11.072	359.375
-6.071	-8.818	-11.674	-4.939	-0.054	-3.046	7.940	5.399	11.245	12.399	10.280	6.623	3.305	1.242	-3.257	-8.341	-3.098	-4.642	-0.668	-3.567	-0.321	3.102	0.028	8.524	6.901	16.573	16.200	11.726	363.281
-5.997	-8.526	-11.739	-4.719	0.003	-3.037	8.227	5.562	11.589	13.113	11.237	7.384	3.136	1.051	-3.342	-8.377	-3.309	-5.001	-0.838	-3.592	-0.463	2.906	-0.290	8.260	6.777	16.465	16.237	12.243	367.188
-5.843	-8.122	-11.681	-4.449	0.088	-2.954	8.417	5.647	11.794	13.555	11.916	7.916	3.016	0.910	-3.382	-8.295	-3.426	-5.359	-0.967	-3.545	-0.544	2.726	-0.605	7.960	6.603	16.231	16.151	12.472	371.094
-5.581	-7.599	-11.455	-4.121	0.210	-2.784	8.442	5.607	11.772	13.578	12.126	8.045	2.934	0.828	-3.326	-8.043	-3.342	-5.650	-0.996	-3.393	-0.543	2.602	-0.869	7.645	6.387	15.856	15.907	12.302	375.000
-5.201	-6.967	-11.042	-3.734	0.370	-2.530	8.257	5.414	11.468	13.093	11.738	7.660	2.869	0.802	-3.139	-7.586	-2.986	-5.818	-0.888	-3.114	-0.454	2.563	-1.038	7.335	6.148	15.352	15.501	11.681	378.906
-4.715	-6.261	-10.456	-3.303	0.561	-2.210	7.851	5.059	10.873	12.093	10.728	6.742	2.799	0.817	-2.814	-6.922	-2.348	-5.823	-0.632	-2.709	-0.288	2.621	-1.084	7.051	5.912	14.759	14.955	10.643	382.812
-4.156	-5.527	-9.742	-2.849	0.769	-1.855	7.253	4.564	10.030	10.661	9.180	5.379	2.706	0.851	-2.369	-6.084	-1.477	-5.657	-0.251	-2.199	-0.069	2.774	-0.996	6.809	5.703	14.134	14.313	9.294	386.719
-3.572	-4.821	-8.968	-2.396	0.980	-1.504	6.527	3.974	9.027	8.958	7.283	3.751	2.579	0.884	-1.849	-5.132	-0.475	-5.341	0.211	-1.619	0.174	2.999	-0.784	6.611	5.535	13.531	13.624	7.795	390.625
-3.013	-4.189	-8.213	-1.962	1.183	-1.185	5.762	3.348	7.975	7.192	5.282	2.084	2.424	0.900	-1.309	-4.139	0.531	-4.919	0.691	-1.014	0.414	3.266	-0.479	6.447	5.404	12.981	12.922	6.313	394.531
-2.520	-3.656	-7.544	-1.556	1.375	-0.918	5.050	2.745	6.983	5.568	3.429	0.601	2.253	0.897	-0.804	-3.175	1.417	-4.450	1.129	-0.424	0.638	3.538	-0.123	6.291	5.286	12.485	12.219	4.987	398.438
-2.111	-3.219	-7.004	-1.172	1.566	-0.704	4.468	2.216	6.133	4.251	1.921	-0.537	2.090	0.886	-0.374	-2.287	2.096	-3.992	1.479	0.126	0.846	3.783	0.234	6.109	5.138	12.004	11.497	3.888	402.344
-1.786	-2.852	-6.601	-0.791	1.771	-0.527	4.062	1.791	5.467	3.324	0.867	-1.260	1.956	0.887	-0.034	-1.492	2.532	-3.588	1.716	0.630	1.052	3.978	0.545	5.864	4.916	11.476	10.716	3.011	406.250
-1.520	-2.510	-6.312	-0.393	2.011	-0.361	3.836	1.477	4.977	2.783	0.268	-1.602	1.869	0.925	0.223	-0.781	2.743	-3.259	1.839	1.098	1.278	4.110	0.772	5.527	4.579	10.831	9.829	2.288	410.156
-1.281	-2.148	-6.095	0.041	2.299	-0.177	3.760	1.263	4.619	2.549	0.031	-1.682	1.833	1.020	0.425	-0.121	2.794	-3.001	1.869	1.550	1.547	4.178	0.892	5.083	4.107	10.017	8.805	1.616	414.062
-1.037	-1.733	-5.902	0.514	2.639	0.045	3.772	1.125	4.330	2.492	0.005	-1.664	1.840	1.178	0.606	0.521	2.772	-2.795	1.840	2.005	1.872	4.191	0.897	4.540	3.505	9.018	7.641	0.895	417.969
-0.768	-1.257	-5.696	1.018	3.021	0.310	3.806	1.035	4.049	2.473	0.026	-1.713	1.872	1.395	0.798	1.175	2.765	-2.609	1.791	2.474	2.250	4.160	0.802	3.920	2.804	7.861	6.370	0.063	421.875
-0.472	-0.738	-5.457	1.523	3.419	0.608	3.800	0.966	3.737	2.381	-0.038	-1.948	1.903	1.648	1.019	1.845	2.838	-2.419	1.755	2.953	2.664	4.101	0.634	3.262	2.051	6.611	5.057	-0.888	425.781
-0.162	-0.219	-5.190	1.990	3.796	0.913	3.719	0.901	3.385	2.158	-0.257	-2.421	1.906	1.906	1.271	2.516	3.024	-2.211	1.753	3.426	3.083	4.023	0.432	2.610	1.304	5.358	3.787	-1.909	429.688
0.131	0.242	-4.915	2.375	4.116	1.193	3.557	0.832	3.020	1.806	-0.626	-3.103	1.859	2.134	1.539	3.147	3.319	-1.984	1.789	3.859	3.467	3.932	0.234	2.005	0.614	4.196	2.642	-2.908	433.594
0.374	0.588	-4.667	2.637	4.345	1.418	3.339	0.763	2.688	1.388	-1.073	-3.894	1.753	2.299	1.795	3.680	3.682	-1.753	1.849	4.214	3.777	3.824	0.069	1.479	0.023	3.208	1.692	-3.774	437.500
0.530	0.771	-4.481	2.750	4.465	1.566	3.118	0.704	2.448	1.001	-1.482	-4.652	1.594	2.381	2.001	4.053	4.050	-1.541	1.906	4.448	3.980	3.692	-0.050	1.051	-0.444	2.452	0.981	-4.402	441.406
0.572	0.761	-4.387	2.703	4.473	1.629	2.951	0.672	2.353	0.755	-1.727	-5.225	1.400	2.372	2.123	4.210	4.345	-1.374	1.923	4.524	4.055	3.524	-0.128	0.727	-0.776	1.963	0.524	-4.713	445.312
0.482	0.552	-4.401	2.505	4.385	1.612	2.896	0.681	2.434	0.739	-1.706	-5.484	1.200	2.279	2.130	4.110	4.488	-1.277	1.867	4.417	3.993	3.309	-0.184	0.506	-0.972	1.747	0.317	-4.664	449.219
0.259	0.160	-4.528	2.175	4.226	1.528	2.987	0.739	2.694	1.005	-1.359	-5.350	1.028	2.124	2.004	3.737	4.419	-1.263	1.712	4.114	3.804	3.044	-0.245	0.381	-1.040	1.790	0.339	-4.257	453.125
-0.086	-0.379	-4.758	1.744	4.027	1.392	3.230	0.843	3.105	1.551	-0.688	-4.807	0.913	1.933	1.741	3.102	4.105	-1.339	1.448	3.621	3.509	2.733	-0.338	0.346	-0.990	2.064	0.564	-3.532	457.031
-0.528	-1.016	-5.076	1.249	3.816	1.220	3.602	0.985	3.616	2.323	0.254	-3.903	0.875	1.736	1.355	2.241	3.548	-1.496	1.084	2.960	3.137	2.393	-0.479	0.393	-0.836	2.529	0.961	-2.555	460.938
-1.037	-1.696	-5.458	0.722	3.612	1.023	4.052	1.146	4.161	3.230	1.369	-2.736	0.922	1.556	0.874	1.210	2.792	-1.716	0.648	2.166	2.724	2.046	-0.669	0.517	-0.594	3.140	1.498	-1.412	464.844
-1.575	-2.365	-5.881	0.197	3.428	0.813	4.517	1.310	4.676	4.162	2.541	-1.433	1.046	1.410	0.338	0.074	1.913	-1.978	0.179	1.285	2.300	1.720	-0.896	0.708	-0.283	3.847	2.145	-0.193	468.750
-2.108	-2.977	-6.319	-0.301	3.263	0.601	4.936	1.460	5.110	5.014	3.652	-0.124	1.230	1.301	-0.209	-1.099	1.006	-2.256	-0.280	0.364	1.893	1.439	-1.134	0.954	0.073	4.599	2.864	1.017	472.656
-2.605	-3.498	-6.742	-0.753	3.113	0.399	5.259	1.590	5.432	5.702	4.607	1.074	1.449	1.227	-0.728	-2.250	0.166	-2.530	-0.691	-0.554	1.518	1.221	-1.355	1.240	0.451	5.353	3.616	2.144	476.562
-3.042	-3.910	-7.124	-1.147	2.970	0.222	5.460	1.704	5.637	6.179	5.343	2.078	1.675	1.176	-1.188	-3.336	-0.533	-2.787	-1.029	-1.432	1.183	1.071	-1.535	1.548	0.825	6.068	4.362	3.132	480.469
-3.407	-4.209	-7.435	-1.476	2.825	0.085	5.536	1.811	5.743	6.438	5.836	2.842	1.888	1.136	-1.576	-4.330	-1.045	-3.020	-1.287	-2.245	0.886	0.984	-1.658	1.856	1.177	6.718	5.062	3.948	484.375
-3.694	-4.406	-7.654	-1.739	2.672	-0.003	5.508	1.927	5.782	6.505	6.101	3.358	2.074	1.097	-1.888	-5.221	-1.365	-3.232	-1.473	-2.980	0.621	0.946	-1.718	2.148	1.493	7.286	5.686	4.577	488.281
-3.908	-4.518	-7.768	-1.943	2.509	-0.038	5.409	2.063	5.791	6.429	6.175	3.647	2.227	1.050	-2.134	-6.010	-1.516	-3.424	-1.604	-3.631	0.379	0.941	-1.721	2.411	1.764	7.765	6.212	5.024	492.188
-4.057	-4.567	-7.773	-2.096	2.339	-0.022	5.276	2.224	5.801	6.273	6.114	3.747	2.346	0.994	-2.328	-6.704	-1.542	-3.600	-1.700	-4.199	0.152	0.954	-1.676	2.639	1.992	8.157	6.632	5.306	496.094
-4.152	-4.574	-7.676	-2.207	2.168	0.035	5.142	2.406	5.831	6.090	5.972	3.705	2.433	0.926	-2.482	-7.312	-1.492	-3.759	-1.778	-4.690	-0.065	0.972	-1.594	2.832	2.180	8.468	6.946	5.449	500.000
-4.202	-4.552	-7.491	-2.287	2.007	0.117	5.026	2.596	5.883	5.924	5.794	3.563	2.484	0.844	-2.607	-7.838	-1.411	-3.891	-1.846	-5.110	-0.276	0.994	-1.481	2.990	2.334	8.702	7.165	5.481	503.906
-4.213	-4.509	-7.236	-2.342	1.865	0.209	4.934	2.777	5.945	5.790	5.609	3.355	2.494	0.744	-2.704	-8.281	-1.327	-3.979	-1.901	-5.463	-0.483	1.019	-1.340	3.117	2.465	8.864	7.300	5.426	507.812
-4.190	-4.443	-6.930	-2.375	1.754	0.295	4.855	2.931	5.994	5.685	5.424	3.100	2.448	0.620	-2.769	-8.631	-1.253	-4.001	-1.934	-5.749	-0.685	1.054	-1.170	3.210	2.578	8.954	7.360	5.302	511.719
-4.131	-4.342	-6.590	-2.379	1.678	0.367	4.767	3.044	6.001	5.580	5.229	2.807	2.328	0.466	-2.792	-8.870	-1.186	-3.934	-1.928	-5.961	-0.876	1.106	-0.973	3.263	2.678	8.967	7.346	5.114	515.625
-4.032	-4.189	-6.231	-2.340	1.642	0.421	4.645	3.105	5.941	5.431	5.000	2.468	2.117	0.275	-2.762	-8.976	-1.109	-3.763	-1.867	-6.087	-1.048	1.179	-0.756	3.264	2.763	8.892	7.246	4.854	519.531
-3.885	-3.959	-5.858	-2.239	1.645	0.462	4.459	3.111	5.792	5.188	4.703	2.070	1.800	0.048	-2.667	-8.920	-0.999	-3.479	-1.740	-6.111	-1.192	1.272	-0.529	3.197	2.823	8.712	7.039	4.505	523.438
-3.683	-3.629	-5.470	-2.053	1.685	0.498	4.189	3.062	5.540	4.805	4.307	1.596	1.375	-0.211	-2.501	-8.677	-0.836	-3.091	-1.544	-6.013	-1.296	1.382	-0.308	3.048	2.843	8.411	6.699	4.042	527.344
-3.415	-3.185	-5.060	-1.767	1.754	0.540	3.822	2.962	5.177	4.248	3.788	1.033	0.853	-0.492	-2.262	-8.232	-0.604	-2.622	-1.284	-5.782	-1.348	1.500	-0.108	2.808	2.801	7.980	6.204	3.444	531.250
-3.080	-2.629	-4.615	-1.377	1.846	0.596	3.358	2.818	4.703	3.508	3.133	0.377	0.262	-0.776	-1.955	-7.583	-0.294	-2.104	-0.973	-5.414	-1.341	1.618	0.064	2.480	2.680	7.417	5.549	2.703	535.156
-2.679	-1.982	-4.124	-0.897	1.951	0.671	2.810	2.631	4.123	2.601	2.350	-0.364	-0.355	-1.040	-1.594	-6.746	0.095	-1.583	-0.628	-4.917	-1.273	1.729	0.207	2.080	2.468	6.740	4.747	1.832	539.062
-2.220	-1.280	-3.585	-0.357	2.056	0.763	2.203	2.405	3.447	1.570	1.464	-1.167	-0.947	-1.262	-1.196	-5.756	0.560	-1.107	-0.264	-4.313	-1.148	1.830	0.325	1.640	2.164	5.979	3.839	0.862	542.969
-1.723	-0.571	-3.008	0.199	2.149	0.865	1.573	2.138	2.698	0.480	0.518	-1.996	-1.460	-1.421	-0.780	-4.669	1.092	-0.721	0.105	-3.639	-0.975	1.923	0.430	1.196	1.781	5.183	2.884	-0.153	546.875
-1.211	0.090	-2.423	0.721	2.216	0.970	0.960	1.831	1.906	-0.586	-0.433	-2.805	-1.846	-1.498	-0.366	-3.548	1.678	-0.459	0.470	-2.937	-0.768	2.010	0.531	0.789	1.348	4.406	1.958	-1.145	550.781
-0.715	0.658	-1.871	1.161	2.246	1.069	0.408	1.484	1.115	-1.544	-1.323	-3.546	-2.068	-1.487	0.025	-2.466	2.291	-0.340	0.818	-2.254	-0.544	2.096	0.630	0.456	0.901	3.705	1.140	-2.041	554.688
-0.265	1.100	-1.404	1.482	2.233	1.155	-0.039	1.104	0.374	-2.317	-2.091	-4.169	-2.107	-1.384	0.376	-1.485	2.895	-0.360	1.137	-1.632	-0.320	2.182	0.727	0.228	0.482	3.128	0.499	-2.775	558.594
0.110	1.397	-1.073	1.663	2.173	1.222	-0.347	0.708	-0.265	-2.843	-2.684	-4.635	-1.960	-1.199	0.670	-0.658	3.437	-0.498	1.411	-1.107	-0.110	2.266	0.813	0.120	0.130	2.708	0.089	-3.294	562.500
0.387	1.549	-0.918	1.699	2.071	1.264	-0.491	0.322	-0.755	-3.085	-3.066	-4.914	-1.645	-0.945	0.894	-0.019	3.862	-0.716	1.621	-0.702	0.073	2.341	0.876	0.134	-0.122	2.460	-0.063	-3.569	566.406
0.551	1.568	-0.958	1.601	1.934	1.278	-0.465	-0.021	-1.062	-3.039	-3.225	-4.994	-1.192	-0.646	1.039	0.422	4.115	-0.973	1.748	-0.429	0.220	2.398	0.903	0.258	-0.252	2.382	0.040	-3.597	570.312
0.599	1.469	-1.180	1.390	1.771	1.258	-0.277	-0.283	-1.176	-2.729	-3.177	-4.881	-0.647	-0.329	1.097	0.670	4.157	-1.233	1.774	-0.287	0.324	2.422	0.886	0.467	-0.254	2.451	0.366	-3.403	574.219
0.537	1.275	-1.546	1.093	1.591	1.203	0.039	-0.436	-1.107	-2.210	-2.958	-4.600	-0.064	-0.026	1.066	0.750	3.974	-1.471	1.692	-0.264	0.381	2.405	0.820	0.725	-0.136	2.628	0.855	-3.035	578.125
0.382	1.004	-1.990	0.737	1.402	1.111	0.436	-0.465	-0.892	-1.561	-2.623	-4.191	0.500	0.232	0.948	0.695	3.583	-1.673	1.505	-0.343	0.387	2.343	0.711	0.993	0.079	2.867	1.430	-2.559	582.031
0.161	0.677	-2.437	0.351	1.209	0.984	0.849	-0.376	-0.588	-0.877	-2.234	-3.708	0.986	0.414	0.756	0.541	3.034	-1.837	1.232	-0.503	0.340	2.238	0.577	1.230	0.357	3.117	2.006	-2.050	585.938
-0.098	0.315	-2.809	-0.043	1.012	0.827	1.205	-0.194	-0.261	-0.260	-1.853	-3.208	1.339	0.497	0.508	0.327	2.402	-1.965	0.905	-0.718	0.245	2.103	0.445	1.399	0.658	3.331	2.500	-1.580	589.844
-0.363	-0.060	-3.046	-0.419	0.812	0.648	1.433	0.034	0.020	0.196	-1.531	-2.746	1.516	0.464	0.232	0.087	1.777	-2.053	0.568	-0.968	0.105	1.957	0.346	1.473	0.940	3.471	2.842	-1.210	593.750
-0.605	-0.420	-3.110	-0.758	0.607	0.455	1.473	0.255	0.195	0.416	-1.302	-2.368	1.486	0.311	-0.041	-0.151	1.246	-2.093	0.267	-1.232	-0.070	1.821	0.310	1.433	1.172	3.516	2.988	-0.983	597.656
-0.801	-0.734	-2.988	-1.040	0.396	0.263	1.286	0.415	0.223	0.353	-1.183	-2.100	1.237	0.044	-0.278	-0.369	0.876	-2.065	0.043	-1.490	-0.267	1.711	0.358	1.272	1.334	3.461	2.921	-0.916	601.562
-0.936	-0.971	-2.697	-1.249	0.184	0.087	0.865	0.472	0.085	-0.003	-1.173	-1.951	0.781	-0.317	-0.455	-0.557	0.706	-1.949	-0.076	-1.729	-0.470	1.639	0.497	0.995	1.418	3.320	2.650	-1.000	605.469
-1.003	-1.101	-2.277	-1.372	-0.024	-0.055	0.237	0.406	-0.212	-0.621	-1.254	-1.910	0.150	-0.741	-0.553	-0.715	0.737	-1.726	-0.080	-1.938	-0.662	1.607	0.719	0.620	1.433	3.115	2.213	-1.204	609.375
-1.007	-1.106	-1.785	-1.405	-0.218	-0.147	-0.539	0.223	-0.638	-1.439	-1.404	-1.953	-0.602	-1.185	-0.570	-0.851	0.938	-1.391	0.019	-2.111	-0.822	1.609	0.998	0.174	1.397	2.878	1.662	-1.484	613.281
-0.960	-0.981	-1.280	-1.346	-0.382	-0.175	-1.380	-0.048	-1.145	-2.371	-1.596	-2.050	-1.403	-1.607	-0.514	-0.981	1.253	-0.953	0.191	-2.245	-0.934	1.631	1.302	-0.306	1.330	2.637	1.055	-1.794	617.188
-0.882	-0.739	-0.820	-1.205	-0.500	-0.130	-2.195	-0.359	-1.678	-3.321	-1.808	-2.175	-2.176	-1.960	-0.407	-1.122	1.613	-0.443	0.391	-2.345	-0.983	1.654	1.588	-0.781	1.254	2.417	0.451	-2.092	621.094
-0.795	-0.409	-0.448	-0.997	-0.558	-0.008	-2.896	-0.657	-2.181	-4.198	-2.021	-2.307	-2.841	-2.208	-0.277	-1.295	1.949	0.092	0.575	-2.419	-0.966	1.659	1.819	-1.212	1.185	2.233	-0.100	-2.350	625.000
-0.719	-0.036	-0.186	-0.745	-0.547	0.187	-3.417	-0.890	-2.604	-4.926	-2.221	-2.434	-3.336	-2.331	-0.157	-1.513	2.208	0.593	0.700	-2.481	-0.887	1.631	1.964	-1.563	1.136	2.090	-0.563	-2.554	628.906
-0.672	0.331	-0.035	-0.478	-0.468	0.442	-3.713	-1.022	-2.909	-5.450	-2.395	-2.546	-3.616	-2.322	-0.073	-1.788	2.355	1.002	0.740	-2.546	-0.765	1.560	2.002	-1.810	1.110	1.986	-0.911	-2.702	632.812
-0.662	0.640	0.021	-0.226	-0.331	0.735	-3.774	-1.032	-3.073	-5.736	-2.530	-2.636	-3.664	-2.196	-0.047	-2.122	2.383	1.271	0.686	-2.631	-0.624	1.441	1.932	-1.939	1.107	1.913	-1.134	-2.797	636.719
-0.692	0.853	0.008	-0.015	-0.154	1.041	-3.611	-0.917	-3.085	-5.774	-2.610	-2.687	-3.488	-1.981	-0.086	-2.511	2.302	1.370	0.544	-2.749	-0.495	1.278	1.762	-1.947	1.122	1.858	-1.229	-2.846	640.625
-0.758	0.944	-0.041	0.133	0.039	1.331	-3.260	-0.691	-2.949	-5.571	-2.615	-2.681	-3.121	-1.713	-0.188	-2.943	2.136	1.300	0.333	-2.909	-0.405	1.077	1.518	-1.846	1.144	1.802	-1.205	-2.854	644.531
-0.849	0.912	-0.096	0.206	0.223	1.581	-2.769	-0.382	-2.685	-5.150	-2.530	-2.595	-2.615	-1.430	-0.340	-3.404	1.911	1.083	0.078	-3.111	-0.376	0.851	1.235	-1.658	1.157	1.725	-1.078	-2.823	648.438
-0.951	0.775	-0.134	0.208	0.380	1.777	-2.195	-0.023	-2.325	-4.554	-2.343	-2.410	-2.029	-1.168	-0.523	-3.871	1.649	0.765	-0.196	-3.349	-0.416	0.612	0.954	-1.416	1.141	1.610	-0.872	-2.754	652.344
-1.047	0.567	-0.134	0.152	0.498	1.913	-1.599	0.347	-1.913	-3.840	-2.057	-2.116	-1.424	-0.948	-0.716	-4.318	1.370	0.398	-0.468	-3.609	-0.523	0.375	0.713	-1.152	1.070	1.442	-0.616	-2.649	656.250
-1.120	0.337	-0.086	0.062	0.573	1.996	-1.045	0.691	-1.504	-3.082	-1.688	-1.725	-0.856	-0.783	-0.898	-4.718	1.090	0.033	-0.724	-3.869	-0.679	0.153	0.543	-0.901	0.927	1.215	-0.340	-2.513	660.156
-1.155	0.132	0.014	-0.033	0.610	2.038	-0.591	0.977	-1.153	-2.364	-1.272	-1.267	-0.371	-0.674	-1.049	-5.040	0.827	-0.287	-0.951	-4.105	-0.859	-0.043	0.456	-0.691	0.699	0.934	-0.080	-2.355	664.062
-1.139	-0.000	0.166	-0.103	0.621	2.056	-0.290	1.175	-0.911	-1.775	-0.861	-0.792	-0.004	-0.614	-1.152	-5.254	0.607	-0.538	-1.137	-4.289	-1.035	-0.200	0.449	-0.539	0.389	0.615	0.134	-2.193	667.969
-1.062	-0.025	0.361	-0.122	0.621	2.067	-0.183	1.267	-0.818	-1.396	-0.518	-0.369	0.219	-0.594	-1.193	-5.331	0.465	-0.711	-1.270	-4.393	-1.176	-0.306	0.504	-0.456	0.013	0.278	0.273	-2.051	671.875
-0.919	0.084	0.589	-0.072	0.627	2.081	-0.295	1.241	-0.899	-1.293	-0.308	-0.072	0.285	-0.602	-1.161	-5.246	0.442	-0.812	-1.331	-4.389	-1.258	-0.347	0.594	-0.444	-0.402	-0.053	0.314	-1.964	675.781
-0.705	0.336	0.838	0.058	0.648	2.106	-0.635	1.090	-1.161	-1.511	-0.286	0.031	0.188	-0.633	-1.046	-4.981	0.581	-0.851	-1.299	-4.256	-1.263	-0.312	0.693	-0.499	-0.825	-0.365	0.238	-1.972	679.688
-0.422	0.729	1.101	0.264	0.690	2.142	-1.194	0.817	-1.596	-2.061	-0.494	-0.115	-0.069	-0.683	-0.841	-4.524	0.919	-0.838	-1.152	-3.976	-1.182	-0.186	0.784	-0.615	-1.226	-0.657	0.032	-2.117	683.594
-0.073	1.244	1.373	0.534	0.749	2.184	-1.946	0.431	-2.182	-2.929	-0.952	-0.537	-0.474	-0.749	-0.541	-3.875	1.474	-0.774	-0.872	-3.539	-1.011	0.038	0.861	-0.784	-1.584	-0.941	-0.311	-2.438	687.500
0.337	1.851	1.655	0.847	0.811	2.224	-2.852	-0.055	-2.892	-4.069	-1.653	-1.231	-1.005	-0.831	-0.148	-3.043	2.247	-0.648	-0.449	-2.944	-0.754	0.365	0.931	-0.998	-1.891	-1.245	-0.792	-2.961	691.406
0.795	2.509	1.953	1.179	0.859	2.251	-3.862	-0.622	-3.694	-5.412	-2.565	-2.161	-1.632	-0.924	0.335	-2.049	3.207	-0.439	0.112	-2.200	-0.419	0.787	1.013	-1.248	-2.150	-1.602	-1.405	-3.691	695.312
1.283	3.169	2.270	1.499	0.866	2.250	-4.918	-1.250	-4.553	-6.874	-3.632	-3.259	-2.317	-1.021	0.892	-0.929	4.302	-0.122	0.795	-1.333	-0.017	1.291	1.131	-1.521	-2.370	-2.042	-2.134	-4.607	699.219
1.779	3.777	2.612	1.779	0.809	2.208	-5.968	-1.915	-5.437	-8.369	-4.782	-4.440	-3.016	-1.112	1.502	0.268	5.457	0.325	1.567	-0.379	0.435	1.851	1.311	-1.799	-2.565	-2.585	-2.952	-5.659	703.125
2.258	4.282	2.979	1.991	0.664	2.109	-6.963	-2.594	-6.317	-9.813	-5.932	-5.607	-3.686	-1.188	2.134	1.484	6.591	0.909	2.385	0.612	0.912	2.434	1.571	-2.063	-2.746	-3.232	-3.823	-6.773	707.031
2.694	4.649	3.368	2.113	0.417	1.948	-7.869	-3.264	-7.166	-11.140	-7.003	-6.674	-4.289	-1.246	2.754	2.656	7.629	1.615	3.199	1.585	1.388	3.005	1.919	-2.295	-2.920	-3.964	-4.704	-7.866	710.938
3.067	4.858	3.774	2.134	0.071	1.726	-8.666	-3.903	-7.963	-12.306	-7.930	-7.570	-4.796	-1.283	3.324	3.724	8.508	2.401	3.956	2.483	1.834	3.523	2.345	-2.479	-3.088	-4.746	-5.549	-8.855	714.844
3.366	4.918	4.186	2.056	-0.359	1.456	-9.349	-4.493	-8.693	-13.291	-8.674	-8.254	-5.189	-1.301	3.813	4.640	9.194	3.206	4.611	3.258	2.225	3.953	2.821	-2.610	-3.243	-5.529	-6.318	-9.673	718.750
3.589	4.857	4.595	1.896	-0.835	1.160	-9.921	-5.019	-9.346	-14.093	-9.224	-8.716	-5.460	-1.303	4.199	5.374	9.679	3.958	5.123	3.877	2.541	4.263	3.302	-2.688	-3.379	-6.259	-6.980	-10.283	722.656
3.743	4.719	4.986	1.681	-1.311	0.866	-10.390	-5.473	-9.917	-14.725	-9.594	-8.972	-5.609	-1.291	4.469	5.914	9.975	4.583	5.467	4.324	2.776	4.435	3.736	-2.725	-3.483	-6.886	-7.515	-10.677	726.562
3.838	4.551	5.344	1.447	-1.733	0.596	-10.760	-5.846	-10.401	-15.202	-9.819	-9.057	-5.638	-1.260	4.623	6.265	10.111	5.022	5.628	4.598	2.931	4.459	4.071	-2.731	-3.548	-7.369	-7.916	-10.872	730.469
3.886	4.389	5.648	1.226	-2.054	0.368	-11.031	-6.130	-10.790	-15.532	-9.936	-9.009	-5.552	-1.206	4.666	6.441	10.116	5.239	5.607	4.710	3.017	4.340	4.264	-2.720	-3.566	-7.681	-8.182	-10.905	734.375
3.892	4.251	5.878	1.044	-2.241	0.191	-11.188	-6.316	-11.072	-15.710	-9.976	-8.864	-5.354	-1.119	4.611	6.461	10.016	5.223	5.417	4.674	3.043	4.096	4.290	-2.700	-3.533	-7.809	-8.317	-10.816	738.281
3.854	4.137	6.010	0.914	-2.282	0.064	-11.213	-6.391	-11.227	-15.718	-9.951	-8.642	-5.050	-0.994	4.467	6.339	9.822	4.989	5.080	4.503	3.017	3.748	4.146	-2.673	-3.451	-7.760	-8.323	-10.640	742.188
3.766	4.027	6.020	0.836	-2.183	-0.019	-11.080	-6.343	-11.232	-15.528	-9.854	-8.350	-4.645	-0.833	4.247	6.082	9.535	4.576	4.628	4.207	2.938	3.328	3.849	-2.635	-3.323	-7.550	-8.198	-10.398	746.094
3.616	3.896	5.891	0.799	-1.971	-0.066	-10.771	-6.166	-11.066	-15.114	-9.665	-7.984	-4.151	-0.640	3.959	5.693	9.145	4.034	4.096	3.789	2.801	2.866	3.436	-2.577	-3.154	-7.206	-7.936	-10.101	750.000
3.397	3.719	5.615	0.783	-1.681	-0.083	-10.280	-5.867	-10.720	-14.460	-9.355	-7.537	-3.588	-0.430	3.615	5.173	8.645	3.424	3.520	3.256	2.598	2.393	2.955	-2.486	-2.949	-6.761	-7.530	-9.748	753.906
3.109	3.479	5.200	0.767	-1.356	-0.074	-9.619	-5.472	-10.205	-13.579	-8.912	-7.009	-2.981	-0.219	3.226	4.532	8.032	2.803	2.937	2.621	2.323	1.938	2.463	-2.352	-2.718	-6.251	-6.980	-9.336	757.812
2.761	3.178	4.673	0.730	-1.035	-0.038	-8.826	-5.020	-9.554	-12.512	-8.340	-6.416	-2.365	-0.022	2.811	3.791	7.321	2.224	2.381	1.907	1.985	1.529	2.020	-2.168	-2.470	-5.710	-6.297	-8.867	761.719
2.376	2.827	4.080	0.652	-0.753	0.021	-7.957	-4.562	-8.827	-11.338	-7.676	-5.791	-1.776	0.148	2.392	2.982	6.548	1.730	1.885	1.149	1.602	1.193	1.681	-1.933	-2.216	-5.174	-5.515	-8.353	765.625
1.984	2.451	3.481	0.518	-0.533	0.100	-7.084	-4.152	-8.101	-10.159	-6.981	-5.185	-1.251	0.285	1.994	2.153	5.766	1.350	1.480	0.395	1.211	0.959	1.492	-1.654	-1.966	-4.675	-4.686	-7.823	769.531
1.614	2.073	2.939	0.318	-0.390	0.191	-6.280	-3.837	-7.461	-9.091	-6.330	-4.660	-0.825	0.389	1.643	1.352	5.045	1.106	1.191	-0.303	0.852	0.849	1.489	-1.343	-1.729	-4.239	-3.875	-7.315	773.438
1.294	1.709	2.515	0.044	-0.331	0.282	-5.610	-3.651	-6.985	-8.239	-5.797	-4.274	-0.521	0.465	1.360	0.628	4.450	1.005	1.039	-0.900	0.570	0.882	1.687	-1.016	-1.508	-3.890	-3.154	-6.872	777.344
1.042	1.366	2.253	-0.306	-0.352	0.359	-5.116	-3.606	-6.728	-7.681	-5.439	-4.068	-0.352	0.525	1.160	0.014	4.033	1.045	1.030	-1.360	0.401	1.063	2.084	-0.689	-1.301	-3.638	-2.584	-6.531	781.250
0.861	1.040	2.170	-0.728	-0.441	0.411	-4.810	-3.698	-6.711	-7.447	-5.281	-4.057	-0.312	0.577	1.043	-0.476	3.817	1.212	1.159	-1.673	0.361	1.385	2.657	-0.375	-1.104	-3.484	-2.199	-6.315	785.156
0.741	0.721	2.254	-1.211	-0.580	0.433	-4.673	-3.900	-6.913	-7.513	-5.310	-4.225	-0.381	0.630	0.997	-0.853	3.789	1.480	1.404	-1.852	0.447	1.824	3.370	-0.082	-0.910	-3.416	-1.998	-6.221	789.062
0.665	0.401	2.465	-1.738	-0.750	0.429	-4.655	-4.175	-7.279	-7.801	-5.482	-4.526	-0.522	0.690	1.000	-1.148	3.901	1.812	1.727	-1.932	0.629	2.343	4.172	0.191	-0.714	-3.405	-1.942	-6.223	792.969
0.609	0.076	2.740	-2.287	-0.926	0.409	-4.694	-4.480	-7.727	-8.201	-5.729	-4.894	-0.692	0.759	1.024	-1.404	4.085	2.165	2.082	-1.967	0.863	2.897	5.007	0.453	-0.513	-3.418	-1.963	-6.277	796.875
