FP1	F3	F7	FC3	C3	C5	P3	P7	PO7	PO3	O1	Oz	Pz	CPz	FP2	Fz	F4	F8	FC4	FCz	Cz	C4	C6	P4	P8	PO8	PO4	O2	time
-0.489	-0.210	-0.532	-0.432	0.377	-0.245	-0.829	-0.340	-0.559	-0.296	-1.596	-1.012	0.968	1.113	-0.163	0.469	0.517	0.657	1.254	0.803	1.322	1.429	0.957	1.246	0.154	-0.610	0.495	-2.117	-199.219
-0.559	-0.334	-0.603	-0.548	0.218	-0.294	-0.513	-0.264	-0.414	-0.115	-1.321	-0.925	0.879	1.007	-0.244	0.285	0.290	0.531	0.969	0.668	1.224	1.277	0.963	1.218	0.385	-0.337	0.658	-1.762	-195.312
-0.630	-0.450	-0.663	-0.651	0.065	-0.339	-0.232	-0.199	-0.277	0.052	-1.051	-0.803	0.779	0.894	-0.317	0.109	0.076	0.410	0.695	0.537	1.116	1.119	0.953	1.171	0.601	-0.069	0.811	-1.400	-191.406
-0.704	-0.549	-0.702	-0.734	-0.073	-0.377	-0.020	-0.155	-0.158	0.195	-0.793	-0.620	0.665	0.767	-0.382	-0.048	-0.110	0.297	0.441	0.416	0.991	0.950	0.912	1.096	0.789	0.196	0.949	-1.019	-187.500
-0.781	-0.626	-0.720	-0.789	-0.191	-0.406	0.101	-0.144	-0.068	0.305	-0.551	-0.361	0.540	0.627	-0.441	-0.182	-0.256	0.197	0.217	0.310	0.849	0.773	0.836	0.995	0.941	0.455	1.074	-0.613	-183.594
-0.859	-0.677	-0.720	-0.812	-0.285	-0.428	0.125	-0.174	-0.019	0.379	-0.329	-0.032	0.412	0.480	-0.499	-0.288	-0.353	0.111	0.035	0.225	0.701	0.601	0.732	0.877	1.053	0.710	1.191	-0.177	-179.688
-0.938	-0.701	-0.714	-0.806	-0.353	-0.447	0.060	-0.250	-0.021	0.417	-0.133	0.349	0.297	0.337	-0.564	-0.365	-0.399	0.037	-0.100	0.165	0.561	0.447	0.615	0.761	1.128	0.960	1.311	0.283	-175.781
-1.012	-0.702	-0.711	-0.774	-0.393	-0.466	-0.068	-0.367	-0.076	0.424	0.032	0.752	0.212	0.214	-0.642	-0.415	-0.398	-0.030	-0.185	0.134	0.446	0.328	0.503	0.666	1.168	1.201	1.444	0.758	-171.875
-1.076	-0.684	-0.722	-0.726	-0.404	-0.485	-0.225	-0.518	-0.179	0.409	0.163	1.147	0.174	0.128	-0.734	-0.440	-0.362	-0.102	-0.226	0.130	0.370	0.253	0.407	0.609	1.177	1.426	1.595	1.229	-167.969
-1.123	-0.650	-0.750	-0.670	-0.385	-0.504	-0.369	-0.683	-0.318	0.382	0.262	1.502	0.191	0.089	-0.838	-0.446	-0.305	-0.186	-0.234	0.152	0.343	0.221	0.333	0.601	1.158	1.623	1.761	1.671	-164.062
-1.141	-0.604	-0.790	-0.613	-0.339	-0.517	-0.467	-0.839	-0.470	0.353	0.332	1.791	0.263	0.104	-0.947	-0.437	-0.248	-0.292	-0.228	0.192	0.362	0.224	0.273	0.640	1.109	1.776	1.930	2.056	-160.156
-1.123	-0.549	-0.829	-0.560	-0.268	-0.519	-0.490	-0.959	-0.609	0.330	0.379	1.991	0.381	0.168	-1.047	-0.418	-0.207	-0.424	-0.227	0.245	0.416	0.242	0.211	0.715	1.025	1.863	2.077	2.352	-156.250
-1.057	-0.483	-0.848	-0.511	-0.179	-0.501	-0.422	-1.017	-0.708	0.319	0.409	2.090	0.526	0.270	-1.125	-0.391	-0.197	-0.578	-0.250	0.301	0.488	0.252	0.132	0.805	0.902	1.866	2.174	2.529	-152.344
-0.938	-0.406	-0.827	-0.463	-0.078	-0.455	-0.262	-0.998	-0.745	0.317	0.425	2.076	0.673	0.396	-1.164	-0.359	-0.225	-0.746	-0.306	0.353	0.558	0.237	0.021	0.883	0.735	1.768	2.188	2.561	-148.438
-0.767	-0.313	-0.751	-0.406	0.028	-0.377	-0.022	-0.896	-0.709	0.320	0.427	1.949	0.798	0.528	-1.151	-0.322	-0.288	-0.912	-0.395	0.397	0.610	0.184	-0.119	0.922	0.524	1.561	2.095	2.430	-144.531
-0.551	-0.204	-0.614	-0.334	0.135	-0.263	0.273	-0.719	-0.601	0.317	0.408	1.712	0.877	0.650	-1.081	-0.280	-0.376	-1.057	-0.505	0.431	0.633	0.097	-0.275	0.896	0.275	1.247	1.880	2.132	-140.625
-0.304	-0.080	-0.420	-0.237	0.241	-0.118	0.586	-0.488	-0.434	0.299	0.360	1.374	0.894	0.749	-0.951	-0.230	-0.466	-1.160	-0.612	0.457	0.628	-0.012	-0.422	0.789	-0.000	0.842	1.544	1.676	-136.719
-0.047	0.057	-0.182	-0.113	0.344	0.054	0.877	-0.230	-0.234	0.255	0.272	0.953	0.843	0.814	-0.771	-0.171	-0.531	-1.201	-0.689	0.481	0.602	-0.122	-0.530	0.599	-0.283	0.372	1.102	1.084	-132.812
0.198	0.201	0.079	0.037	0.445	0.242	1.102	0.025	-0.030	0.179	0.135	0.471	0.727	0.840	-0.555	-0.102	-0.546	-1.168	-0.708	0.508	0.566	-0.207	-0.573	0.335	-0.553	-0.130	0.583	0.395	-128.906
0.413	0.345	0.340	0.207	0.542	0.436	1.228	0.247	0.147	0.071	-0.053	-0.040	0.557	0.825	-0.320	-0.020	-0.490	-1.059	-0.653	0.543	0.534	-0.250	-0.537	0.020	-0.790	-0.625	0.028	-0.341	-125.000
0.582	0.480	0.578	0.384	0.631	0.623	1.236	0.415	0.273	-0.065	-0.288	-0.548	0.350	0.771	-0.087	0.072	-0.355	-0.885	-0.518	0.587	0.515	-0.240	-0.426	-0.315	-0.973	-1.074	-0.520	-1.068	-121.094
0.701	0.601	0.777	0.557	0.709	0.791	1.126	0.515	0.334	-0.216	-0.556	-1.016	0.129	0.683	0.129	0.174	-0.148	-0.663	-0.316	0.636	0.513	-0.181	-0.257	-0.636	-1.093	-1.442	-1.014	-1.726	-117.188
0.769	0.700	0.925	0.710	0.767	0.932	0.918	0.544	0.326	-0.368	-0.834	-1.411	-0.085	0.569	0.312	0.279	0.105	-0.421	-0.072	0.682	0.525	-0.086	-0.062	-0.912	-1.144	-1.705	-1.417	-2.260	-113.281
0.796	0.773	1.019	0.831	0.801	1.036	0.650	0.509	0.259	-0.503	-1.091	-1.707	-0.274	0.437	0.453	0.381	0.369	-0.186	0.175	0.709	0.542	0.020	0.123	-1.119	-1.132	-1.848	-1.699	-2.625	-109.375
0.791	0.817	1.061	0.909	0.803	1.097	0.365	0.426	0.153	-0.604	-1.292	-1.886	-0.424	0.296	0.549	0.470	0.602	0.019	0.388	0.704	0.550	0.110	0.261	-1.247	-1.067	-1.869	-1.845	-2.793	-105.469
0.767	0.826	1.056	0.935	0.770	1.113	0.110	0.319	0.035	-0.654	-1.405	-1.941	-0.527	0.154	0.600	0.535	0.764	0.174	0.530	0.652	0.533	0.157	0.325	-1.293	-0.964	-1.777	-1.856	-2.753	-101.562
0.732	0.796	1.010	0.903	0.698	1.084	-0.079	0.213	-0.063	-0.644	-1.398	-1.870	-0.581	0.018	0.610	0.563	0.828	0.270	0.574	0.541	0.475	0.143	0.301	-1.269	-0.839	-1.587	-1.745	-2.516	-97.656
0.688	0.722	0.927	0.810	0.589	1.011	-0.179	0.134	-0.111	-0.566	-1.252	-1.679	-0.586	-0.112	0.584	0.541	0.781	0.302	0.510	0.367	0.366	0.058	0.191	-1.191	-0.701	-1.320	-1.536	-2.106	-93.750
0.630	0.600	0.811	0.658	0.447	0.899	-0.183	0.101	-0.085	-0.421	-0.962	-1.376	-0.550	-0.236	0.529	0.460	0.625	0.275	0.342	0.132	0.201	-0.094	0.009	-1.074	-0.556	-0.997	-1.255	-1.563	-89.844
0.552	0.429	0.662	0.454	0.277	0.756	-0.098	0.123	0.024	-0.218	-0.540	-0.976	-0.482	-0.354	0.451	0.314	0.377	0.196	0.090	-0.154	-0.018	-0.298	-0.218	-0.931	-0.400	-0.636	-0.931	-0.933	-85.938
0.445	0.216	0.486	0.214	0.091	0.588	0.058	0.199	0.210	0.027	-0.018	-0.502	-0.392	-0.467	0.357	0.108	0.063	0.079	-0.219	-0.474	-0.277	-0.530	-0.460	-0.769	-0.228	-0.252	-0.588	-0.265	-82.031
0.306	-0.026	0.289	-0.040	-0.098	0.405	0.258	0.314	0.451	0.290	0.555	0.015	-0.292	-0.571	0.252	-0.145	-0.285	-0.064	-0.546	-0.804	-0.555	-0.760	-0.683	-0.590	-0.034	0.137	-0.248	0.392	-78.125
0.140	-0.273	0.083	-0.284	-0.274	0.216	0.467	0.448	0.712	0.543	1.116	0.536	-0.194	-0.662	0.144	-0.418	-0.631	-0.214	-0.853	-1.116	-0.827	-0.960	-0.861	-0.395	0.180	0.514	0.067	0.989	-74.219
-0.038	-0.499	-0.113	-0.487	-0.425	0.031	0.649	0.572	0.948	0.756	1.599	1.013	-0.109	-0.732	0.044	-0.678	-0.943	-0.352	-1.107	-1.382	-1.065	-1.104	-0.974	-0.192	0.404	0.856	0.338	1.487	-70.312
-0.205	-0.674	-0.281	-0.624	-0.540	-0.143	0.766	0.662	1.119	0.901	1.944	1.397	-0.045	-0.774	-0.037	-0.886	-1.187	-0.459	-1.278	-1.573	-1.245	-1.176	-1.010	0.006	0.618	1.136	0.542	1.853	-66.406
-0.333	-0.772	-0.401	-0.677	-0.611	-0.295	0.790	0.699	1.194	0.958	2.110	1.647	-0.009	-0.787	-0.084	-1.006	-1.336	-0.516	-1.346	-1.671	-1.353	-1.169	-0.965	0.178	0.795	1.327	0.659	2.064	-62.500
-0.397	-0.778	-0.460	-0.638	-0.639	-0.419	0.705	0.674	1.155	0.920	2.081	1.735	-0.005	-0.772	-0.088	-1.017	-1.371	-0.506	-1.305	-1.663	-1.384	-1.087	-0.846	0.301	0.909	1.407	0.674	2.114	-58.594
-0.384	-0.691	-0.452	-0.512	-0.626	-0.509	0.516	0.589	1.007	0.789	1.870	1.650	-0.033	-0.735	-0.043	-0.913	-1.285	-0.422	-1.156	-1.551	-1.344	-0.943	-0.670	0.358	0.938	1.363	0.579	2.007	-54.688
-0.293	-0.524	-0.380	-0.319	-0.580	-0.561	0.245	0.459	0.770	0.585	1.517	1.408	-0.091	-0.684	0.048	-0.710	-1.086	-0.268	-0.916	-1.348	-1.248	-0.754	-0.459	0.339	0.869	1.197	0.381	1.765	-50.781
-0.138	-0.303	-0.257	-0.084	-0.510	-0.571	-0.073	0.307	0.481	0.333	1.080	1.044	-0.169	-0.628	0.175	-0.440	-0.795	-0.058	-0.608	-1.079	-1.117	-0.543	-0.239	0.251	0.704	0.925	0.100	1.423	-46.875
0.055	-0.058	-0.101	0.160	-0.425	-0.542	-0.392	0.158	0.181	0.067	0.622	0.608	-0.259	-0.573	0.322	-0.142	-0.444	0.185	-0.264	-0.777	-0.972	-0.331	-0.038	0.112	0.460	0.578	-0.233	1.021	-42.969
0.259	0.177	0.068	0.384	-0.335	-0.478	-0.671	0.034	-0.091	-0.184	0.204	0.155	-0.350	-0.525	0.472	0.142	-0.069	0.430	0.084	-0.476	-0.835	-0.138	0.122	-0.053	0.162	0.192	-0.581	0.602	-39.062
0.445	0.375	0.230	0.561	-0.250	-0.388	-0.880	-0.048	-0.301	-0.396	-0.131	-0.264	-0.436	-0.491	0.612	0.380	0.294	0.651	0.406	-0.211	-0.720	0.019	0.223	-0.217	-0.158	-0.197	-0.909	0.199	-35.156
0.596	0.517	0.369	0.677	-0.180	-0.285	-1.004	-0.078	-0.431	-0.556	-0.359	-0.612	-0.513	-0.475	0.733	0.553	0.615	0.828	0.677	-0.005	-0.637	0.133	0.262	-0.358	-0.467	-0.558	-1.190	-0.162	-31.250
0.702	0.598	0.473	0.726	-0.132	-0.185	-1.049	-0.060	-0.475	-0.664	-0.478	-0.870	-0.583	-0.480	0.834	0.660	0.875	0.954	0.884	0.131	-0.592	0.200	0.244	-0.467	-0.738	-0.871	-1.413	-0.475	-27.344
0.762	0.621	0.539	0.718	-0.110	-0.099	-1.032	-0.001	-0.441	-0.729	-0.506	-1.041	-0.654	-0.512	0.921	0.711	1.068	1.033	1.025	0.201	-0.583	0.224	0.187	-0.543	-0.950	-1.130	-1.581	-0.745	-23.438
0.784	0.602	0.571	0.669	-0.113	-0.037	-0.983	0.082	-0.349	-0.767	-0.471	-1.144	-0.734	-0.570	1.000	0.726	1.200	1.078	1.110	0.223	-0.606	0.216	0.113	-0.598	-1.095	-1.339	-1.713	-0.987	-19.531
0.781	0.561	0.576	0.604	-0.135	-0.001	-0.933	0.172	-0.222	-0.796	-0.410	-1.207	-0.830	-0.654	1.079	0.730	1.286	1.108	1.155	0.221	-0.651	0.189	0.047	-0.648	-1.172	-1.506	-1.830	-1.220	-15.625
0.768	0.521	0.568	0.551	-0.163	0.013	-0.904	0.252	-0.086	-0.831	-0.354	-1.261	-0.948	-0.756	1.162	0.742	1.344	1.140	1.182	0.225	-0.704	0.158	0.011	-0.714	-1.193	-1.646	-1.956	-1.462	-11.719
0.759	0.503	0.559	0.533	-0.180	0.013	-0.910	0.307	0.037	-0.879	-0.327	-1.331	-1.084	-0.863	1.249	0.777	1.394	1.184	1.212	0.259	-0.751	0.138	0.018	-0.812	-1.174	-1.769	-2.108	-1.719	-7.812
0.762	0.521	0.558	0.566	-0.169	0.009	-0.946	0.328	0.132	-0.940	-0.340	-1.430	-1.229	-0.959	1.331	0.842	1.448	1.245	1.260	0.340	-0.777	0.137	0.069	-0.951	-1.135	-1.879	-2.290	-1.986	-3.906
0.778	0.576	0.567	0.650	-0.121	0.006	-0.995	0.311	0.193	-1.007	-0.387	-1.552	-1.369	-1.027	1.398	0.931	1.512	1.314	1.329	0.467	-0.769	0.157	0.154	-1.127	-1.091	-1.973	-2.488	-2.241	0.000
0.798	0.659	0.582	0.773	-0.035	0.007	-1.031	0.259	0.224	-1.064	-0.448	-1.675	-1.485	-1.053	1.438	1.029	1.578	1.373	1.412	0.627	-0.724	0.197	0.260	-1.319	-1.051	-2.035	-2.678	-2.446	3.906
0.802	0.746	0.586	0.906	0.077	0.006	-1.025	0.182	0.239	-1.092	-0.492	-1.760	-1.556	-1.030	1.437	1.114	1.629	1.401	1.487	0.793	-0.649	0.248	0.365	-1.492	-1.011	-2.039	-2.822	-2.553	7.812
0.768	0.808	0.561	1.013	0.192	-0.008	-0.953	0.093	0.256	-1.072	-0.484	-1.758	-1.568	-0.960	1.383	1.158	1.639	1.371	1.529	0.929	-0.560	0.299	0.453	-1.603	-0.958	-1.957	-2.879	-2.508	11.719
0.673	0.815	0.488	1.059	0.278	-0.047	-0.804	0.009	0.296	-0.989	-0.392	-1.625	-1.509	-0.852	1.266	1.136	1.583	1.263	1.506	0.996	-0.482	0.336	0.507	-1.610	-0.872	-1.761	-2.815	-2.266	15.625
0.502	0.742	0.356	1.015	0.308	-0.119	-0.575	-0.054	0.375	-0.835	-0.195	-1.326	-1.380	-0.725	1.080	1.029	1.440	1.067	1.395	0.964	-0.444	0.345	0.517	-1.483	-0.734	-1.434	-2.609	-1.800	19.531
0.257	0.580	0.163	0.869	0.261	-0.231	-0.281	-0.083	0.505	-0.614	0.112	-0.852	-1.189	-0.602	0.827	0.830	1.202	0.786	1.185	0.818	-0.473	0.314	0.479	-1.216	-0.531	-0.977	-2.263	-1.109	23.438
-0.043	0.336	-0.077	0.628	0.134	-0.378	0.053	-0.072	0.682	-0.338	0.513	-0.220	-0.955	-0.505	0.518	0.546	0.876	0.437	0.880	0.560	-0.585	0.237	0.390	-0.828	-0.265	-0.409	-1.800	-0.224	27.344
-0.368	0.035	-0.338	0.318	-0.059	-0.547	0.394	-0.022	0.894	-0.033	0.973	0.518	-0.703	-0.450	0.172	0.202	0.490	0.051	0.503	0.213	-0.782	0.111	0.254	-0.367	0.049	0.229	-1.268	0.791	31.250
-0.673	-0.285	-0.583	-0.019	-0.288	-0.722	0.709	0.058	1.115	0.269	1.437	1.288	-0.460	-0.450	-0.181	-0.169	0.081	-0.333	0.095	-0.182	-1.047	-0.056	0.078	0.103	0.382	0.881	-0.729	1.842	35.156
-0.918	-0.578	-0.775	-0.332	-0.511	-0.880	0.965	0.154	1.314	0.529	1.838	1.996	-0.254	-0.503	-0.507	-0.522	-0.300	-0.674	-0.297	-0.572	-1.349	-0.251	-0.126	0.511	0.695	1.482	-0.252	2.820	39.062
-1.068	-0.798	-0.882	-0.573	-0.685	-0.998	1.141	0.249	1.456	0.712	2.111	2.543	-0.109	-0.600	-0.771	-0.808	-0.606	-0.937	-0.621	-0.904	-1.646	-0.453	-0.342	0.796	0.953	1.968	0.097	3.612	42.969
-1.102	-0.913	-0.882	-0.703	-0.775	-1.059	1.223	0.329	1.514	0.787	2.198	2.845	-0.041	-0.725	-0.946	-0.988	-0.798	-1.097	-0.835	-1.129	-1.895	-0.637	-0.551	0.916	1.129	2.289	0.269	4.119	46.875
-1.020	-0.904	-0.775	-0.703	-0.756	-1.054	1.214	0.384	1.469	0.735	2.066	2.843	-0.056	-0.858	-1.016	-1.033	-0.851	-1.143	-0.911	-1.218	-2.059	-0.781	-0.732	0.860	1.211	2.415	0.237	4.274	50.781
-0.841	-0.778	-0.578	-0.579	-0.628	-0.982	1.126	0.413	1.321	0.557	1.710	2.517	-0.154	-0.982	-0.983	-0.936	-0.765	-1.080	-0.840	-1.164	-2.117	-0.866	-0.866	0.644	1.212	2.344	0.004	4.055	54.688
-0.600	-0.563	-0.323	-0.358	-0.407	-0.858	0.982	0.425	1.088	0.269	1.163	1.895	-0.324	-1.084	-0.865	-0.718	-0.561	-0.926	-0.639	-0.986	-2.071	-0.883	-0.941	0.309	1.161	2.109	-0.397	3.495	58.594
-0.345	-0.307	-0.056	-0.088	-0.134	-0.705	0.805	0.435	0.804	-0.095	0.492	1.048	-0.552	-1.163	-0.697	-0.421	-0.280	-0.714	-0.344	-0.728	-1.943	-0.840	-0.953	-0.090	1.105	1.771	-0.911	2.679	62.500
-0.127	-0.068	0.175	0.173	0.142	-0.554	0.618	0.465	0.517	-0.488	-0.215	0.084	-0.819	-1.227	-0.520	-0.106	0.022	-0.478	-0.010	-0.452	-1.776	-0.755	-0.908	-0.494	1.098	1.414	-1.462	1.737	66.406
0.007	0.096	0.326	0.369	0.365	-0.438	0.433	0.533	0.279	-0.862	-0.858	-0.867	-1.108	-1.294	-0.377	0.157	0.289	-0.254	0.303	-0.224	-1.624	-0.658	-0.822	-0.851	1.193	1.132	-1.973	0.824	70.312
0.023	0.136	0.367	0.452	0.489	-0.388	0.251	0.655	0.133	-1.173	-1.347	-1.677	-1.403	-1.388	-0.305	0.307	0.473	-0.070	0.537	-0.105	-1.540	-0.583	-0.719	-1.125	1.433	1.012	-2.371	0.089	74.219
-0.098	0.024	0.284	0.396	0.481	-0.425	0.066	0.832	0.109	-1.391	-1.615	-2.242	-1.690	-1.531	-0.325	0.298	0.542	0.055	0.648	-0.139	-1.569	-0.564	-0.621	-1.295	1.837	1.112	-2.606	-0.344	78.125
-0.350	-0.244	0.083	0.199	0.329	-0.558	-0.130	1.058	0.213	-1.501	-1.630	-2.493	-1.959	-1.740	-0.439	0.111	0.484	0.115	0.609	-0.344	-1.737	-0.624	-0.552	-1.362	2.401	1.455	-2.651	-0.404	82.031
-0.710	-0.647	-0.219	-0.120	0.042	-0.785	-0.343	1.316	0.433	-1.506	-1.397	-2.412	-2.199	-2.021	-0.635	-0.245	0.308	0.112	0.420	-0.708	-2.046	-0.773	-0.527	-1.340	3.092	2.023	-2.510	-0.078	85.938
-1.139	-1.145	-0.588	-0.524	-0.352	-1.090	-0.574	1.582	0.739	-1.421	-0.954	-2.025	-2.401	-2.365	-0.888	-0.738	0.041	0.055	0.099	-1.197	-2.476	-1.005	-0.554	-1.250	3.858	2.758	-2.212	0.586	89.844
-1.589	-1.688	-0.991	-0.969	-0.818	-1.452	-0.815	1.834	1.094	-1.270	-0.363	-1.393	-2.560	-2.756	-1.168	-1.318	-0.284	-0.043	-0.317	-1.757	-2.988	-1.301	-0.631	-1.119	4.639	3.581	-1.803	1.501	93.750
-2.016	-2.225	-1.392	-1.413	-1.314	-1.844	-1.056	2.046	1.456	-1.080	0.303	-0.600	-2.671	-3.167	-1.446	-1.927	-0.627	-0.167	-0.779	-2.327	-3.532	-1.631	-0.746	-0.966	5.371	4.403	-1.339	2.555	97.656
-2.379	-2.711	-1.760	-1.818	-1.801	-2.239	-1.283	2.199	1.790	-0.877	0.972	0.265	-2.734	-3.566	-1.698	-2.508	-0.953	-0.303	-1.234	-2.847	-4.056	-1.955	-0.878	-0.808	6.001	5.144	-0.871	3.634	101.562
-2.653	-3.109	-2.072	-2.157	-2.246	-2.610	-1.488	2.278	2.066	-0.686	1.581	1.120	-2.755	-3.921	-1.909	-3.011	-1.233	-0.435	-1.632	-3.265	-4.511	-2.234	-1.002	-0.653	6.492	5.744	-0.443	4.640	105.469
-2.825	-3.395	-2.314	-2.411	-2.621	-2.935	-1.663	2.272	2.266	-0.525	2.083	1.898	-2.738	-4.201	-2.071	-3.397	-1.447	-0.548	-1.929	-3.542	-4.853	-2.433	-1.093	-0.503	6.820	6.166	-0.086	5.500	109.375
-2.897	-3.557	-2.477	-2.566	-2.907	-3.192	-1.808	2.178	2.378	-0.406	2.447	2.555	-2.691	-4.379	-2.184	-3.641	-1.586	-0.631	-2.094	-3.656	-5.053	-2.523	-1.125	-0.361	6.976	6.400	0.183	6.169	113.281
-2.879	-3.588	-2.561	-2.613	-3.088	-3.368	-1.923	1.996	2.399	-0.338	2.662	3.063	-2.620	-4.438	-2.249	-3.729	-1.644	-0.674	-2.110	-3.597	-5.090	-2.489	-1.086	-0.229	6.961	6.451	0.362	6.627	117.188
-2.788	-3.489	-2.572	-2.546	-3.155	-3.452	-2.013	1.728	2.332	-0.321	2.727	3.408	-2.530	-4.366	-2.269	-3.658	-1.621	-0.670	-1.974	-3.371	-4.958	-2.328	-0.969	-0.112	6.783	6.341	0.453	6.874	121.094
-2.640	-3.266	-2.519	-2.363	-3.104	-3.442	-2.082	1.381	2.185	-0.354	2.656	3.589	-2.423	-4.163	-2.247	-3.434	-1.517	-0.620	-1.694	-2.992	-4.660	-2.049	-0.780	-0.017	6.455	6.097	0.466	6.918	125.000
-2.454	-2.931	-2.415	-2.067	-2.936	-3.343	-2.136	0.968	1.968	-0.431	2.463	3.606	-2.299	-3.841	-2.184	-3.071	-1.328	-0.525	-1.292	-2.484	-4.211	-1.670	-0.532	0.047	5.996	5.746	0.409	6.779	128.906
-2.244	-2.501	-2.276	-1.669	-2.661	-3.167	-2.179	0.501	1.697	-0.546	2.171	3.466	-2.160	-3.419	-2.079	-2.587	-1.052	-0.393	-0.791	-1.879	-3.633	-1.216	-0.247	0.074	5.428	5.320	0.290	6.477	132.812
-2.026	-2.001	-2.119	-1.190	-2.295	-2.936	-2.214	0.001	1.388	-0.691	1.804	3.179	-2.008	-2.925	-1.935	-2.010	-0.687	-0.231	-0.220	-1.208	-2.957	-0.718	0.051	0.062	4.784	4.848	0.116	6.039	136.719
-1.811	-1.463	-1.963	-0.662	-1.862	-2.675	-2.241	-0.510	1.063	-0.857	1.386	2.762	-1.850	-2.392	-1.757	-1.372	-0.239	-0.051	0.389	-0.509	-2.219	-0.202	0.338	0.016	4.099	4.358	-0.106	5.497	140.625
-1.614	-0.922	-1.824	-0.123	-1.394	-2.410	-2.257	-1.006	0.745	-1.034	0.948	2.242	-1.696	-1.858	-1.558	-0.714	0.276	0.139	1.007	0.183	-1.460	0.301	0.592	-0.055	3.418	3.879	-0.365	4.888	144.531
-1.443	-0.415	-1.714	0.388	-0.923	-2.166	-2.259	-1.459	0.456	-1.211	0.520	1.654	-1.560	-1.360	-1.358	-0.078	0.831	0.328	1.601	0.836	-0.726	0.766	0.799	-0.140	2.784	3.438	-0.651	4.257	148.438
-1.308	0.022	-1.640	0.833	-0.486	-1.960	-2.241	-1.843	0.221	-1.376	0.135	1.040	-1.457	-0.932	-1.179	0.492	1.385	0.505	2.141	1.420	-0.061	1.168	0.948	-0.229	2.240	3.061	-0.947	3.655	152.344
-1.215	0.365	-1.601	1.183	-0.113	-1.801	-2.198	-2.138	0.057	-1.516	-0.176	0.447	-1.398	-0.602	-1.047	0.960	1.893	0.657	2.596	1.909	0.494	1.487	1.035	-0.318	1.823	2.771	-1.236	3.129	156.250
-1.168	0.595	-1.591	1.420	0.172	-1.692	-2.126	-2.329	-0.021	-1.619	-0.390	-0.077	-1.391	-0.388	-0.984	1.298	2.306	0.772	2.941	2.285	0.909	1.707	1.062	-0.405	1.561	2.588	-1.499	2.723	160.156
-1.169	0.709	-1.603	1.539	0.351	-1.627	-2.025	-2.414	-0.008	-1.679	-0.490	-0.490	-1.435	-0.295	-1.001	1.492	2.584	0.835	3.157	2.535	1.164	1.820	1.034	-0.490	1.468	2.519	-1.720	2.471	164.062
-1.219	0.710	-1.627	1.545	0.419	-1.600	-1.896	-2.398	0.093	-1.692	-0.476	-0.761	-1.521	-0.319	-1.101	1.542	2.698	0.835	3.238	2.652	1.256	1.826	0.962	-0.571	1.543	2.566	-1.884	2.388	167.969
-1.316	0.614	-1.658	1.455	0.380	-1.603	-1.741	-2.295	0.272	-1.663	-0.361	-0.876	-1.638	-0.442	-1.273	1.460	2.644	0.769	3.186	2.638	1.193	1.738	0.859	-0.644	1.775	2.720	-1.978	2.469	171.875
-1.455	0.439	-1.695	1.292	0.247	-1.631	-1.566	-2.125	0.510	-1.602	-0.167	-0.842	-1.768	-0.640	-1.496	1.268	2.435	0.638	3.018	2.502	0.998	1.572	0.740	-0.701	2.138	2.965	-1.996	2.692	175.781
-1.629	0.209	-1.741	1.080	0.044	-1.679	-1.378	-1.910	0.787	-1.524	0.077	-0.684	-1.896	-0.884	-1.749	0.995	2.107	0.451	2.755	2.262	0.702	1.355	0.622	-0.728	2.603	3.279	-1.938	3.020	179.688
-1.828	-0.053	-1.803	0.848	-0.202	-1.745	-1.190	-1.669	1.080	-1.441	0.338	-0.445	-2.007	-1.145	-2.009	0.673	1.707	0.223	2.428	1.940	0.337	1.114	0.524	-0.712	3.134	3.640	-1.807	3.406	183.594
-2.043	-0.322	-1.888	0.619	-0.460	-1.826	-1.017	-1.423	1.366	-1.368	0.591	-0.175	-2.093	-1.398	-2.261	0.334	1.287	-0.027	2.066	1.568	-0.060	0.879	0.463	-0.635	3.699	4.026	-1.612	3.804	187.500
-2.262	-0.578	-2.000	0.417	-0.698	-1.917	-0.877	-1.185	1.624	-1.311	0.814	0.075	-2.148	-1.622	-2.500	0.006	0.891	-0.285	1.697	1.178	-0.457	0.673	0.449	-0.488	4.270	4.420	-1.365	4.173	191.406
-2.477	-0.803	-2.142	0.256	-0.893	-2.015	-0.787	-0.970	1.839	-1.273	0.992	0.264	-2.168	-1.802	-2.724	-0.287	0.553	-0.539	1.347	0.804	-0.825	0.518	0.490	-0.265	4.821	4.810	-1.080	4.486	195.312
-2.682	-0.986	-2.312	0.147	-1.028	-2.115	-0.760	-0.789	2.001	-1.252	1.122	0.368	-2.151	-1.927	-2.938	-0.528	0.291	-0.783	1.033	0.477	-1.142	0.424	0.584	0.030	5.335	5.187	-0.773	4.730	199.219
-2.872	-1.121	-2.506	0.090	-1.095	-2.216	-0.798	-0.647	2.107	-1.241	1.204	0.384	-2.094	-1.992	-3.147	-0.706	0.104	-1.018	0.768	0.217	-1.390	0.395	0.724	0.384	5.797	5.545	-0.456	4.909	203.125
-3.051	-1.210	-2.718	0.077	-1.102	-2.317	-0.894	-0.549	2.160	-1.226	1.248	0.332	-1.993	-1.993	-3.351	-0.819	-0.020	-1.249	0.557	0.037	-1.557	0.428	0.894	0.776	6.196	5.878	-0.142	5.038	207.031
-3.221	-1.261	-2.944	0.094	-1.061	-2.420	-1.030	-0.491	2.172	-1.196	1.269	0.250	-1.843	-1.929	-3.548	-0.873	-0.102	-1.482	0.400	-0.065	-1.639	0.513	1.077	1.182	6.523	6.180	0.164	5.143	210.938
-3.388	-1.290	-3.180	0.121	-0.996	-2.528	-1.181	-0.468	2.156	-1.136	1.285	0.187	-1.637	-1.802	-3.729	-0.881	-0.161	-1.718	0.294	-0.099	-1.637	0.636	1.253	1.577	6.772	6.444	0.456	5.250	214.844
-3.557	-1.310	-3.420	0.139	-0.927	-2.638	-1.316	-0.469	2.125	-1.037	1.313	0.189	-1.373	-1.616	-3.887	-0.863	-0.215	-1.957	0.230	-0.083	-1.560	0.781	1.402	1.939	6.937	6.660	0.731	5.377	218.750
-3.726	-1.334	-3.655	0.136	-0.871	-2.748	-1.407	-0.483	2.092	-0.893	1.364	0.293	-1.053	-1.379	-4.014	-0.841	-0.274	-2.196	0.198	-0.039	-1.417	0.930	1.508	2.253	7.012	6.816	0.985	5.535	222.656
-3.892	-1.369	-3.876	0.108	-0.836	-2.847	-1.430	-0.497	2.065	-0.707	1.445	0.517	-0.685	-1.101	-4.109	-0.833	-0.341	-2.425	0.185	0.014	-1.221	1.069	1.561	2.508	6.994	6.900	1.211	5.716	226.562
-4.044	-1.412	-4.070	0.062	-0.819	-2.922	-1.368	-0.501	2.045	-0.486	1.549	0.855	-0.284	-0.791	-4.173	-0.854	-0.418	-2.638	0.179	0.062	-0.982	1.187	1.557	2.703	6.882	6.898	1.396	5.899	230.469
-4.174	-1.454	-4.224	0.013	-0.807	-2.956	-1.220	-0.487	2.033	-0.245	1.667	1.279	0.133	-0.455	-4.217	-0.908	-0.502	-2.825	0.171	0.101	-0.707	1.277	1.501	2.841	6.684	6.804	1.529	6.054	234.375
-4.274	-1.484	-4.330	-0.018	-0.780	-2.938	-0.992	-0.451	2.026	0.000	1.783	1.742	0.545	-0.100	-4.254	-0.990	-0.590	-2.983	0.152	0.133	-0.400	1.343	1.404	2.929	6.412	6.616	1.595	6.144	238.281
-4.348	-1.490	-4.385	-0.010	-0.716	-2.857	-0.703	-0.394	2.021	0.231	1.881	2.188	0.937	0.273	-4.300	-1.088	-0.684	-3.109	0.121	0.170	-0.061	1.389	1.285	2.980	6.093	6.346	1.587	6.140	242.188
-4.405	-1.462	-4.396	0.051	-0.599	-2.714	-0.382	-0.320	2.013	0.434	1.945	2.559	1.294	0.662	-4.368	-1.184	-0.781	-3.205	0.081	0.223	0.307	1.430	1.167	3.009	5.759	6.016	1.505	6.025	246.094
-4.464	-1.401	-4.375	0.170	-0.421	-2.514	-0.058	-0.238	2.001	0.598	1.965	2.803	1.611	1.062	-4.470	-1.261	-0.881	-3.271	0.039	0.305	0.701	1.479	1.072	3.031	5.450	5.659	1.358	5.796	250.000
-4.547	-1.314	-4.343	0.340	-0.186	-2.273	0.241	-0.156	1.982	0.719	1.934	2.887	1.884	1.467	-4.612	-1.306	-0.980	-3.306	0.010	0.421	1.114	1.552	1.024	3.057	5.205	5.313	1.165	5.474	253.906
-4.675	-1.216	-4.324	0.543	0.092	-2.008	0.490	-0.085	1.956	0.799	1.850	2.798	2.115	1.867	-4.796	-1.314	-1.071	-3.310	0.007	0.571	1.533	1.662	1.040	3.096	5.053	5.014	0.951	5.090	257.812
-4.860	-1.124	-4.342	0.755	0.391	-1.740	0.676	-0.031	1.922	0.843	1.721	2.548	2.308	2.251	-5.020	-1.288	-1.145	-3.281	0.046	0.750	1.946	1.816	1.130	3.150	5.014	4.794	0.747	4.688	261.719
-5.108	-1.058	-4.412	0.950	0.687	-1.491	0.795	0.006	1.884	0.862	1.558	2.172	2.470	2.610	-5.281	-1.239	-1.192	-3.225	0.134	0.945	2.339	2.017	1.295	3.220	5.090	4.670	0.580	4.309	265.625
-5.411	-1.033	-4.545	1.104	0.957	-1.275	0.854	0.027	1.850	0.867	1.378	1.721	2.610	2.934	-5.570	-1.187	-1.205	-3.151	0.272	1.145	2.702	2.261	1.529	3.301	5.266	4.648	0.477	3.994	269.531
-5.758	-1.055	-4.738	1.203	1.186	-1.104	0.869	0.041	1.830	0.875	1.204	1.256	2.736	3.222	-5.880	-1.153	-1.184	-3.078	0.452	1.336	3.030	2.536	1.814	3.389	5.514	4.716	0.455	3.771	273.438
-6.131	-1.124	-4.977	1.245	1.368	-0.978	0.864	0.057	1.838	0.898	1.060	0.841	2.859	3.473	-6.202	-1.155	-1.134	-3.032	0.659	1.511	3.324	2.828	2.126	3.481	5.799	4.856	0.521	3.657	277.344
-6.511	-1.230	-5.241	1.237	1.508	-0.893	0.865	0.087	1.886	0.947	0.966	0.531	2.987	3.692	-6.525	-1.204	-1.069	-3.040	0.871	1.664	3.585	3.118	2.436	3.576	6.083	5.041	0.673	3.656	281.250
-6.881	-1.355	-5.504	1.198	1.617	-0.839	0.895	0.137	1.984	1.030	0.938	0.370	3.127	3.884	-6.843	-1.302	-1.009	-3.128	1.064	1.796	3.817	3.387	2.713	3.671	6.332	5.244	0.896	3.761	285.156
-7.226	-1.479	-5.739	1.149	1.711	-0.802	0.972	0.212	2.133	1.146	0.983	0.381	3.282	4.052	-7.149	-1.439	-0.972	-3.311	1.219	1.909	4.019	3.617	2.932	3.768	6.522	5.441	1.168	3.955	289.062
-7.536	-1.583	-5.924	1.109	1.803	-0.769	1.105	0.309	2.326	1.290	1.096	0.567	3.452	4.196	-7.437	-1.597	-0.976	-3.588	1.321	2.009	4.191	3.795	3.075	3.863	6.640	5.611	1.464	4.212	292.969
-7.803	-1.654	-6.046	1.094	1.904	-0.731	1.293	0.423	2.549	1.449	1.265	0.904	3.631	4.315	-7.705	-1.755	-1.033	-3.942	1.365	2.097	4.329	3.915	3.136	3.954	6.683	5.742	1.757	4.504	296.875
-8.019	-1.685	-6.101	1.109	2.014	-0.682	1.523	0.545	2.779	1.608	1.465	1.353	3.809	4.404	-7.946	-1.891	-1.142	-4.333	1.356	2.175	4.428	3.975	3.120	4.033	6.659	5.823	2.020	4.799	300.781
-8.182	-1.678	-6.098	1.150	2.130	-0.622	1.776	0.662	2.997	1.751	1.673	1.854	3.971	4.461	-8.158	-1.989	-1.290	-4.714	1.306	2.240	4.485	3.983	3.045	4.095	6.579	5.850	2.233	5.066	304.688
-8.290	-1.641	-6.051	1.207	2.240	-0.556	2.025	0.766	3.182	1.864	1.861	2.347	4.104	4.484	-8.338	-2.036	-1.453	-5.030	1.234	2.290	4.501	3.952	2.936	4.133	6.458	5.821	2.377	5.277	308.594
-8.344	-1.586	-5.980	1.268	2.331	-0.489	2.242	0.851	3.321	1.938	2.011	2.773	4.196	4.476	-8.484	-2.031	-1.599	-5.237	1.165	2.322	4.479	3.899	2.820	4.141	6.310	5.734	2.442	5.408	312.500
-8.348	-1.527	-5.905	1.319	2.394	-0.429	2.405	0.915	3.412	1.972	2.114	3.086	4.243	4.443	-8.595	-1.975	-1.696	-5.306	1.118	2.336	4.428	3.842	2.724	4.118	6.141	5.592	2.421	5.446	316.406
-8.309	-1.472	-5.841	1.350	2.423	-0.377	2.501	0.962	3.457	1.973	2.172	3.264	4.244	4.395	-8.675	-1.875	-1.717	-5.232	1.110	2.334	4.359	3.795	2.662	4.066	5.958	5.398	2.321	5.386	320.312
-8.239	-1.430	-5.799	1.356	2.420	-0.337	2.529	1.000	3.467	1.957	2.200	3.309	4.208	4.345	-8.728	-1.744	-1.649	-5.034	1.146	2.321	4.281	3.768	2.641	3.988	5.765	5.163	2.154	5.240	324.219
-8.154	-1.406	-5.785	1.333	2.389	-0.307	2.500	1.043	3.457	1.943	2.224	3.246	4.148	4.302	-8.764	-1.597	-1.496	-4.751	1.221	2.302	4.205	3.762	2.654	3.896	5.568	4.908	1.947	5.036	328.125
-8.073	-1.406	-5.799	1.278	2.340	-0.288	2.434	1.101	3.445	1.950	2.273	3.121	4.081	4.273	-8.794	-1.456	-1.282	-4.437	1.318	2.278	4.135	3.772	2.688	3.800	5.380	4.661	1.734	4.812	332.031
-8.017	-1.438	-5.840	1.189	2.280	-0.281	2.352	1.185	3.445	1.993	2.374	2.987	4.023	4.260	-8.828	-1.343	-1.044	-4.145	1.413	2.246	4.070	3.788	2.728	3.717	5.221	4.457	1.556	4.616	335.938
-8.005	-1.509	-5.907	1.063	2.213	-0.290	2.271	1.301	3.468	2.079	2.545	2.896	3.986	4.260	-8.876	-1.280	-0.826	-3.921	1.481	2.196	4.004	3.799	2.758	3.663	5.118	4.335	1.451	4.494	339.844
-8.049	-1.626	-5.995	0.895	2.140	-0.318	2.202	1.447	3.518	2.204	2.788	2.885	3.976	4.266	-8.940	-1.283	-0.669	-3.793	1.500	2.116	3.930	3.793	2.774	3.649	5.095	4.323	1.447	4.483	343.750
-8.155	-1.793	-6.098	0.685	2.056	-0.369	2.144	1.616	3.593	2.353	3.084	2.966	3.992	4.268	-9.018	-1.362	-0.601	-3.767	1.457	1.993	3.839	3.767	2.779	3.682	5.171	4.436	1.554	4.595	347.656
-8.314	-2.004	-6.207	0.440	1.959	-0.443	2.086	1.794	3.683	2.500	3.399	3.126	4.023	4.255	-9.100	-1.512	-0.630	-3.824	1.355	1.820	3.729	3.720	2.785	3.758	5.350	4.666	1.760	4.819	351.562
-8.508	-2.248	-6.310	0.172	1.849	-0.532	2.017	1.965	3.775	2.618	3.687	3.326	4.052	4.220	-9.172	-1.716	-0.744	-3.931	1.206	1.601	3.603	3.658	2.806	3.863	5.620	4.981	2.031	5.113	355.469
-8.712	-2.504	-6.394	-0.097	1.734	-0.625	1.923	2.118	3.859	2.681	3.905	3.513	4.059	4.160	-9.221	-1.949	-0.915	-4.045	1.031	1.350	3.467	3.590	2.854	3.972	5.951	5.333	2.315	5.421	359.375
-8.894	-2.748	-6.445	-0.344	1.623	-0.705	1.799	2.245	3.929	2.674	4.020	3.629	4.028	4.071	-9.239	-2.182	-1.111	-4.128	0.854	1.088	3.332	3.521	2.934	4.058	6.303	5.664	2.558	5.679	363.281
-9.031	-2.957	-6.456	-0.548	1.530	-0.754	1.651	2.352	3.991	2.598	4.023	3.636	3.947	3.956	-9.226	-2.392	-1.303	-4.154	0.692	0.837	3.206	3.452	3.041	4.094	6.633	5.925	2.711	5.837	367.188
-9.104	-3.118	-6.423	-0.694	1.470	-0.756	1.494	2.452	4.062	2.470	3.929	3.518	3.814	3.818	-9.193	-2.567	-1.473	-4.113	0.552	0.613	3.090	3.380	3.161	4.062	6.904	6.085	2.750	5.869	371.094
-9.109	-3.227	-6.348	-0.779	1.450	-0.701	1.350	2.563	4.164	2.325	3.780	3.293	3.638	3.659	-9.156	-2.708	-1.622	-4.016	0.428	0.421	2.982	3.295	3.274	3.957	7.093	6.136	2.672	5.778	375.000
-9.053	-3.289	-6.238	-0.810	1.473	-0.587	1.243	2.707	4.324	2.202	3.632	3.010	3.438	3.484	-9.135	-2.830	-1.764	-3.885	0.306	0.255	2.872	3.187	3.357	3.791	7.191	6.090	2.497	5.594	378.906
-8.949	-3.317	-6.099	-0.802	1.536	-0.416	1.193	2.902	4.560	2.140	3.543	2.731	3.237	3.298	-9.144	-2.951	-1.923	-3.750	0.166	0.098	2.751	3.047	3.393	3.587	7.197	5.970	2.262	5.355	382.812
-8.815	-3.327	-5.939	-0.772	1.630	-0.199	1.215	3.155	4.878	2.168	3.560	2.524	3.062	3.108	-9.189	-3.091	-2.122	-3.639	-0.009	-0.064	2.615	2.871	3.372	3.374	7.122	5.798	2.002	5.101	386.719
-8.666	-3.331	-5.761	-0.737	1.743	0.050	1.315	3.460	5.265	2.297	3.708	2.441	2.935	2.926	-9.261	-3.261	-2.376	-3.571	-0.226	-0.243	2.470	2.664	3.293	3.182	6.974	5.589	1.747	4.861	390.625
-8.512	-3.334	-5.571	-0.709	1.864	0.311	1.485	3.799	5.694	2.520	3.986	2.512	2.872	2.766	-9.343	-3.460	-2.685	-3.558	-0.479	-0.439	2.327	2.439	3.167	3.036	6.762	5.346	1.517	4.644	394.531
-8.358	-3.337	-5.373	-0.694	1.983	0.565	1.709	4.141	6.119	2.808	4.365	2.731	2.881	2.644	-9.410	-3.672	-3.036	-3.597	-0.751	-0.639	2.209	2.218	3.009	2.950	6.495	5.066	1.318	4.449	398.438
-8.202	-3.333	-5.175	-0.688	2.093	0.791	1.964	4.447	6.491	3.119	4.796	3.064	2.960	2.577	-9.438	-3.872	-3.398	-3.675	-1.013	-0.819	2.139	2.024	2.842	2.924	6.181	4.744	1.151	4.267	402.344
-8.039	-3.312	-4.984	-0.686	2.191	0.972	2.221	4.679	6.760	3.406	5.213	3.451	3.097	2.576	-9.410	-4.030	-3.734	-3.771	-1.235	-0.946	2.142	1.880	2.688	2.950	5.830	4.381	1.009	4.088	406.250
-7.866	-3.263	-4.810	-0.677	2.278	1.099	2.453	4.801	6.884	3.622	5.551	3.819	3.277	2.651	-9.317	-4.120	-4.004	-3.860	-1.387	-0.992	2.235	1.804	2.566	3.008	5.460	3.988	0.888	3.905	410.156
-7.682	-3.179	-4.657	-0.650	2.359	1.170	2.640	4.791	6.839	3.731	5.749	4.091	3.479	2.803	-9.161	-4.120	-4.174	-3.918	-1.447	-0.931	2.424	1.807	2.489	3.078	5.088	3.589	0.783	3.719	414.062
-7.491	-3.056	-4.531	-0.599	2.440	1.190	2.768	4.638	6.616	3.711	5.763	4.205	3.682	3.027	-8.955	-4.026	-4.223	-3.927	-1.408	-0.754	2.707	1.887	2.466	3.140	4.742	3.217	0.694	3.538	417.969
-7.306	-2.899	-4.432	-0.519	2.528	1.171	2.834	4.349	6.232	3.560	5.575	4.126	3.870	3.309	-8.721	-3.846	-4.148	-3.881	-1.277	-0.467	3.067	2.037	2.494	3.182	4.447	2.911	0.622	3.374	421.875
-7.144	-2.722	-4.364	-0.414	2.626	1.126	2.841	3.950	5.724	3.298	5.194	3.851	4.030	3.628	-8.488	-3.604	-3.964	-3.783	-1.074	-0.094	3.477	2.237	2.568	3.202	4.228	2.711	0.572	3.246	425.781
-7.025	-2.544	-4.327	-0.297	2.732	1.064	2.801	3.477	5.147	2.963	4.668	3.418	4.154	3.960	-8.283	-3.337	-3.700	-3.650	-0.832	0.324	3.899	2.463	2.673	3.205	4.106	2.650	0.552	3.180	429.688
-6.970	-2.392	-4.326	-0.187	2.835	0.994	2.725	2.979	4.575	2.607	4.068	2.899	4.241	4.271	-8.134	-3.087	-3.401	-3.502	-0.589	0.736	4.292	2.686	2.790	3.204	4.088	2.745	0.571	3.204	433.594
-6.990	-2.292	-4.366	-0.108	2.920	0.916	2.629	2.510	4.084	2.290	3.491	2.390	4.293	4.531	-8.058	-2.892	-3.112	-3.366	-0.386	1.089	4.618	2.877	2.899	3.215	4.166	2.996	0.638	3.344	437.500
-7.092	-2.264	-4.454	-0.082	2.968	0.832	2.524	2.120	3.744	2.066	3.032	1.997	4.316	4.713	-8.064	-2.784	-2.877	-3.264	-0.254	1.336	4.844	3.012	2.980	3.247	4.319	3.381	0.755	3.619	441.406
-7.264	-2.322	-4.590	-0.128	2.961	0.739	2.425	1.848	3.606	1.979	2.776	1.807	4.317	4.799	-8.148	-2.779	-2.724	-3.207	-0.214	1.445	4.950	3.074	3.020	3.304	4.508	3.853	0.918	4.025	445.312
-7.487	-2.464	-4.770	-0.253	2.891	0.640	2.339	1.721	3.692	2.048	2.772	1.874	4.305	4.784	-8.293	-2.876	-2.667	-3.197	-0.267	1.405	4.933	3.059	3.014	3.380	4.690	4.345	1.108	4.536	449.219
-7.726	-2.678	-4.978	-0.452	2.760	0.542	2.273	1.744	3.989	2.268	3.025	2.204	4.289	4.679	-8.470	-3.057	-2.697	-3.219	-0.400	1.230	4.808	2.976	2.966	3.463	4.815	4.782	1.298	5.095	453.125
-7.943	-2.937	-5.192	-0.709	2.584	0.454	2.232	1.904	4.448	2.606	3.495	2.749	4.273	4.508	-8.642	-3.294	-2.792	-3.250	-0.584	0.953	4.603	2.842	2.892	3.536	4.846	5.088	1.451	5.623	457.031
-8.099	-3.208	-5.383	-0.995	2.389	0.391	2.214	2.172	4.997	3.009	4.100	3.419	4.259	4.302	-8.770	-3.549	-2.919	-3.264	-0.786	0.621	4.353	2.682	2.811	3.582	4.758	5.205	1.529	6.032	460.938
-8.161	-3.455	-5.520	-1.278	2.206	0.368	2.218	2.505	5.553	3.415	4.733	4.096	4.245	4.097	-8.818	-3.784	-3.043	-3.234	-0.973	0.283	4.096	2.523	2.741	3.591	4.545	5.097	1.498	6.236	464.844
-8.112	-3.646	-5.580	-1.523	2.065	0.394	2.242	2.857	6.034	3.759	5.286	4.659	4.226	3.923	-8.763	-3.967	-3.135	-3.145	-1.119	-0.017	3.862	2.384	2.698	3.557	4.229	4.764	1.341	6.174	468.750
-7.950	-3.758	-5.549	-1.700	1.988	0.474	2.281	3.184	6.380	3.989	5.664	5.007	4.197	3.801	-8.598	-4.076	-3.178	-2.992	-1.212	-0.247	3.672	2.279	2.693	3.483	3.848	4.241	1.056	5.824	472.656
-7.695	-3.783	-5.428	-1.793	1.982	0.602	2.333	3.449	6.553	4.072	5.806	5.076	4.153	3.737	-8.332	-4.100	-3.173	-2.785	-1.256	-0.397	3.532	2.211	2.726	3.380	3.460	3.598	0.670	5.212	476.562
-7.380	-3.727	-5.235	-1.800	2.038	0.762	2.391	3.625	6.550	4.001	5.694	4.852	4.091	3.726	-7.996	-4.046	-3.131	-2.549	-1.266	-0.472	3.434	2.174	2.795	3.264	3.131	2.927	0.229	4.407	480.469
-7.050	-3.614	-5.000	-1.736	2.132	0.928	2.452	3.703	6.392	3.793	5.353	4.375	4.013	3.751	-7.633	-3.934	-3.078	-2.316	-1.268	-0.499	3.362	2.156	2.891	3.155	2.926	2.332	-0.203	3.522	484.375
-6.753	-3.477	-4.764	-1.631	2.230	1.068	2.511	3.685	6.126	3.484	4.845	3.725	3.924	3.788	-7.291	-3.797	-3.045	-2.118	-1.288	-0.511	3.290	2.142	3.003	3.075	2.898	1.911	-0.556	2.688	488.281
-6.530	-3.358	-4.568	-1.526	2.295	1.152	2.563	3.589	5.806	3.127	4.257	3.014	3.830	3.811	-7.018	-3.673	-3.058	-1.984	-1.351	-0.548	3.194	2.118	3.120	3.041	3.078	1.740	-0.764	2.037	492.188
-6.410	-3.298	-4.450	-1.464	2.294	1.156	2.602	3.442	5.489	2.775	3.685	2.360	3.739	3.798	-6.852	-3.598	-3.139	-1.930	-1.467	-0.645	3.055	2.074	3.230	3.068	3.467	1.863	-0.782	1.678	496.094
-6.406	-3.325	-4.434	-1.482	2.208	1.068	2.621	3.279	5.225	2.480	3.217	1.871	3.661	3.734	-6.811	-3.601	-3.290	-1.960	-1.637	-0.825	2.859	2.005	3.323	3.161	4.035	2.276	-0.591	1.678	500.000
-6.509	-3.453	-4.525	-1.600	2.035	0.894	2.613	3.136	5.047	2.278	2.921	1.621	3.600	3.611	-6.894	-3.693	-3.500	-2.061	-1.846	-1.097	2.603	1.913	3.391	3.314	4.718	2.930	-0.208	2.044	503.906
-6.692	-3.677	-4.709	-1.822	1.792	0.656	2.573	3.043	4.972	2.192	2.831	1.641	3.558	3.433	-7.074	-3.867	-3.742	-2.206	-2.071	-1.453	2.293	1.803	3.430	3.509	5.432	3.736	0.319	2.724	507.812
-6.912	-3.969	-4.951	-2.127	1.507	0.391	2.503	3.020	4.995	2.222	2.950	1.912	3.532	3.209	-7.306	-4.101	-3.979	-2.364	-2.286	-1.868	1.945	1.683	3.439	3.718	6.078	4.574	0.916	3.607	511.719
-7.120	-4.290	-5.205	-2.478	1.223	0.142	2.408	3.077	5.096	2.351	3.247	2.368	3.517	2.956	-7.533	-4.357	-4.171	-2.498	-2.460	-2.307	1.580	1.562	3.420	3.910	6.565	5.311	1.493	4.547	515.625
-7.268	-4.588	-5.422	-2.825	0.979	-0.047	2.300	3.204	5.246	2.550	3.668	2.913	3.506	2.694	-7.698	-4.592	-4.277	-2.579	-2.569	-2.724	1.226	1.453	3.380	4.052	6.819	5.829	1.963	5.383	519.531
-7.317	-4.817	-5.560	-3.117	0.812	-0.143	2.193	3.382	5.404	2.778	4.141	3.435	3.494	2.450	-7.754	-4.767	-4.270	-2.584	-2.594	-3.075	0.913	1.370	3.330	4.120	6.803	6.041	2.256	5.967	523.438
-7.247	-4.938	-5.594	-3.310	0.744	-0.127	2.101	3.577	5.532	2.993	4.589	3.828	3.480	2.247	-7.677	-4.850	-4.134	-2.509	-2.522	-3.317	0.672	1.325	3.285	4.102	6.523	5.909	2.331	6.193	527.344
-7.058	-4.931	-5.520	-3.375	0.782	-0.002	2.034	3.752	5.595	3.155	4.945	4.010	3.463	2.109	-7.466	-4.823	-3.873	-2.360	-2.355	-3.420	0.528	1.333	3.262	4.003	6.025	5.452	2.182	6.013	531.250
-6.773	-4.796	-5.355	-3.303	0.915	0.212	1.992	3.870	5.568	3.233	5.153	3.936	3.443	2.049	-7.147	-4.685	-3.509	-2.161	-2.103	-3.368	0.501	1.399	3.274	3.839	5.394	4.745	1.838	5.448	535.156
-6.427	-4.549	-5.127	-3.105	1.118	0.481	1.969	3.905	5.437	3.209	5.183	3.606	3.418	2.067	-6.762	-4.448	-3.080	-1.942	-1.791	-3.165	0.592	1.526	3.331	3.638	4.732	3.899	1.359	4.579	539.062
-6.064	-4.223	-4.872	-2.807	1.358	0.762	1.951	3.840	5.204	3.076	5.033	3.061	3.383	2.153	-6.365	-4.137	-2.638	-1.740	-1.449	-2.833	0.793	1.704	3.433	3.432	4.143	3.045	0.822	3.535	542.969
-5.729	-3.855	-4.621	-2.448	1.597	1.014	1.919	3.677	4.881	2.839	4.723	2.372	3.333	2.282	-6.011	-3.782	-2.236	-1.584	-1.116	-2.412	1.077	1.913	3.572	3.245	3.716	2.309	0.309	2.466	546.875
-5.453	-3.484	-4.397	-2.068	1.800	1.207	1.857	3.427	4.492	2.517	4.294	1.633	3.256	2.424	-5.745	-3.418	-1.921	-1.493	-0.826	-1.950	1.405	2.126	3.732	3.097	3.508	1.790	-0.106	1.521	550.781
-5.259	-3.145	-4.210	-1.707	1.942	1.320	1.753	3.113	4.065	2.132	3.799	0.938	3.144	2.543	-5.599	-3.072	-1.725	-1.474	-0.608	-1.498	1.733	2.317	3.893	2.995	3.539	1.547	-0.368	0.821	554.688
-5.150	-2.862	-4.060	-1.396	2.011	1.348	1.603	2.766	3.631	1.713	3.293	0.370	2.992	2.614	-5.583	-2.771	-1.660	-1.513	-0.479	-1.101	2.019	2.460	4.034	2.936	3.790	1.589	-0.447	0.442	558.594
-5.118	-2.649	-3.941	-1.155	2.005	1.299	1.414	2.415	3.218	1.292	2.828	-0.015	2.801	2.618	-5.691	-2.531	-1.714	-1.590	-0.439	-0.792	2.225	2.539	4.139	2.910	4.209	1.880	-0.339	0.404	562.500
-5.144	-2.508	-3.843	-0.992	1.936	1.193	1.201	2.093	2.851	0.900	2.442	-0.191	2.582	2.554	-5.894	-2.361	-1.858	-1.674	-0.475	-0.588	2.333	2.550	4.195	2.903	4.720	2.347	-0.070	0.674	566.406
-5.202	-2.435	-3.757	-0.906	1.823	1.053	0.982	1.825	2.551	0.566	2.159	-0.165	2.350	2.432	-6.155	-2.260	-2.047	-1.740	-0.564	-0.488	2.337	2.497	4.198	2.902	5.238	2.894	0.314	1.173	570.312
-5.268	-2.417	-3.676	-0.890	1.688	0.904	0.778	1.636	2.334	0.315	1.989	0.027	2.126	2.273	-6.429	-2.220	-2.234	-1.768	-0.677	-0.478	2.250	2.396	4.148	2.897	5.685	3.420	0.751	1.794	574.219
-5.321	-2.440	-3.599	-0.930	1.547	0.767	0.607	1.538	2.209	0.162	1.929	0.333	1.932	2.103	-6.672	-2.228	-2.374	-1.748	-0.786	-0.533	2.095	2.266	4.051	2.880	5.995	3.838	1.175	2.423	578.125
-5.345	-2.489	-3.524	-1.012	1.415	0.656	0.483	1.538	2.178	0.114	1.961	0.692	1.784	1.946	-6.850	-2.269	-2.437	-1.683	-0.871	-0.626	1.900	2.125	3.918	2.847	6.131	4.085	1.523	2.955	582.031
-5.335	-2.553	-3.453	-1.122	1.297	0.576	0.412	1.629	2.237	0.166	2.061	1.048	1.692	1.820	-6.937	-2.327	-2.411	-1.580	-0.921	-0.732	1.693	1.991	3.760	2.798	6.084	4.132	1.747	3.318	585.938
-5.290	-2.621	-3.388	-1.248	1.192	0.528	0.391	1.796	2.372	0.301	2.196	1.353	1.655	1.732	-6.923	-2.388	-2.300	-1.453	-0.935	-0.834	1.499	1.871	3.591	2.734	5.874	3.984	1.816	3.472	589.844
-5.214	-2.687	-3.329	-1.378	1.095	0.502	0.406	2.011	2.563	0.493	2.335	1.572	1.665	1.679	-6.811	-2.443	-2.124	-1.311	-0.921	-0.923	1.330	1.770	3.425	2.658	5.545	3.680	1.727	3.419	593.750
-5.115	-2.748	-3.274	-1.506	0.995	0.486	0.437	2.244	2.782	0.710	2.445	1.686	1.706	1.652	-6.616	-2.486	-1.913	-1.161	-0.891	-0.999	1.193	1.688	3.276	2.574	5.157	3.279	1.494	3.191	597.656
-4.999	-2.801	-3.222	-1.623	0.883	0.467	0.462	2.460	3.001	0.918	2.505	1.693	1.759	1.633	-6.361	-2.515	-1.695	-1.005	-0.860	-1.068	1.086	1.619	3.155	2.488	4.771	2.847	1.156	2.844	601.562
-4.871	-2.845	-3.167	-1.727	0.749	0.431	0.462	2.629	3.192	1.086	2.500	1.600	1.805	1.607	-6.070	-2.529	-1.498	-0.844	-0.840	-1.136	1.001	1.560	3.070	2.406	4.441	2.448	0.761	2.445	605.469
-4.735	-2.878	-3.108	-1.813	0.588	0.368	0.426	2.725	3.333	1.193	2.428	1.428	1.830	1.565	-5.771	-2.531	-1.338	-0.680	-0.836	-1.208	0.933	1.507	3.026	2.336	4.206	2.133	0.366	2.055	609.375
-4.593	-2.898	-3.043	-1.880	0.400	0.272	0.354	2.733	3.407	1.226	2.296	1.204	1.827	1.502	-5.486	-2.522	-1.222	-0.515	-0.854	-1.284	0.875	1.461	3.022	2.289	4.081	1.927	0.021	1.727	613.281
-4.449	-2.902	-2.973	-1.925	0.193	0.144	0.256	2.647	3.408	1.188	2.119	0.959	1.795	1.423	-5.233	-2.505	-1.149	-0.359	-0.891	-1.361	0.825	1.423	3.054	2.276	4.062	1.835	-0.234	1.491	617.188
-4.305	-2.888	-2.900	-1.950	-0.021	-0.011	0.152	2.475	3.338	1.091	1.915	0.721	1.744	1.342	-5.022	-2.478	-1.112	-0.220	-0.944	-1.431	0.786	1.397	3.113	2.305	4.126	1.843	-0.375	1.358	621.094
-4.168	-2.855	-2.827	-1.954	-0.226	-0.181	0.063	2.232	3.208	0.957	1.701	0.517	1.687	1.272	-4.858	-2.442	-1.101	-0.111	-1.006	-1.484	0.760	1.386	3.191	2.380	4.240	1.922	-0.398	1.322	625.000
-4.044	-2.805	-2.759	-1.942	-0.406	-0.352	0.008	1.943	3.036	0.809	1.491	0.367	1.639	1.228	-4.741	-2.394	-1.106	-0.038	-1.072	-1.515	0.753	1.392	3.275	2.498	4.368	2.040	-0.315	1.362	628.906
-3.940	-2.742	-2.701	-1.920	-0.550	-0.510	-0.000	1.636	2.844	0.669	1.297	0.284	1.614	1.217	-4.665	-2.335	-1.119	-0.006	-1.137	-1.520	0.763	1.412	3.352	2.647	4.475	2.164	-0.154	1.451	632.812
-3.862	-2.674	-2.659	-1.894	-0.650	-0.642	0.043	1.345	2.657	0.556	1.126	0.274	1.619	1.239	-4.620	-2.267	-1.138	-0.011	-1.200	-1.502	0.789	1.441	3.413	2.811	4.540	2.270	0.049	1.560	636.719
-3.811	-2.613	-2.633	-1.875	-0.709	-0.739	0.132	1.100	2.496	0.481	0.983	0.334	1.655	1.288	-4.592	-2.198	-1.163	-0.041	-1.262	-1.470	0.821	1.467	3.448	2.967	4.548	2.342	0.257	1.664	640.625
-3.784	-2.568	-2.626	-1.870	-0.732	-0.795	0.258	0.929	2.382	0.450	0.872	0.454	1.712	1.347	-4.568	-2.138	-1.194	-0.081	-1.327	-1.438	0.847	1.476	3.449	3.091	4.499	2.372	0.434	1.743	644.531
-3.772	-2.550	-2.630	-1.887	-0.733	-0.810	0.406	0.851	2.327	0.460	0.793	0.616	1.776	1.396	-4.532	-2.103	-1.234	-0.109	-1.401	-1.420	0.851	1.453	3.412	3.159	4.400	2.357	0.550	1.783	648.438
-3.765	-2.566	-2.638	-1.928	-0.722	-0.788	0.558	0.875	2.335	0.505	0.746	0.793	1.827	1.416	-4.474	-2.111	-1.285	-0.106	-1.488	-1.429	0.822	1.388	3.338	3.152	4.265	2.301	0.588	1.775	652.344
-3.748	-2.617	-2.632	-1.994	-0.714	-0.734	0.696	0.999	2.405	0.575	0.731	0.959	1.845	1.390	-4.389	-2.172	-1.344	-0.055	-1.589	-1.473	0.749	1.274	3.230	3.063	4.112	2.209	0.538	1.713	656.250
-3.708	-2.698	-2.597	-2.081	-0.717	-0.654	0.799	1.207	2.527	0.657	0.743	1.087	1.812	1.308	-4.276	-2.295	-1.407	0.053	-1.702	-1.553	0.631	1.112	3.097	2.893	3.959	2.087	0.404	1.598	660.156
-3.636	-2.801	-2.516	-2.181	-0.735	-0.556	0.853	1.474	2.686	0.739	0.778	1.152	1.718	1.169	-4.143	-2.472	-1.466	0.219	-1.819	-1.663	0.473	0.915	2.953	2.655	3.821	1.941	0.199	1.430	664.062
-3.529	-2.912	-2.382	-2.286	-0.769	-0.448	0.845	1.767	2.863	0.808	0.832	1.140	1.561	0.980	-4.003	-2.688	-1.511	0.432	-1.924	-1.792	0.286	0.701	2.811	2.375	3.711	1.782	-0.057	1.220	667.969
-3.394	-3.015	-2.200	-2.385	-0.816	-0.344	0.765	2.046	3.032	0.854	0.898	1.051	1.351	0.758	-3.868	-2.916	-1.529	0.672	-1.999	-1.925	0.086	0.495	2.689	2.086	3.636	1.619	-0.334	0.986	671.875
-3.244	-3.099	-1.986	-2.471	-0.875	-0.259	0.614	2.273	3.169	0.871	0.971	0.899	1.107	0.525	-3.751	-3.121	-1.511	0.914	-2.029	-2.045	-0.105	0.326	2.597	1.824	3.603	1.468	-0.599	0.755	675.781
-3.094	-3.155	-1.770	-2.539	-0.946	-0.214	0.396	2.412	3.250	0.857	1.046	0.712	0.858	0.307	-3.658	-3.273	-1.449	1.132	-2.000	-2.138	-0.271	0.214	2.543	1.622	3.609	1.346	-0.817	0.562	679.688
-2.962	-3.176	-1.584	-2.588	-1.030	-0.226	0.124	2.438	3.256	0.815	1.116	0.531	0.635	0.128	-3.593	-3.345	-1.341	1.305	-1.908	-2.193	-0.395	0.174	2.526	1.505	3.652	1.270	-0.954	0.441	683.594
-2.858	-3.163	-1.457	-2.617	-1.130	-0.309	-0.184	2.344	3.181	0.753	1.179	0.397	0.467	0.004	-3.549	-3.322	-1.194	1.417	-1.761	-2.204	-0.470	0.206	2.539	1.483	3.717	1.252	-0.990	0.420	687.500
-2.784	-3.115	-1.406	-2.626	-1.245	-0.468	-0.503	2.135	3.026	0.681	1.229	0.342	0.378	-0.052	-3.514	-3.201	-1.020	1.464	-1.577	-2.169	-0.492	0.298	2.567	1.546	3.788	1.292	-0.915	0.512	691.406
-2.730	-3.033	-1.428	-2.613	-1.372	-0.691	-0.808	1.836	2.804	0.609	1.262	0.385	0.374	-0.042	-3.473	-2.992	-0.833	1.450	-1.383	-2.092	-0.468	0.425	2.591	1.672	3.840	1.380	-0.738	0.709	695.312
-2.680	-2.914	-1.503	-2.569	-1.499	-0.955	-1.076	1.480	2.535	0.543	1.272	0.520	0.452	0.026	-3.409	-2.715	-0.651	1.384	-1.208	-1.977	-0.406	0.557	2.593	1.822	3.847	1.489	-0.488	0.980	699.219
-2.611	-2.756	-1.598	-2.488	-1.611	-1.225	-1.289	1.107	2.243	0.484	1.253	0.723	0.592	0.137	-3.305	-2.392	-0.487	1.286	-1.077	-1.833	-0.318	0.664	2.554	1.956	3.785	1.586	-0.204	1.277	703.125
-2.503	-2.558	-1.674	-2.361	-1.690	-1.464	-1.439	0.756	1.948	0.429	1.195	0.952	0.766	0.268	-3.152	-2.048	-0.349	1.174	-1.005	-1.665	-0.218	0.721	2.467	2.038	3.640	1.632	0.067	1.541	707.031
-2.341	-2.322	-1.696	-2.185	-1.722	-1.637	-1.527	0.457	1.669	0.371	1.091	1.158	0.941	0.401	-2.946	-1.706	-0.239	1.073	-0.997	-1.481	-0.117	0.717	2.332	2.044	3.410	1.595	0.284	1.713	710.938
-2.120	-2.054	-1.644	-1.966	-1.704	-1.725	-1.562	0.231	1.415	0.301	0.937	1.291	1.088	0.518	-2.693	-1.384	-0.154	1.000	-1.041	-1.290	-0.023	0.654	2.160	1.964	3.107	1.454	0.417	1.747	714.844
-1.846	-1.770	-1.512	-1.719	-1.639	-1.719	-1.560	0.086	1.195	0.214	0.731	1.315	1.186	0.607	-2.408	-1.097	-0.089	0.970	-1.119	-1.098	0.059	0.546	1.970	1.810	2.755	1.208	0.458	1.619	718.750
-1.537	-1.489	-1.314	-1.466	-1.544	-1.631	-1.538	0.021	1.012	0.106	0.484	1.208	1.223	0.661	-2.112	-0.856	-0.038	0.987	-1.204	-0.914	0.125	0.417	1.789	1.605	2.389	0.875	0.414	1.331	722.656
-1.222	-1.236	-1.080	-1.235	-1.441	-1.482	-1.511	0.025	0.871	-0.017	0.214	0.975	1.201	0.683	-1.830	-0.670	0.002	1.047	-1.274	-0.746	0.175	0.294	1.639	1.383	2.048	0.490	0.311	0.916	726.562
-0.932	-1.034	-0.846	-1.053	-1.352	-1.303	-1.490	0.085	0.775	-0.145	-0.052	0.641	1.132	0.676	-1.587	-0.541	0.028	1.134	-1.310	-0.601	0.212	0.201	1.539	1.178	1.768	0.100	0.183	0.426	730.469
-0.698	-0.901	-0.653	-0.942	-1.298	-1.127	-1.479	0.182	0.729	-0.264	-0.283	0.252	1.034	0.648	-1.404	-0.469	0.037	1.227	-1.301	-0.486	0.239	0.154	1.498	1.020	1.578	-0.244	0.066	-0.069	734.375
-0.545	-0.849	-0.534	-0.911	-1.290	-0.984	-1.478	0.299	0.739	-0.359	-0.450	-0.136	0.923	0.607	-1.294	-0.449	0.024	1.304	-1.248	-0.403	0.257	0.159	1.515	0.928	1.494	-0.499	-0.010	-0.499	738.281
-0.486	-0.874	-0.510	-0.959	-1.328	-0.895	-1.485	0.417	0.801	-0.417	-0.532	-0.467	0.816	0.561	-1.260	-0.472	-0.013	1.346	-1.159	-0.350	0.270	0.215	1.581	0.906	1.516	-0.635	-0.025	-0.804	742.188
-0.524	-0.966	-0.586	-1.071	-1.403	-0.867	-1.495	0.522	0.911	-0.434	-0.520	-0.696	0.722	0.516	-1.296	-0.519	-0.073	1.340	-1.046	-0.323	0.278	0.311	1.682	0.950	1.632	-0.640	0.025	-0.943	746.094
-0.648	-1.100	-0.747	-1.219	-1.499	-0.899	-1.507	0.604	1.055	-0.409	-0.418	-0.798	0.646	0.476	-1.385	-0.574	-0.149	1.283	-0.924	-0.310	0.283	0.431	1.800	1.041	1.817	-0.524	0.133	-0.905	750.000
-0.837	-1.248	-0.967	-1.372	-1.592	-0.975	-1.521	0.658	1.218	-0.349	-0.247	-0.773	0.586	0.445	-1.511	-0.615	-0.231	1.177	-0.808	-0.301	0.286	0.556	1.916	1.156	2.037	-0.314	0.278	-0.705	753.906
-1.062	-1.378	-1.208	-1.494	-1.661	-1.074	-1.536	0.687	1.383	-0.267	-0.030	-0.639	0.540	0.425	-1.652	-0.626	-0.311	1.029	-0.712	-0.284	0.292	0.671	2.013	1.272	2.256	-0.049	0.435	-0.383	757.812
-1.288	-1.463	-1.430	-1.558	-1.686	-1.168	-1.554	0.700	1.532	-0.175	0.204	-0.433	0.506	0.417	-1.791	-0.596	-0.381	0.848	-0.646	-0.254	0.301	0.758	2.074	1.366	2.445	0.228	0.577	0.005	761.719
-1.484	-1.485	-1.599	-1.548	-1.659	-1.234	-1.571	0.709	1.652	-0.082	0.431	-0.198	0.480	0.419	-1.916	-0.524	-0.436	0.644	-0.618	-0.208	0.317	0.805	2.087	1.422	2.578	0.477	0.682	0.399	765.625
-1.619	-1.439	-1.690	-1.462	-1.582	-1.253	-1.582	0.727	1.731	0.004	0.634	0.026	0.466	0.428	-2.021	-0.418	-0.476	0.426	-0.633	-0.153	0.341	0.806	2.048	1.432	2.646	0.668	0.737	0.746	769.531
-1.675	-1.331	-1.694	-1.313	-1.464	-1.216	-1.581	0.764	1.762	0.081	0.804	0.208	0.464	0.438	-2.105	-0.297	-0.506	0.203	-0.690	-0.100	0.370	0.760	1.956	1.399	2.647	0.784	0.739	1.008	773.438
-1.641	-1.176	-1.613	-1.123	-1.326	-1.123	-1.557	0.824	1.743	0.148	0.942	0.328	0.480	0.444	-2.174	-0.179	-0.531	-0.022	-0.784	-0.062	0.400	0.672	1.821	1.331	2.594	0.824	0.699	1.163	777.344
-1.519	-0.996	-1.462	-0.919	-1.187	-0.983	-1.500	0.907	1.678	0.210	1.053	0.383	0.518	0.439	-2.235	-0.087	-0.559	-0.245	-0.908	-0.056	0.427	0.552	1.654	1.248	2.503	0.797	0.631	1.213	781.250
-1.319	-0.810	-1.260	-0.725	-1.066	-0.808	-1.404	1.010	1.572	0.270	1.146	0.378	0.579	0.418	-2.295	-0.035	-0.596	-0.469	-1.053	-0.090	0.444	0.412	1.470	1.165	2.395	0.721	0.554	1.173	785.156
-1.058	-0.634	-1.030	-0.556	-0.974	-0.612	-1.269	1.128	1.438	0.333	1.231	0.328	0.663	0.381	-2.363	-0.028	-0.643	-0.696	-1.210	-0.167	0.450	0.265	1.282	1.098	2.286	0.617	0.484	1.069	789.062
-0.762	-0.475	-0.789	-0.418	-0.910	-0.409	-1.101	1.254	1.288	0.401	1.317	0.250	0.765	0.331	-2.442	-0.062	-0.701	-0.927	-1.372	-0.280	0.444	0.117	1.099	1.052	2.187	0.505	0.429	0.931	792.969
-0.452	-0.333	-0.553	-0.303	-0.867	-0.207	-0.916	1.384	1.133	0.475	1.409	0.164	0.876	0.272	-2.530	-0.121	-0.768	-1.164	-1.534	-0.415	0.431	-0.026	0.923	1.023	2.102	0.398	0.388	0.786	796.875
