FP1	F3	F7	FC3	C3	C5	P3	P7	PO7	PO3	O1	Oz	Pz	CPz	FP2	Fz	F4	F8	FC4	FCz	Cz	C4	C6	P4	P8	PO8	PO4	O2	time
0.279	-0.219	-0.189	-0.444	-0.479	-0.149	-0.610	-0.483	-1.162	-0.620	-1.311	-0.476	-0.066	0.600	0.120	-0.086	-0.198	0.442	0.341	0.818	0.656	0.123	0.075	-1.059	-0.026	-0.075	-0.182	-0.606	-199.219
0.332	-0.183	-0.096	-0.453	-0.453	-0.273	-0.699	-0.719	-1.277	-0.776	-1.397	-0.504	-0.283	0.371	0.199	0.045	0.113	0.607	0.484	0.844	0.503	0.235	0.252	-0.831	0.132	0.020	-0.304	-0.668	-195.312
0.377	-0.144	-0.010	-0.448	-0.412	-0.373	-0.787	-0.929	-1.376	-0.910	-1.464	-0.517	-0.474	0.158	0.264	0.163	0.373	0.743	0.608	0.858	0.358	0.332	0.406	-0.618	0.281	0.104	-0.411	-0.720	-191.406
0.402	-0.104	0.060	-0.421	-0.348	-0.430	-0.863	-1.085	-1.439	-1.002	-1.494	-0.503	-0.617	-0.025	0.301	0.255	0.540	0.825	0.692	0.849	0.230	0.402	0.519	-0.434	0.413	0.169	-0.489	-0.752	-187.500
0.401	-0.067	0.109	-0.372	-0.258	-0.433	-0.919	-1.161	-1.448	-1.033	-1.472	-0.455	-0.691	-0.166	0.304	0.307	0.587	0.838	0.724	0.811	0.124	0.436	0.583	-0.287	0.522	0.212	-0.530	-0.754	-183.594
0.370	-0.038	0.137	-0.307	-0.146	-0.381	-0.947	-1.143	-1.388	-0.995	-1.390	-0.370	-0.685	-0.257	0.271	0.309	0.504	0.774	0.694	0.739	0.041	0.430	0.595	-0.185	0.604	0.232	-0.528	-0.720	-179.688
0.310	-0.025	0.144	-0.238	-0.022	-0.280	-0.941	-1.026	-1.252	-0.885	-1.250	-0.253	-0.598	-0.296	0.207	0.259	0.301	0.634	0.599	0.634	-0.021	0.385	0.561	-0.126	0.654	0.231	-0.484	-0.647	-175.781
0.226	-0.034	0.134	-0.179	0.100	-0.144	-0.895	-0.818	-1.041	-0.709	-1.060	-0.113	-0.438	-0.285	0.119	0.157	0.006	0.430	0.444	0.504	-0.063	0.305	0.493	-0.106	0.672	0.216	-0.404	-0.540	-171.875
0.126	-0.067	0.109	-0.143	0.204	0.007	-0.805	-0.537	-0.768	-0.479	-0.838	0.042	-0.224	-0.229	0.021	0.013	-0.339	0.185	0.241	0.358	-0.091	0.200	0.403	-0.117	0.656	0.191	-0.298	-0.405	-167.969
0.017	-0.122	0.068	-0.135	0.277	0.156	-0.668	-0.212	-0.455	-0.213	-0.604	0.200	0.021	-0.138	-0.076	-0.161	-0.686	-0.075	0.009	0.209	-0.106	0.081	0.305	-0.145	0.609	0.163	-0.179	-0.255	-164.062
-0.092	-0.194	0.013	-0.153	0.312	0.291	-0.483	0.127	-0.129	0.070	-0.379	0.351	0.270	-0.020	-0.162	-0.347	-0.989	-0.325	-0.229	0.070	-0.108	-0.038	0.211	-0.179	0.536	0.134	-0.059	-0.104	-160.156
-0.193	-0.271	-0.055	-0.188	0.311	0.402	-0.250	0.447	0.179	0.346	-0.183	0.484	0.496	0.115	-0.231	-0.526	-1.211	-0.538	-0.449	-0.048	-0.097	-0.142	0.129	-0.207	0.442	0.108	0.051	0.033	-156.250
-0.278	-0.341	-0.129	-0.227	0.284	0.487	0.020	0.720	0.439	0.592	-0.033	0.584	0.679	0.260	-0.284	-0.679	-1.328	-0.699	-0.627	-0.137	-0.071	-0.219	0.068	-0.221	0.333	0.081	0.140	0.143	-152.344
-0.338	-0.387	-0.199	-0.251	0.248	0.551	0.309	0.924	0.630	0.786	0.060	0.635	0.808	0.407	-0.323	-0.788	-1.332	-0.797	-0.743	-0.192	-0.026	-0.258	0.031	-0.217	0.216	0.051	0.200	0.213	-148.438
-0.364	-0.397	-0.250	-0.246	0.221	0.598	0.588	1.042	0.734	0.912	0.086	0.623	0.876	0.548	-0.350	-0.840	-1.228	-0.832	-0.784	-0.210	0.038	-0.253	0.022	-0.194	0.093	0.013	0.225	0.235	-144.531
-0.347	-0.358	-0.268	-0.200	0.217	0.634	0.824	1.069	0.747	0.955	0.043	0.535	0.887	0.678	-0.365	-0.824	-1.034	-0.809	-0.745	-0.188	0.122	-0.204	0.040	-0.155	-0.032	-0.040	0.209	0.199	-140.625
-0.283	-0.266	-0.237	-0.108	0.247	0.663	0.981	1.005	0.671	0.910	-0.068	0.366	0.846	0.788	-0.366	-0.735	-0.773	-0.736	-0.629	-0.128	0.223	-0.114	0.081	-0.106	-0.157	-0.110	0.144	0.105	-136.719
-0.173	-0.123	-0.151	0.026	0.306	0.686	1.034	0.862	0.520	0.780	-0.240	0.122	0.763	0.870	-0.346	-0.577	-0.469	-0.624	-0.448	-0.030	0.333	0.008	0.139	-0.053	-0.279	-0.201	0.030	-0.047	-132.812
-0.024	0.058	-0.012	0.186	0.384	0.698	0.969	0.658	0.313	0.576	-0.456	-0.182	0.648	0.914	-0.299	-0.362	-0.151	-0.484	-0.221	0.098	0.441	0.147	0.206	-0.001	-0.393	-0.307	-0.131	-0.246	-128.906
0.146	0.254	0.164	0.352	0.461	0.694	0.793	0.418	0.081	0.320	-0.692	-0.517	0.510	0.910	-0.223	-0.111	0.154	-0.329	0.029	0.243	0.529	0.287	0.270	0.047	-0.487	-0.419	-0.328	-0.470	-125.000
0.313	0.438	0.351	0.498	0.516	0.670	0.532	0.171	-0.143	0.044	-0.915	-0.844	0.359	0.854	-0.125	0.146	0.419	-0.171	0.276	0.387	0.583	0.411	0.322	0.089	-0.549	-0.520	-0.540	-0.691	-121.094
0.449	0.579	0.518	0.598	0.528	0.620	0.228	-0.049	-0.324	-0.217	-1.088	-1.120	0.206	0.743	-0.015	0.375	0.619	-0.026	0.492	0.507	0.588	0.505	0.355	0.126	-0.566	-0.590	-0.740	-0.875	-117.188
0.527	0.652	0.632	0.630	0.485	0.543	-0.070	-0.215	-0.431	-0.427	-1.171	-1.300	0.062	0.585	0.087	0.545	0.737	0.089	0.654	0.578	0.535	0.558	0.363	0.161	-0.525	-0.607	-0.897	-0.986	-113.281
0.528	0.637	0.665	0.583	0.384	0.438	-0.316	-0.307	-0.442	-0.556	-1.133	-1.350	-0.063	0.392	0.162	0.630	0.761	0.158	0.743	0.582	0.421	0.563	0.347	0.200	-0.421	-0.556	-0.981	-0.997	-109.375
0.444	0.530	0.603	0.455	0.229	0.308	-0.471	-0.317	-0.349	-0.584	-0.953	-1.249	-0.158	0.183	0.191	0.612	0.689	0.171	0.747	0.507	0.252	0.520	0.308	0.248	-0.254	-0.426	-0.970	-0.890	-105.469
0.283	0.339	0.447	0.257	0.034	0.159	-0.515	-0.251	-0.162	-0.504	-0.630	-0.998	-0.215	-0.022	0.163	0.491	0.530	0.122	0.661	0.353	0.041	0.434	0.250	0.310	-0.034	-0.217	-0.854	-0.662	-101.562
0.064	0.084	0.213	0.009	-0.183	-0.004	-0.447	-0.128	0.093	-0.327	-0.181	-0.616	-0.228	-0.201	0.077	0.279	0.302	0.017	0.491	0.131	-0.190	0.312	0.178	0.390	0.221	0.059	-0.635	-0.326	-97.656
-0.182	-0.203	-0.071	-0.260	-0.403	-0.171	-0.281	0.023	0.378	-0.075	0.354	-0.143	-0.196	-0.339	-0.057	-0.001	0.031	-0.130	0.252	-0.138	-0.419	0.165	0.097	0.489	0.485	0.381	-0.329	0.090	-93.750
-0.423	-0.488	-0.371	-0.519	-0.606	-0.335	-0.048	0.169	0.653	0.216	0.920	0.372	-0.124	-0.425	-0.218	-0.315	-0.254	-0.297	-0.032	-0.424	-0.619	0.009	0.011	0.601	0.731	0.717	0.036	0.547	-89.844
-0.626	-0.738	-0.651	-0.740	-0.776	-0.486	0.215	0.281	0.879	0.509	1.452	0.872	-0.020	-0.455	-0.382	-0.625	-0.520	-0.456	-0.330	-0.693	-0.770	-0.143	-0.075	0.721	0.929	1.034	0.424	1.002	-85.938
-0.771	-0.924	-0.880	-0.897	-0.900	-0.614	0.472	0.335	1.024	0.766	1.890	1.306	0.105	-0.432	-0.523	-0.892	-0.739	-0.581	-0.609	-0.913	-0.852	-0.274	-0.156	0.837	1.056	1.295	0.799	1.410	-82.031
-0.846	-1.027	-1.035	-0.977	-0.967	-0.715	0.687	0.321	1.073	0.955	2.183	1.632	0.237	-0.367	-0.621	-1.084	-0.884	-0.652	-0.836	-1.059	-0.856	-0.371	-0.227	0.938	1.097	1.470	1.122	1.732	-78.125
-0.849	-1.039	-1.106	-0.973	-0.975	-0.783	0.835	0.238	1.025	1.055	2.302	1.821	0.363	-0.271	-0.663	-1.177	-0.940	-0.658	-0.981	-1.115	-0.779	-0.423	-0.282	1.013	1.048	1.538	1.364	1.938	-74.219
-0.790	-0.963	-1.092	-0.889	-0.925	-0.818	0.902	0.097	0.891	1.058	2.240	1.866	0.470	-0.160	-0.645	-1.160	-0.900	-0.600	-1.028	-1.080	-0.630	-0.424	-0.316	1.052	0.915	1.490	1.503	2.012	-70.312
-0.684	-0.812	-1.004	-0.738	-0.821	-0.822	0.882	-0.084	0.695	0.970	2.015	1.773	0.548	-0.048	-0.571	-1.037	-0.773	-0.489	-0.972	-0.963	-0.421	-0.374	-0.328	1.050	0.718	1.330	1.527	1.953	-66.406
-0.549	-0.606	-0.860	-0.536	-0.675	-0.799	0.785	-0.279	0.468	0.808	1.667	1.566	0.587	0.053	-0.452	-0.824	-0.573	-0.343	-0.826	-0.787	-0.177	-0.283	-0.317	1.002	0.480	1.077	1.439	1.773	-62.500
-0.401	-0.368	-0.679	-0.306	-0.499	-0.753	0.630	-0.461	0.239	0.599	1.246	1.274	0.584	0.131	-0.302	-0.547	-0.327	-0.182	-0.615	-0.580	0.076	-0.168	-0.286	0.907	0.226	0.757	1.255	1.497	-58.594
-0.252	-0.123	-0.485	-0.066	-0.307	-0.688	0.444	-0.603	0.036	0.369	0.811	0.933	0.535	0.178	-0.139	-0.238	-0.061	-0.025	-0.372	-0.373	0.309	-0.049	-0.246	0.766	-0.021	0.402	0.998	1.156	-54.688
-0.111	0.109	-0.292	0.165	-0.114	-0.607	0.255	-0.683	-0.117	0.149	0.413	0.574	0.440	0.190	0.022	0.071	0.196	0.113	-0.134	-0.194	0.495	0.050	-0.205	0.582	-0.243	0.043	0.699	0.784	-50.781
0.018	0.313	-0.112	0.370	0.068	-0.510	0.090	-0.685	-0.209	-0.041	0.095	0.228	0.305	0.162	0.166	0.353	0.422	0.224	0.067	-0.061	0.614	0.109	-0.177	0.363	-0.431	-0.290	0.393	0.415	-46.875
0.133	0.477	0.048	0.539	0.227	-0.398	-0.032	-0.605	-0.234	-0.187	-0.118	-0.084	0.137	0.094	0.281	0.589	0.603	0.308	0.210	0.017	0.653	0.117	-0.170	0.122	-0.583	-0.575	0.110	0.077	-42.969
0.231	0.598	0.189	0.665	0.356	-0.271	-0.104	-0.450	-0.199	-0.285	-0.219	-0.345	-0.054	-0.012	0.364	0.768	0.732	0.366	0.289	0.042	0.608	0.073	-0.191	-0.128	-0.702	-0.799	-0.124	-0.211	-39.062
0.308	0.675	0.311	0.746	0.450	-0.132	-0.127	-0.239	-0.118	-0.339	-0.216	-0.546	-0.256	-0.152	0.415	0.889	0.810	0.404	0.311	0.024	0.489	-0.018	-0.242	-0.367	-0.795	-0.955	-0.292	-0.435	-35.156
0.360	0.714	0.416	0.788	0.508	0.014	-0.113	0.000	-0.008	-0.360	-0.130	-0.683	-0.455	-0.315	0.442	0.956	0.843	0.425	0.291	-0.022	0.311	-0.139	-0.321	-0.581	-0.867	-1.045	-0.392	-0.592	-31.250
0.383	0.723	0.508	0.796	0.533	0.161	-0.083	0.235	0.108	-0.360	0.012	-0.761	-0.638	-0.489	0.455	0.982	0.841	0.435	0.250	-0.076	0.096	-0.273	-0.421	-0.755	-0.926	-1.077	-0.428	-0.685	-27.344
0.377	0.714	0.587	0.785	0.531	0.298	-0.061	0.437	0.212	-0.351	0.183	-0.785	-0.795	-0.659	0.465	0.982	0.816	0.434	0.201	-0.123	-0.131	-0.404	-0.533	-0.882	-0.972	-1.061	-0.417	-0.721	-23.438
0.344	0.695	0.652	0.765	0.509	0.415	-0.068	0.582	0.289	-0.341	0.357	-0.768	-0.918	-0.810	0.476	0.967	0.775	0.426	0.157	-0.151	-0.348	-0.519	-0.649	-0.957	-1.002	-1.005	-0.377	-0.708	-19.531
0.291	0.675	0.700	0.747	0.470	0.499	-0.125	0.660	0.334	-0.329	0.516	-0.718	-1.005	-0.928	0.490	0.949	0.725	0.415	0.119	-0.156	-0.537	-0.610	-0.758	-0.984	-1.011	-0.917	-0.323	-0.656	-15.625
0.226	0.658	0.723	0.737	0.419	0.538	-0.240	0.670	0.347	-0.313	0.652	-0.645	-1.054	-1.003	0.500	0.931	0.667	0.404	0.087	-0.142	-0.689	-0.674	-0.848	-0.965	-0.990	-0.799	-0.265	-0.569	-11.719
0.158	0.641	0.712	0.734	0.356	0.524	-0.410	0.624	0.336	-0.284	0.761	-0.553	-1.067	-1.031	0.496	0.915	0.600	0.400	0.055	-0.117	-0.798	-0.710	-0.909	-0.907	-0.930	-0.649	-0.203	-0.450	-7.812
0.095	0.622	0.659	0.734	0.280	0.452	-0.621	0.540	0.311	-0.231	0.851	-0.442	-1.047	-1.013	0.468	0.894	0.521	0.408	0.020	-0.091	-0.867	-0.719	-0.935	-0.813	-0.826	-0.468	-0.130	-0.302	-3.906
0.040	0.596	0.559	0.732	0.192	0.325	-0.848	0.437	0.284	-0.149	0.929	-0.311	-0.995	-0.955	0.410	0.862	0.430	0.430	-0.022	-0.074	-0.900	-0.706	-0.925	-0.692	-0.681	-0.259	-0.039	-0.128	0.000
-0.004	0.557	0.415	0.723	0.097	0.153	-1.065	0.332	0.263	-0.033	1.004	-0.159	-0.915	-0.869	0.322	0.816	0.326	0.469	-0.071	-0.071	-0.904	-0.676	-0.882	-0.552	-0.505	-0.032	0.078	0.066	3.906
-0.039	0.509	0.239	0.706	0.002	-0.049	-1.247	0.238	0.254	0.112	1.085	0.013	-0.810	-0.767	0.214	0.753	0.212	0.519	-0.125	-0.083	-0.887	-0.635	-0.816	-0.404	-0.315	0.198	0.220	0.269	7.812
-0.069	0.454	0.047	0.684	-0.081	-0.259	-1.375	0.163	0.256	0.275	1.176	0.200	-0.687	-0.664	0.100	0.678	0.093	0.572	-0.181	-0.104	-0.854	-0.590	-0.738	-0.260	-0.134	0.410	0.382	0.466	11.719
-0.097	0.402	-0.138	0.664	-0.139	-0.453	-1.442	0.107	0.268	0.443	1.275	0.390	-0.552	-0.570	0.000	0.601	-0.025	0.619	-0.235	-0.128	-0.808	-0.545	-0.661	-0.131	0.014	0.582	0.547	0.641	15.625
-0.127	0.362	-0.294	0.654	-0.162	-0.610	-1.447	0.069	0.286	0.598	1.376	0.570	-0.416	-0.494	-0.067	0.538	-0.133	0.648	-0.279	-0.143	-0.754	-0.504	-0.595	-0.026	0.108	0.698	0.697	0.776	19.531
-0.161	0.345	-0.405	0.662	-0.142	-0.712	-1.402	0.047	0.303	0.725	1.472	0.723	-0.288	-0.439	-0.092	0.501	-0.224	0.652	-0.304	-0.138	-0.692	-0.466	-0.544	0.049	0.135	0.747	0.811	0.856	23.438
-0.195	0.358	-0.460	0.695	-0.078	-0.750	-1.322	0.037	0.316	0.812	1.547	0.834	-0.179	-0.405	-0.070	0.503	-0.288	0.627	-0.302	-0.104	-0.625	-0.426	-0.510	0.094	0.090	0.728	0.872	0.868	27.344
-0.225	0.406	-0.458	0.757	0.024	-0.720	-1.228	0.035	0.322	0.849	1.587	0.888	-0.099	-0.389	-0.011	0.553	-0.316	0.577	-0.264	-0.033	-0.553	-0.379	-0.486	0.110	-0.018	0.646	0.865	0.805	31.250
-0.246	0.489	-0.406	0.850	0.153	-0.629	-1.135	0.037	0.319	0.834	1.576	0.875	-0.053	-0.386	0.072	0.649	-0.301	0.515	-0.183	0.079	-0.475	-0.318	-0.466	0.101	-0.174	0.512	0.786	0.661	35.156
-0.251	0.603	-0.314	0.972	0.297	-0.490	-1.056	0.037	0.303	0.767	1.495	0.786	-0.043	-0.391	0.161	0.785	-0.240	0.458	-0.059	0.232	-0.391	-0.240	-0.440	0.070	-0.354	0.339	0.635	0.439	39.062
-0.237	0.741	-0.199	1.118	0.439	-0.319	-0.999	0.032	0.274	0.653	1.334	0.619	-0.068	-0.401	0.239	0.949	-0.135	0.421	0.105	0.419	-0.301	-0.144	-0.400	0.017	-0.531	0.143	0.421	0.143	42.969
-0.206	0.888	-0.077	1.277	0.567	-0.138	-0.965	0.021	0.232	0.500	1.085	0.371	-0.126	-0.417	0.290	1.123	0.003	0.420	0.296	0.628	-0.206	-0.035	-0.342	-0.054	-0.673	-0.059	0.160	-0.209	46.875
-0.165	1.028	0.038	1.432	0.666	0.032	-0.952	0.007	0.180	0.317	0.755	0.048	-0.210	-0.443	0.306	1.288	0.156	0.460	0.496	0.840	-0.112	0.078	-0.263	-0.142	-0.751	-0.245	-0.125	-0.589	50.781
-0.127	1.137	0.128	1.563	0.723	0.168	-0.960	0.000	0.126	0.115	0.359	-0.338	-0.320	-0.486	0.282	1.421	0.302	0.539	0.684	1.029	-0.031	0.184	-0.164	-0.241	-0.731	-0.382	-0.405	-0.958	54.688
-0.112	1.190	0.178	1.643	0.725	0.247	-0.991	0.014	0.083	-0.094	-0.075	-0.770	-0.452	-0.558	0.215	1.501	0.414	0.645	0.838	1.166	0.022	0.269	-0.051	-0.340	-0.585	-0.431	-0.648	-1.264	58.594
-0.142	1.162	0.177	1.646	0.660	0.253	-1.047	0.064	0.069	-0.301	-0.510	-1.220	-0.607	-0.674	0.107	1.507	0.466	0.759	0.936	1.220	0.025	0.320	0.069	-0.427	-0.289	-0.347	-0.823	-1.452	62.500
-0.235	1.033	0.112	1.552	0.519	0.170	-1.138	0.162	0.100	-0.497	-0.909	-1.660	-0.787	-0.846	-0.038	1.422	0.439	0.863	0.967	1.165	-0.042	0.326	0.182	-0.484	0.173	-0.090	-0.901	-1.473	66.406
-0.406	0.793	-0.020	1.352	0.297	-0.007	-1.270	0.317	0.189	-0.679	-1.240	-2.060	-0.992	-1.083	-0.213	1.234	0.327	0.940	0.923	0.987	-0.195	0.279	0.273	-0.498	0.801	0.367	-0.868	-1.300	70.312
-0.655	0.444	-0.217	1.049	-0.001	-0.273	-1.448	0.525	0.336	-0.847	-1.483	-2.396	-1.221	-1.387	-0.408	0.944	0.135	0.980	0.810	0.684	-0.442	0.178	0.328	-0.458	1.580	1.021	-0.722	-0.939	74.219
-0.968	0.007	-0.463	0.665	-0.364	-0.614	-1.673	0.772	0.530	-1.003	-1.637	-2.656	-1.470	-1.749	-0.611	0.563	-0.121	0.985	0.639	0.275	-0.778	0.026	0.334	-0.365	2.473	1.841	-0.479	-0.428	78.125
-1.318	-0.486	-0.739	0.230	-0.768	-1.004	-1.935	1.037	0.746	-1.151	-1.712	-2.835	-1.731	-2.153	-0.807	0.114	-0.414	0.964	0.428	-0.209	-1.189	-0.168	0.287	-0.226	3.427	2.760	-0.169	0.160	82.031
-1.668	-0.993	-1.016	-0.217	-1.184	-1.410	-2.220	1.295	0.957	-1.294	-1.731	-2.935	-1.993	-2.576	-0.983	-0.372	-0.719	0.933	0.197	-0.727	-1.648	-0.392	0.188	-0.059	4.376	3.691	0.166	0.737	85.938
-1.979	-1.472	-1.267	-0.636	-1.580	-1.798	-2.506	1.522	1.135	-1.427	-1.717	-2.964	-2.239	-2.988	-1.131	-0.859	-1.014	0.907	-0.036	-1.233	-2.126	-0.628	0.047	0.116	5.251	4.537	0.488	1.217	89.844
-2.219	-1.887	-1.470	-0.998	-1.923	-2.133	-2.770	1.702	1.261	-1.544	-1.688	-2.930	-2.450	-3.362	-1.247	-1.315	-1.285	0.897	-0.254	-1.688	-2.587	-0.860	-0.118	0.275	5.988	5.215	0.764	1.532	93.750
-2.365	-2.211	-1.611	-1.281	-2.186	-2.391	-2.990	1.823	1.329	-1.632	-1.655	-2.838	-2.606	-3.667	-1.331	-1.714	-1.525	0.909	-0.445	-2.061	-2.999	-1.071	-0.288	0.402	6.536	5.662	0.971	1.650	97.656
-2.412	-2.430	-1.685	-1.475	-2.349	-2.555	-3.147	1.882	1.342	-1.680	-1.619	-2.698	-2.691	-3.882	-1.385	-2.037	-1.727	0.938	-0.598	-2.331	-3.331	-1.243	-0.444	0.485	6.862	5.852	1.103	1.572	101.562
-2.366	-2.538	-1.695	-1.574	-2.403	-2.620	-3.233	1.877	1.309	-1.682	-1.578	-2.521	-2.693	-3.988	-1.410	-2.270	-1.886	0.979	-0.701	-2.486	-3.555	-1.363	-0.571	0.522	6.954	5.789	1.161	1.332	105.469
-2.246	-2.539	-1.649	-1.578	-2.346	-2.596	-3.248	1.806	1.239	-1.638	-1.530	-2.322	-2.612	-3.978	-1.404	-2.407	-1.990	1.021	-0.743	-2.524	-3.649	-1.416	-0.660	0.520	6.822	5.511	1.154	0.986	109.375
-2.073	-2.436	-1.560	-1.488	-2.187	-2.498	-3.207	1.667	1.138	-1.558	-1.476	-2.123	-2.457	-3.851	-1.366	-2.442	-2.026	1.056	-0.713	-2.443	-3.599	-1.397	-0.710	0.488	6.490	5.074	1.094	0.598	113.281
-1.872	-2.238	-1.439	-1.304	-1.942	-2.348	-3.132	1.458	1.007	-1.455	-1.420	-1.940	-2.247	-3.617	-1.297	-2.374	-1.982	1.079	-0.604	-2.248	-3.401	-1.303	-0.730	0.436	6.001	4.549	0.996	0.233	117.188
-1.667	-1.956	-1.298	-1.031	-1.630	-2.167	-3.053	1.179	0.847	-1.346	-1.363	-1.790	-2.009	-3.297	-1.204	-2.206	-1.855	1.082	-0.419	-1.948	-3.064	-1.145	-0.732	0.375	5.407	4.007	0.874	-0.059	121.094
-1.478	-1.605	-1.150	-0.679	-1.274	-1.976	-2.997	0.844	0.663	-1.246	-1.303	-1.679	-1.771	-2.918	-1.102	-1.946	-1.651	1.062	-0.168	-1.557	-2.611	-0.937	-0.733	0.309	4.766	3.514	0.747	-0.238	125.000
-1.327	-1.209	-1.006	-0.267	-0.898	-1.791	-2.985	0.476	0.473	-1.163	-1.232	-1.607	-1.563	-2.513	-1.010	-1.612	-1.390	1.010	0.123	-1.097	-2.080	-0.704	-0.749	0.242	4.136	3.124	0.634	-0.284	128.906
-1.234	-0.796	-0.882	0.175	-0.529	-1.621	-3.029	0.110	0.301	-1.099	-1.136	-1.561	-1.404	-2.118	-0.956	-1.231	-1.100	0.916	0.424	-0.597	-1.518	-0.472	-0.790	0.176	3.569	2.874	0.558	-0.186	132.812
-1.220	-0.404	-0.795	0.613	-0.189	-1.473	-3.124	-0.213	0.182	-1.046	-1.002	-1.526	-1.310	-1.767	-0.967	-0.839	-0.819	0.772	0.700	-0.094	-0.973	-0.264	-0.859	0.115	3.110	2.789	0.540	0.052	136.719
-1.302	-0.071	-0.764	1.007	0.099	-1.353	-3.256	-0.452	0.149	-0.995	-0.817	-1.481	-1.282	-1.485	-1.065	-0.474	-0.581	0.571	0.918	0.373	-0.491	-0.100	-0.950	0.067	2.791	2.874	0.600	0.420	140.625
-1.492	0.170	-0.807	1.321	0.319	-1.263	-3.405	-0.577	0.228	-0.935	-0.576	-1.410	-1.316	-1.287	-1.264	-0.178	-0.415	0.314	1.058	0.769	-0.106	0.013	-1.051	0.041	2.634	3.123	0.753	0.900	144.531
-1.787	0.293	-0.937	1.528	0.457	-1.209	-3.551	-0.575	0.430	-0.857	-0.285	-1.300	-1.396	-1.180	-1.567	0.017	-0.338	0.009	1.111	1.066	0.162	0.076	-1.144	0.048	2.643	3.517	1.003	1.468	148.438
-2.174	0.289	-1.158	1.617	0.509	-1.194	-3.677	-0.450	0.745	-0.759	0.042	-1.145	-1.509	-1.156	-1.963	0.090	-0.355	-0.329	1.084	1.249	0.313	0.098	-1.214	0.096	2.814	4.029	1.346	2.099	152.344
-2.628	0.163	-1.466	1.589	0.476	-1.222	-3.775	-0.227	1.146	-0.645	0.383	-0.949	-1.637	-1.202	-2.430	0.038	-0.457	-0.680	0.995	1.317	0.359	0.096	-1.247	0.191	3.131	4.624	1.765	2.763	156.250
-3.112	-0.063	-1.844	1.463	0.369	-1.295	-3.842	0.059	1.591	-0.523	0.712	-0.720	-1.768	-1.299	-2.940	-0.125	-0.622	-1.023	0.870	1.285	0.327	0.085	-1.237	0.331	3.569	5.267	2.234	3.431	160.156
-3.587	-0.355	-2.267	1.269	0.206	-1.411	-3.883	0.364	2.032	-0.406	1.005	-0.477	-1.893	-1.426	-3.456	-0.369	-0.825	-1.340	0.735	1.177	0.247	0.080	-1.188	0.509	4.097	5.921	2.725	4.074	164.062
-4.018	-0.673	-2.707	1.041	0.009	-1.567	-3.903	0.645	2.423	-0.308	1.239	-0.240	-2.006	-1.562	-3.946	-0.654	-1.034	-1.619	0.613	1.026	0.150	0.088	-1.109	0.711	4.683	6.555	3.207	4.668	167.969
-4.381	-0.981	-3.136	0.812	-0.194	-1.755	-3.908	0.866	2.729	-0.239	1.402	-0.032	-2.106	-1.691	-4.381	-0.939	-1.225	-1.857	0.521	0.863	0.061	0.113	-1.016	0.920	5.290	7.144	3.652	5.193	171.875
-4.663	-1.251	-3.529	0.607	-0.380	-1.963	-3.898	1.005	2.929	-0.206	1.492	0.129	-2.189	-1.801	-4.738	-1.190	-1.375	-2.054	0.461	0.715	-0.007	0.149	-0.928	1.116	5.887	7.672	4.043	5.638	175.781
-4.870	-1.467	-3.870	0.441	-0.528	-2.177	-3.868	1.054	3.024	-0.211	1.518	0.227	-2.254	-1.885	-5.005	-1.386	-1.477	-2.217	0.430	0.600	-0.051	0.187	-0.860	1.285	6.444	8.131	4.369	5.999	179.688
-5.014	-1.628	-4.151	0.314	-0.627	-2.384	-3.811	1.022	3.030	-0.247	1.499	0.258	-2.298	-1.943	-5.180	-1.521	-1.529	-2.357	0.416	0.523	-0.079	0.216	-0.825	1.414	6.939	8.521	4.628	6.277	183.594
-5.117	-1.742	-4.372	0.218	-0.678	-2.571	-3.718	0.929	2.976	-0.304	1.459	0.227	-2.316	-1.978	-5.272	-1.605	-1.542	-2.486	0.402	0.476	-0.107	0.226	-0.824	1.501	7.357	8.846	4.828	6.482	187.500
-5.201	-1.828	-4.540	0.139	-0.688	-2.728	-3.583	0.808	2.898	-0.365	1.426	0.152	-2.304	-1.997	-5.297	-1.660	-1.532	-2.616	0.375	0.448	-0.152	0.213	-0.854	1.550	7.690	9.114	4.984	6.626	191.406
-5.285	-1.905	-4.667	0.059	-0.674	-2.850	-3.404	0.691	2.832	-0.408	1.424	0.060	-2.259	-2.002	-5.277	-1.708	-1.519	-2.757	0.323	0.418	-0.227	0.176	-0.905	1.575	7.938	9.334	5.112	6.725	195.312
-5.381	-1.992	-4.771	-0.039	-0.656	-2.936	-3.187	0.613	2.809	-0.410	1.476	-0.014	-2.175	-1.996	-5.238	-1.775	-1.524	-2.918	0.240	0.368	-0.336	0.121	-0.962	1.594	8.106	9.511	5.233	6.793	199.219
-5.494	-2.102	-4.871	-0.165	-0.651	-2.988	-2.943	0.600	2.849	-0.353	1.595	-0.034	-2.051	-1.975	-5.205	-1.878	-1.563	-3.100	0.125	0.284	-0.478	0.058	-1.013	1.631	8.208	9.651	5.366	6.848	203.125
-5.622	-2.244	-4.982	-0.326	-0.670	-3.012	-2.684	0.667	2.961	-0.221	1.788	0.030	-1.883	-1.935	-5.198	-2.025	-1.649	-3.301	-0.020	0.156	-0.641	-0.004	-1.048	1.704	8.258	9.758	5.524	6.904	207.031
-5.760	-2.416	-5.115	-0.520	-0.718	-3.014	-2.421	0.819	3.141	-0.009	2.052	0.201	-1.670	-1.871	-5.233	-2.217	-1.786	-3.513	-0.187	-0.021	-0.810	-0.057	-1.063	1.828	8.270	9.832	5.714	6.972	210.938
-5.900	-2.615	-5.273	-0.739	-0.789	-3.002	-2.160	1.048	3.375	0.282	2.377	0.488	-1.411	-1.778	-5.313	-2.451	-1.975	-3.726	-0.372	-0.242	-0.968	-0.096	-1.058	2.007	8.256	9.871	5.933	7.059	214.844
-6.036	-2.829	-5.451	-0.970	-0.873	-2.979	-1.900	1.337	3.642	0.637	2.745	0.884	-1.110	-1.656	-5.436	-2.715	-2.208	-3.927	-0.567	-0.500	-1.101	-0.119	-1.035	2.233	8.227	9.874	6.169	7.166	218.750
-6.166	-3.048	-5.635	-1.198	-0.954	-2.946	-1.633	1.666	3.919	1.038	3.135	1.364	-0.772	-1.502	-5.593	-2.998	-2.472	-4.107	-0.767	-0.784	-1.199	-0.128	-0.998	2.493	8.188	9.838	6.403	7.287	222.656
-6.292	-3.259	-5.811	-1.408	-1.016	-2.902	-1.347	2.011	4.183	1.460	3.524	1.890	-0.407	-1.320	-5.771	-3.291	-2.751	-4.256	-0.965	-1.077	-1.255	-0.124	-0.948	2.765	8.145	9.764	6.613	7.407	226.562
-6.418	-3.453	-5.962	-1.587	-1.045	-2.841	-1.034	2.348	4.419	1.878	3.884	2.409	-0.029	-1.109	-5.962	-3.581	-3.028	-4.369	-1.155	-1.363	-1.268	-0.108	-0.882	3.031	8.104	9.655	6.780	7.502	230.469
-6.550	-3.622	-6.080	-1.725	-1.032	-2.759	-0.690	2.660	4.615	2.265	4.192	2.864	0.348	-0.871	-6.158	-3.857	-3.285	-4.439	-1.326	-1.622	-1.235	-0.076	-0.796	3.273	8.073	9.517	6.887	7.547	234.375
-6.696	-3.762	-6.162	-1.818	-0.972	-2.651	-0.323	2.932	4.767	2.602	4.424	3.199	0.709	-0.607	-6.359	-4.108	-3.507	-4.466	-1.466	-1.837	-1.157	-0.021	-0.681	3.483	8.057	9.360	6.925	7.511	238.281
-6.861	-3.872	-6.215	-1.865	-0.864	-2.515	0.052	3.156	4.880	2.874	4.566	3.368	1.041	-0.319	-6.567	-4.325	-3.684	-4.448	-1.563	-1.993	-1.035	0.066	-0.526	3.656	8.063	9.196	6.895	7.372	242.188
-7.053	-3.954	-6.253	-1.869	-0.709	-2.355	0.420	3.328	4.961	3.072	4.607	3.349	1.336	-0.008	-6.787	-4.502	-3.811	-4.392	-1.603	-2.080	-0.870	0.196	-0.326	3.799	8.095	9.036	6.805	7.117	246.094
-7.278	-4.016	-6.298	-1.839	-0.511	-2.174	0.764	3.451	5.020	3.198	4.550	3.142	1.590	0.322	-7.021	-4.635	-3.891	-4.309	-1.578	-2.094	-0.663	0.376	-0.077	3.923	8.157	8.891	6.675	6.751	250.000
-7.540	-4.065	-6.370	-1.785	-0.273	-1.981	1.074	3.531	5.068	3.261	4.409	2.779	1.808	0.667	-7.271	-4.729	-3.933	-4.217	-1.488	-2.039	-0.419	0.609	0.216	4.041	8.244	8.772	6.531	6.296	253.906
-7.845	-4.109	-6.487	-1.718	-0.001	-1.785	1.350	3.574	5.113	3.278	4.208	2.318	2.001	1.022	-7.534	-4.791	-3.954	-4.138	-1.340	-1.926	-0.143	0.890	0.539	4.171	8.353	8.691	6.402	5.799	257.812
-8.192	-4.155	-6.657	-1.645	0.298	-1.593	1.596	3.585	5.160	3.272	3.981	1.835	2.186	1.385	-7.809	-4.831	-3.972	-4.096	-1.151	-1.768	0.162	1.209	0.872	4.326	8.473	8.654	6.319	5.318	261.719
-8.578	-4.205	-6.884	-1.574	0.615	-1.413	1.823	3.566	5.207	3.267	3.764	1.413	2.383	1.753	-8.092	-4.862	-4.004	-4.111	-0.941	-1.579	0.488	1.549	1.191	4.519	8.591	8.670	6.311	4.920	265.625
-8.997	-4.259	-7.160	-1.507	0.942	-1.251	2.041	3.516	5.247	3.287	3.595	1.131	2.612	2.128	-8.383	-4.893	-4.065	-4.197	-0.727	-1.370	0.833	1.897	1.475	4.755	8.694	8.744	6.400	4.672	269.531
-9.437	-4.312	-7.473	-1.440	1.270	-1.114	2.255	3.430	5.272	3.349	3.502	1.052	2.890	2.512	-8.683	-4.930	-4.159	-4.359	-0.526	-1.145	1.196	2.239	1.706	5.036	8.766	8.876	6.598	4.621	273.438
-9.883	-4.353	-7.807	-1.367	1.589	-1.007	2.467	3.302	5.274	3.465	3.507	1.212	3.225	2.909	-8.996	-4.969	-4.282	-4.589	-0.345	-0.904	1.580	2.567	1.876	5.356	8.794	9.061	6.905	4.795	277.344
-10.320	-4.372	-8.147	-1.281	1.893	-0.937	2.671	3.130	5.247	3.639	3.614	1.611	3.618	3.321	-9.326	-5.003	-4.422	-4.869	-0.181	-0.644	1.989	2.880	1.985	5.701	8.768	9.284	7.305	5.185	281.250
-10.727	-4.358	-8.478	-1.170	2.178	-0.906	2.859	2.917	5.188	3.862	3.817	2.217	4.056	3.749	-9.672	-5.019	-4.556	-5.175	-0.026	-0.355	2.430	3.180	2.043	6.049	8.679	9.521	7.766	5.753	285.156
-11.089	-4.302	-8.787	-1.027	2.442	-0.913	3.027	2.672	5.103	4.121	4.095	2.966	4.522	4.194	-10.029	-4.999	-4.663	-5.480	0.134	-0.029	2.907	3.471	2.066	6.377	8.522	9.742	8.247	6.429	289.062
-11.396	-4.199	-9.065	-0.850	2.684	-0.951	3.173	2.410	4.997	4.392	4.418	3.774	4.990	4.650	-10.384	-4.931	-4.719	-5.758	0.313	0.341	3.422	3.759	2.070	6.660	8.298	9.913	8.698	7.124	292.969
-11.642	-4.051	-9.304	-0.638	2.903	-1.010	3.301	2.151	4.881	4.650	4.748	4.548	5.434	5.108	-10.721	-4.805	-4.708	-5.988	0.521	0.760	3.971	4.048	2.072	6.878	8.012	10.002	9.073	7.747	296.875
-11.834	-3.864	-9.500	-0.398	3.099	-1.075	3.423	1.914	4.766	4.865	5.046	5.198	5.831	5.557	-11.024	-4.615	-4.622	-6.157	0.765	1.226	4.542	4.341	2.086	7.022	7.679	9.990	9.332	8.213	300.781
-11.983	-3.648	-9.650	-0.137	3.271	-1.131	3.551	1.712	4.658	5.017	5.274	5.652	6.158	5.983	-11.275	-4.364	-4.459	-6.257	1.047	1.733	5.120	4.638	2.121	7.091	7.319	9.867	9.452	8.461	304.688
-12.102	-3.413	-9.753	0.137	3.421	-1.163	3.695	1.555	4.562	5.089	5.400	5.860	6.402	6.370	-11.466	-4.059	-4.226	-6.288	1.363	2.268	5.680	4.935	2.182	7.092	6.959	9.640	9.422	8.460	308.594
-12.205	-3.169	-9.807	0.416	3.547	-1.161	3.861	1.445	4.477	5.074	5.405	5.801	6.554	6.706	-11.593	-3.710	-3.936	-6.258	1.705	2.814	6.201	5.227	2.269	7.037	6.626	9.329	9.249	8.208	312.500
-12.300	-2.924	-9.812	0.694	3.654	-1.119	4.046	1.376	4.400	4.979	5.279	5.486	6.613	6.980	-11.658	-3.331	-3.605	-6.176	2.061	3.349	6.658	5.505	2.377	6.940	6.342	8.961	8.955	7.737	316.406
-12.389	-2.686	-9.772	0.963	3.744	-1.039	4.238	1.342	4.326	4.817	5.032	4.956	6.584	7.185	-11.667	-2.937	-3.255	-6.055	2.415	3.851	7.034	5.761	2.501	6.811	6.126	8.571	8.569	7.102	320.312
-12.467	-2.464	-9.692	1.214	3.817	-0.930	4.416	1.334	4.252	4.609	4.684	4.275	6.479	7.317	-11.633	-2.547	-2.911	-5.912	2.750	4.293	7.318	5.981	2.630	6.659	5.988	8.194	8.129	6.376	324.219
-12.526	-2.265	-9.585	1.437	3.875	-0.806	4.557	1.349	4.180	4.381	4.272	3.524	6.314	7.377	-11.571	-2.181	-2.597	-5.762	3.043	4.653	7.503	6.154	2.754	6.486	5.931	7.863	7.674	5.644	328.125
-12.559	-2.102	-9.466	1.619	3.914	-0.686	4.641	1.383	4.113	4.157	3.840	2.791	6.107	7.366	-11.496	-1.862	-2.339	-5.621	3.274	4.911	7.589	6.266	2.863	6.298	5.951	7.608	7.243	4.988	332.031
-12.562	-1.987	-9.352	1.744	3.928	-0.589	4.653	1.438	4.059	3.958	3.435	2.163	5.877	7.290	-11.428	-1.611	-2.158	-5.503	3.422	5.050	7.582	6.310	2.949	6.098	6.041	7.452	6.870	4.486	335.938
-12.536	-1.934	-9.263	1.797	3.910	-0.534	4.589	1.518	4.027	3.802	3.104	1.714	5.642	7.155	-11.384	-1.448	-2.069	-5.418	3.475	5.062	7.490	6.281	3.007	5.898	6.189	7.413	6.584	4.195	339.844
-12.490	-1.955	-9.214	1.767	3.848	-0.532	4.460	1.625	4.028	3.699	2.888	1.498	5.414	6.967	-11.376	-1.387	-2.079	-5.373	3.424	4.947	7.321	6.182	3.035	5.714	6.386	7.497	6.401	4.153	343.750
-12.438	-2.055	-9.218	1.648	3.736	-0.592	4.284	1.762	4.071	3.654	2.813	1.537	5.202	6.735	-11.410	-1.435	-2.185	-5.367	3.273	4.711	7.087	6.020	3.037	5.564	6.619	7.700	6.324	4.366	347.656
-12.397	-2.238	-9.278	1.440	3.567	-0.709	4.089	1.925	4.160	3.665	2.889	1.822	5.009	6.469	-11.480	-1.591	-2.374	-5.391	3.033	4.371	6.799	5.810	3.018	5.466	6.879	8.006	6.345	4.807	351.562
-12.380	-2.496	-9.386	1.154	3.342	-0.873	3.904	2.110	4.298	3.723	3.102	2.306	4.836	6.181	-11.571	-1.847	-2.625	-5.429	2.726	3.950	6.471	5.569	2.990	5.430	7.156	8.387	6.442	5.416	355.469
-12.395	-2.813	-9.527	0.808	3.070	-1.065	3.756	2.306	4.477	3.816	3.418	2.911	4.680	5.886	-11.659	-2.183	-2.911	-5.461	2.377	3.478	6.117	5.318	2.962	5.458	7.442	8.802	6.584	6.106	359.375
-12.442	-3.169	-9.675	0.428	2.767	-1.260	3.663	2.502	4.687	3.926	3.783	3.537	4.541	5.597	-11.718	-2.575	-3.202	-5.464	2.018	2.985	5.756	5.074	2.947	5.540	7.728	9.203	6.738	6.775	363.281
-12.511	-3.537	-9.802	0.041	2.455	-1.432	3.635	2.686	4.912	4.035	4.136	4.082	4.419	5.332	-11.729	-2.995	-3.474	-5.418	1.676	2.505	5.406	4.852	2.952	5.656	8.006	9.543	6.869	7.322	367.188
-12.587	-3.890	-9.880	-0.327	2.161	-1.559	3.670	2.849	5.131	4.127	4.414	4.454	4.314	5.104	-11.682	-3.411	-3.709	-5.314	1.374	2.062	5.084	4.665	2.982	5.782	8.266	9.780	6.950	7.663	371.094
-12.648	-4.202	-9.886	-0.656	1.912	-1.620	3.757	2.986	5.328	4.192	4.572	4.598	4.231	4.925	-11.579	-3.796	-3.901	-5.151	1.125	1.676	4.806	4.514	3.034	5.893	8.499	9.884	6.968	7.749	375.000
-12.676	-4.458	-9.811	-0.934	1.731	-1.607	3.883	3.101	5.495	4.230	4.592	4.504	4.171	4.801	-11.433	-4.131	-4.051	-4.942	0.931	1.354	4.579	4.397	3.098	5.969	8.690	9.844	6.920	7.570	378.906
-12.657	-4.652	-9.659	-1.159	1.631	-1.516	4.036	3.205	5.632	4.252	4.492	4.213	4.137	4.732	-11.264	-4.406	-4.172	-4.710	0.780	1.090	4.403	4.302	3.160	5.997	8.822	9.661	6.815	7.157	382.812
-12.588	-4.787	-9.448	-1.339	1.617	-1.355	4.206	3.316	5.755	4.279	4.320	3.809	4.130	4.713	-11.091	-4.620	-4.280	-4.481	0.653	0.870	4.274	4.213	3.201	5.977	8.877	9.351	6.669	6.574	386.719
-12.474	-4.877	-9.205	-1.487	1.684	-1.135	4.391	3.456	5.888	4.338	4.149	3.396	4.152	4.736	-10.930	-4.785	-4.394	-4.284	0.527	0.673	4.181	4.117	3.204	5.913	8.835	8.938	6.501	5.906	390.625
-12.326	-4.939	-8.961	-1.619	1.816	-0.874	4.589	3.643	6.057	4.457	4.061	3.082	4.202	4.792	-10.786	-4.918	-4.530	-4.142	0.380	0.480	4.112	3.998	3.155	5.820	8.677	8.446	6.328	5.241	394.531
-12.160	-4.990	-8.742	-1.747	1.992	-0.590	4.800	3.887	6.280	4.657	4.121	2.956	4.282	4.869	-10.658	-5.038	-4.700	-4.069	0.196	0.274	4.054	3.846	3.046	5.712	8.394	7.905	6.164	4.659	398.438
-11.988	-5.040	-8.561	-1.876	2.187	-0.298	5.018	4.184	6.562	4.939	4.366	3.062	4.388	4.960	-10.536	-5.162	-4.905	-4.065	-0.032	0.047	3.999	3.660	2.876	5.600	7.988	7.343	6.017	4.216	402.344
-11.818	-5.094	-8.418	-2.004	2.381	-0.012	5.236	4.513	6.886	5.289	4.789	3.398	4.519	5.058	-10.407	-5.302	-5.138	-4.119	-0.302	-0.198	3.941	3.441	2.654	5.493	7.479	6.788	5.892	3.941	406.250
-11.651	-5.144	-8.294	-2.118	2.554	0.260	5.434	4.841	7.211	5.666	5.331	3.906	4.665	5.159	-10.261	-5.462	-5.383	-4.205	-0.598	-0.447	3.881	3.200	2.398	5.390	6.903	6.267	5.784	3.824	410.156
-11.479	-5.176	-8.158	-2.200	2.700	0.515	5.591	5.124	7.483	6.013	5.896	4.483	4.815	5.258	-10.091	-5.634	-5.616	-4.287	-0.896	-0.675	3.827	2.955	2.135	5.289	6.311	5.800	5.684	3.821	414.062
-11.285	-5.170	-7.972	-2.224	2.817	0.755	5.678	5.321	7.637	6.262	6.359	4.997	4.948	5.352	-9.895	-5.800	-5.806	-4.329	-1.164	-0.854	3.788	2.727	1.894	5.179	5.761	5.399	5.574	3.858	417.969
-11.054	-5.102	-7.704	-2.170	2.913	0.985	5.673	5.396	7.620	6.348	6.598	5.312	5.040	5.436	-9.676	-5.937	-5.926	-4.295	-1.368	-0.954	3.777	2.537	1.708	5.050	5.311	5.069	5.429	3.849	421.875
-10.773	-4.959	-7.338	-2.024	2.998	1.210	5.562	5.334	7.397	6.221	6.518	5.314	5.065	5.505	-9.443	-6.017	-5.952	-4.160	-1.479	-0.954	3.804	2.407	1.605	4.891	5.005	4.804	5.226	3.712	425.781
-10.438	-4.740	-6.881	-1.787	3.081	1.429	5.345	5.141	6.970	5.863	6.076	4.941	5.004	5.555	-9.206	-6.022	-5.872	-3.917	-1.477	-0.847	3.873	2.349	1.600	4.695	4.868	4.597	4.949	3.396	429.688
-10.066	-4.459	-6.365	-1.478	3.163	1.641	5.042	4.850	6.379	5.298	5.301	4.204	4.848	5.577	-8.978	-5.945	-5.693	-3.579	-1.359	-0.643	3.978	2.367	1.697	4.461	4.902	4.442	4.597	2.896	433.594
-9.685	-4.150	-5.846	-1.136	3.238	1.834	4.686	4.509	5.703	4.588	4.291	3.187	4.603	5.568	-8.774	-5.795	-5.438	-3.179	-1.140	-0.371	4.106	2.451	1.883	4.198	5.082	4.338	4.190	2.262	437.500
-9.340	-3.858	-5.393	-0.809	3.292	1.993	4.323	4.178	5.040	3.832	3.198	2.040	4.291	5.522	-8.607	-5.597	-5.145	-2.766	-0.851	-0.073	4.234	2.583	2.129	3.923	5.361	4.288	3.769	1.593	441.406
-9.074	-3.630	-5.075	-0.550	3.309	2.099	3.996	3.912	4.495	3.141	2.202	0.949	3.949	5.442	-8.488	-5.386	-4.862	-2.394	-0.537	0.201	4.337	2.737	2.398	3.665	5.678	4.300	3.386	1.015	445.312
-8.925	-3.504	-4.943	-0.401	3.275	2.137	3.743	3.747	4.152	2.624	1.473	0.099	3.621	5.332	-8.422	-5.200	-4.634	-2.111	-0.248	0.408	4.392	2.885	2.650	3.453	5.971	4.379	3.099	0.655	449.219
-8.910	-3.500	-5.021	-0.388	3.181	2.095	3.588	3.693	4.055	2.359	1.134	-0.363	3.353	5.204	-8.410	-5.071	-4.496	-1.952	-0.024	0.516	4.386	3.005	2.849	3.316	6.181	4.526	2.955	0.609	453.125
-9.022	-3.614	-5.298	-0.510	3.031	1.970	3.540	3.733	4.200	2.381	1.238	-0.355	3.182	5.075	-8.440	-5.013	-4.466	-1.929	0.102	0.515	4.314	3.080	2.971	3.273	6.268	4.730	2.984	0.921	457.031
-9.230	-3.823	-5.732	-0.744	2.837	1.772	3.590	3.827	4.536	2.674	1.760	0.126	3.131	4.960	-8.493	-5.027	-4.543	-2.034	0.121	0.416	4.188	3.105	3.008	3.329	6.212	4.971	3.186	1.569	460.938
-9.484	-4.083	-6.254	-1.050	2.622	1.516	3.720	3.923	4.977	3.179	2.602	1.005	3.205	4.878	-8.548	-5.097	-4.705	-2.237	0.039	0.246	4.027	3.082	2.965	3.473	6.014	5.221	3.539	2.473	464.844
-9.727	-4.346	-6.785	-1.379	2.413	1.229	3.904	3.975	5.423	3.807	3.618	2.152	3.392	4.841	-8.579	-5.198	-4.921	-2.498	-0.122	0.045	3.855	3.022	2.859	3.678	5.699	5.449	3.996	3.509	468.750
-9.905	-4.566	-7.250	-1.683	2.237	0.939	4.117	3.948	5.786	4.456	4.645	3.403	3.666	4.852	-8.567	-5.301	-5.150	-2.774	-0.330	-0.149	3.698	2.939	2.711	3.907	5.305	5.621	4.493	4.529	472.656
-9.981	-4.710	-7.588	-1.925	2.115	0.677	4.337	3.834	6.000	5.036	5.530	4.587	3.991	4.910	-8.500	-5.382	-5.358	-3.026	-0.552	-0.303	3.572	2.846	2.546	4.123	4.877	5.715	4.967	5.393	476.562
-9.937	-4.765	-7.765	-2.085	2.059	0.469	4.548	3.649	6.041	5.479	6.163	5.558	4.325	5.002	-8.379	-5.427	-5.517	-3.225	-0.757	-0.397	3.484	2.752	2.383	4.289	4.467	5.716	5.356	5.989	480.469
-9.782	-4.738	-7.777	-2.164	2.064	0.331	4.740	3.431	5.920	5.747	6.483	6.207	4.627	5.110	-8.214	-5.435	-5.612	-3.350	-0.924	-0.432	3.432	2.665	2.239	4.384	4.124	5.626	5.619	6.251	484.375
-9.545	-4.654	-7.646	-2.179	2.112	0.269	4.908	3.226	5.678	5.834	6.487	6.479	4.863	5.212	-8.022	-5.415	-5.638	-3.389	-1.041	-0.421	3.402	2.588	2.130	4.399	3.887	5.465	5.731	6.167	488.281
-9.266	-4.552	-7.417	-2.162	2.176	0.275	5.051	3.081	5.372	5.755	6.214	6.371	5.004	5.284	-7.822	-5.384	-5.604	-3.339	-1.107	-0.389	3.375	2.521	2.066	4.341	3.788	5.263	5.695	5.779	492.188
-8.993	-4.471	-7.143	-2.150	2.221	0.333	5.167	3.027	5.060	5.545	5.738	5.931	5.036	5.307	-7.632	-5.361	-5.528	-3.200	-1.130	-0.367	3.333	2.466	2.055	4.232	3.842	5.063	5.531	5.173	496.094
-8.766	-4.444	-6.881	-2.172	2.216	0.420	5.254	3.077	4.792	5.245	5.145	5.242	4.957	5.271	-7.465	-5.361	-5.430	-2.981	-1.124	-0.380	3.261	2.419	2.101	4.097	4.043	4.906	5.276	4.462	500.000
-8.613	-4.489	-6.674	-2.245	2.145	0.512	5.309	3.218	4.597	4.896	4.518	4.414	4.777	5.172	-7.326	-5.392	-5.334	-2.696	-1.107	-0.444	3.154	2.379	2.202	3.963	4.371	4.828	4.975	3.766	503.906
-8.544	-4.605	-6.549	-2.369	2.004	0.594	5.327	3.419	4.484	4.535	3.932	3.559	4.518	5.018	-7.213	-5.455	-5.256	-2.367	-1.093	-0.561	3.015	2.342	2.346	3.850	4.782	4.847	4.674	3.194	507.812
-8.552	-4.771	-6.507	-2.523	1.813	0.658	5.305	3.637	4.443	4.191	3.438	2.779	4.209	4.825	-7.114	-5.536	-5.211	-2.020	-1.094	-0.718	2.857	2.306	2.515	3.767	5.220	4.958	4.408	2.817	511.719
-8.606	-4.948	-6.528	-2.674	1.603	0.706	5.242	3.825	4.448	3.885	3.066	2.149	3.883	4.615	-7.014	-5.617	-5.199	-1.680	-1.111	-0.894	2.698	2.267	2.686	3.711	5.618	5.130	4.197	2.663	515.625
-8.666	-5.093	-6.573	-2.782	1.416	0.753	5.137	3.941	4.462	3.627	2.823	1.708	3.571	4.413	-6.895	-5.676	-5.214	-1.372	-1.141	-1.063	2.560	2.225	2.836	3.668	5.912	5.312	4.043	2.706	519.531
-8.684	-5.163	-6.595	-2.812	1.290	0.813	4.996	3.961	4.451	3.421	2.693	1.458	3.298	4.242	-6.740	-5.688	-5.240	-1.110	-1.172	-1.197	2.458	2.179	2.946	3.621	6.045	5.437	3.931	2.879	523.438
-8.618	-5.123	-6.548	-2.740	1.256	0.905	4.827	3.877	4.387	3.265	2.648	1.364	3.084	4.123	-6.539	-5.637	-5.259	-0.900	-1.192	-1.277	2.406	2.135	3.006	3.553	5.985	5.438	3.831	3.079	527.344
-8.439	-4.962	-6.396	-2.559	1.326	1.041	4.641	3.702	4.252	3.151	2.647	1.368	2.939	4.069	-6.291	-5.514	-5.248	-0.738	-1.188	-1.294	2.406	2.098	3.021	3.452	5.724	5.260	3.709	3.194	531.250
-8.142	-4.685	-6.126	-2.282	1.495	1.225	4.454	3.466	4.045	3.071	2.648	1.397	2.865	4.082	-6.002	-5.324	-5.193	-0.610	-1.148	-1.248	2.455	2.076	3.005	3.315	5.287	4.877	3.535	3.125	535.156
-7.743	-4.322	-5.748	-1.940	1.739	1.451	4.280	3.206	3.776	3.013	2.612	1.383	2.853	4.156	-5.688	-5.083	-5.082	-0.499	-1.071	-1.150	2.538	2.077	2.983	3.148	4.731	4.295	3.290	2.807	539.062
-7.280	-3.919	-5.296	-1.578	2.018	1.697	4.134	2.958	3.467	2.964	2.513	1.275	2.888	4.272	-5.371	-4.819	-4.917	-0.388	-0.957	-1.019	2.634	2.107	2.981	2.967	4.134	3.564	2.974	2.227	542.969
-6.806	-3.531	-4.824	-1.246	2.288	1.936	4.023	2.752	3.145	2.912	2.341	1.051	2.949	4.400	-5.078	-4.569	-4.708	-0.265	-0.814	-0.881	2.718	2.167	3.022	2.795	3.588	2.767	2.613	1.430	546.875
-6.379	-3.217	-4.393	-0.992	2.498	2.132	3.949	2.602	2.835	2.847	2.102	0.719	3.011	4.507	-4.835	-4.370	-4.475	-0.124	-0.656	-0.764	2.763	2.255	3.122	2.660	3.187	2.019	2.250	0.514	550.781
-6.052	-3.024	-4.063	-0.859	2.605	2.246	3.902	2.508	2.565	2.763	1.823	0.322	3.054	4.560	-4.667	-4.258	-4.248	0.028	-0.497	-0.692	2.744	2.361	3.279	2.586	3.009	1.440	1.943	-0.382	554.688
-5.863	-2.985	-3.882	-0.871	2.579	2.251	3.864	2.461	2.355	2.661	1.540	-0.076	3.059	4.531	-4.591	-4.255	-4.058	0.180	-0.355	-0.687	2.646	2.473	3.482	2.591	3.103	1.141	1.751	-1.103	558.594
-5.831	-3.110	-3.875	-1.034	2.404	2.126	3.818	2.442	2.219	2.546	1.299	-0.396	3.016	4.404	-4.620	-4.368	-3.934	0.313	-0.245	-0.759	2.461	2.575	3.706	2.685	3.482	1.200	1.722	-1.509	562.500
-5.951	-3.385	-4.039	-1.334	2.087	1.871	3.745	2.429	2.165	2.431	1.141	-0.563	2.923	4.178	-4.750	-4.589	-3.897	0.407	-0.181	-0.911	2.194	2.649	3.916	2.860	4.118	1.645	1.882	-1.496	566.406
-6.199	-3.773	-4.345	-1.737	1.654	1.505	3.638	2.406	2.193	2.329	1.103	-0.517	2.786	3.867	-4.970	-4.889	-3.957	0.443	-0.172	-1.131	1.861	2.680	4.081	3.100	4.940	2.448	2.230	-1.019	570.312
-6.529	-4.222	-4.742	-2.194	1.150	1.064	3.500	2.359	2.294	2.255	1.203	-0.227	2.621	3.497	-5.256	-5.229	-4.111	0.406	-0.221	-1.398	1.489	2.656	4.169	3.376	5.850	3.526	2.734	-0.101	574.219
-6.887	-4.668	-5.163	-2.647	0.632	0.596	3.347	2.282	2.449	2.222	1.443	0.305	2.449	3.108	-5.575	-5.564	-4.340	0.290	-0.326	-1.684	1.111	2.575	4.161	3.652	6.728	4.751	3.339	1.172	578.125
-7.211	-5.048	-5.539	-3.039	0.162	0.156	3.201	2.176	2.631	2.237	1.807	1.043	2.291	2.741	-5.887	-5.848	-4.612	0.101	-0.477	-1.954	0.764	2.440	4.052	3.892	7.455	5.970	3.971	2.659	582.031
-7.445	-5.308	-5.808	-3.321	-0.205	-0.203	3.087	2.045	2.806	2.299	2.259	1.921	2.171	2.439	-6.153	-6.042	-4.889	-0.145	-0.657	-2.175	0.483	2.264	3.851	4.067	7.926	7.027	4.554	4.187	585.938
-7.545	-5.409	-5.926	-3.460	-0.429	-0.441	3.027	1.897	2.940	2.403	2.753	2.851	2.105	2.237	-6.335	-6.120	-5.128	-0.419	-0.844	-2.317	0.297	2.069	3.581	4.154	8.070	7.787	5.014	5.578	589.844
-7.482	-5.337	-5.874	-3.443	-0.490	-0.536	3.034	1.738	3.000	2.533	3.233	3.736	2.105	2.160	-6.405	-6.066	-5.290	-0.682	-1.009	-2.359	0.224	1.880	3.278	4.145	7.856	8.154	5.296	6.667	593.750
-7.250	-5.098	-5.660	-3.276	-0.396	-0.487	3.109	1.577	2.961	2.669	3.642	4.481	2.172	2.217	-6.344	-5.882	-5.343	-0.893	-1.125	-2.293	0.271	1.724	2.982	4.042	7.300	8.082	5.365	7.330	597.656
-6.867	-4.720	-5.316	-2.986	-0.173	-0.315	3.242	1.418	2.811	2.786	3.928	5.002	2.300	2.403	-6.151	-5.579	-5.266	-1.011	-1.164	-2.121	0.433	1.629	2.733	3.862	6.464	7.579	5.211	7.494	601.562
-6.366	-4.246	-4.887	-2.608	0.134	-0.059	3.408	1.264	2.551	2.858	4.046	5.239	2.472	2.695	-5.841	-5.179	-5.051	-1.002	-1.106	-1.857	0.692	1.614	2.567	3.630	5.442	6.703	4.848	7.143	605.469
-5.795	-3.724	-4.426	-2.188	0.474	0.236	3.574	1.118	2.196	2.858	3.970	5.161	2.666	3.058	-5.439	-4.710	-4.707	-0.844	-0.938	-1.523	1.023	1.690	2.506	3.371	4.348	5.546	4.309	6.314	609.375
-5.207	-3.203	-3.980	-1.765	0.798	0.520	3.702	0.979	1.770	2.767	3.688	4.769	2.855	3.450	-4.984	-4.200	-4.253	-0.533	-0.662	-1.146	1.398	1.856	2.561	3.112	3.299	4.228	3.638	5.094	613.281
-4.655	-2.725	-3.585	-1.374	1.066	0.754	3.756	0.847	1.305	2.572	3.206	4.093	3.010	3.825	-4.512	-3.678	-3.723	-0.079	-0.291	-0.753	1.785	2.100	2.727	2.873	2.399	2.871	2.886	3.597	617.188
-4.182	-2.322	-3.263	-1.042	1.252	0.913	3.706	0.722	0.831	2.272	2.551	3.189	3.103	4.143	-4.060	-3.171	-3.158	0.488	0.148	-0.373	2.157	2.398	2.984	2.665	1.729	1.593	2.107	1.958	621.094
-3.821	-2.013	-3.018	-0.783	1.348	0.989	3.536	0.600	0.377	1.877	1.760	2.129	3.115	4.373	-3.655	-2.702	-2.599	1.128	0.619	-0.026	2.489	2.722	3.305	2.494	1.336	0.493	1.352	0.311	625.000
-3.588	-1.806	-2.844	-0.604	1.356	0.989	3.248	0.479	-0.041	1.406	0.883	0.997	3.033	4.495	-3.314	-2.294	-2.088	1.793	1.087	0.271	2.763	3.040	3.657	2.359	1.233	-0.357	0.665	-1.217	628.906
-3.485	-1.700	-2.725	-0.507	1.291	0.930	2.858	0.352	-0.410	0.890	-0.025	-0.124	2.857	4.505	-3.046	-1.963	-1.655	2.435	1.516	0.508	2.968	3.324	4.005	2.257	1.400	-0.912	0.085	-2.520	632.812
-3.501	-1.687	-2.647	-0.487	1.171	0.829	2.399	0.216	-0.728	0.364	-0.906	-1.156	2.599	4.410	-2.850	-1.725	-1.320	3.013	1.878	0.676	3.099	3.552	4.321	2.185	1.790	-1.159	-0.355	-3.516	636.719
-3.614	-1.757	-2.599	-0.542	1.012	0.704	1.912	0.070	-0.993	-0.131	-1.704	-2.027	2.281	4.226	-2.720	-1.589	-1.090	3.495	2.152	0.772	3.153	3.712	4.581	2.142	2.337	-1.111	-0.633	-4.148	640.625
-3.797	-1.899	-2.576	-0.669	0.828	0.565	1.442	-0.083	-1.201	-0.557	-2.361	-2.680	1.934	3.977	-2.648	-1.561	-0.964	3.860	2.328	0.791	3.132	3.795	4.767	2.132	2.967	-0.803	-0.738	-4.389	644.531
-4.020	-2.102	-2.582	-0.863	0.627	0.414	1.033	-0.235	-1.348	-0.877	-2.826	-3.066	1.593	3.690	-2.623	-1.641	-0.930	4.098	2.399	0.731	3.039	3.801	4.869	2.157	3.604	-0.288	-0.668	-4.240	648.438
-4.257	-2.355	-2.625	-1.120	0.413	0.247	0.721	-0.375	-1.423	-1.063	-3.057	-3.154	1.292	3.391	-2.634	-1.821	-0.975	4.209	2.368	0.593	2.883	3.734	4.882	2.220	4.182	0.371	-0.434	-3.726	652.344
-4.487	-2.643	-2.715	-1.428	0.187	0.060	0.532	-0.490	-1.419	-1.096	-3.027	-2.932	1.060	3.105	-2.674	-2.085	-1.083	4.202	2.243	0.381	2.676	3.603	4.806	2.319	4.645	1.106	-0.058	-2.901	656.250
-4.692	-2.952	-2.856	-1.773	-0.049	-0.150	0.474	-0.574	-1.333	-0.976	-2.734	-2.408	0.920	2.856	-2.729	-2.408	-1.238	4.092	2.040	0.106	2.434	3.421	4.649	2.451	4.956	1.847	0.425	-1.840	660.156
-4.865	-3.261	-3.047	-2.132	-0.290	-0.378	0.539	-0.626	-1.174	-0.716	-2.203	-1.620	0.883	2.662	-2.789	-2.755	-1.425	3.900	1.778	-0.215	2.179	3.204	4.424	2.606	5.099	2.532	0.975	-0.636	664.062
-4.998	-3.545	-3.276	-2.477	-0.527	-0.614	0.702	-0.653	-0.965	-0.346	-1.486	-0.633	0.949	2.537	-2.841	-3.091	-1.624	3.654	1.485	-0.555	1.935	2.973	4.148	2.775	5.075	3.107	1.548	0.603	667.969
-5.091	-3.782	-3.522	-2.779	-0.747	-0.841	0.926	-0.667	-0.739	0.089	-0.663	0.465	1.109	2.491	-2.868	-3.377	-1.820	3.385	1.188	-0.886	1.727	2.747	3.843	2.947	4.904	3.533	2.095	1.772	671.875
-5.142	-3.949	-3.757	-3.009	-0.939	-1.041	1.167	-0.685	-0.537	0.539	0.172	1.567	1.342	2.524	-2.860	-3.583	-1.996	3.126	0.914	-1.173	1.576	2.547	3.533	3.113	4.617	3.784	2.576	2.770	675.781
-5.149	-4.028	-3.955	-3.143	-1.088	-1.194	1.384	-0.720	-0.397	0.952	0.925	2.562	1.623	2.632	-2.806	-3.686	-2.137	2.904	0.687	-1.388	1.497	2.387	3.240	3.262	4.253	3.855	2.953	3.520	679.688
-5.109	-4.009	-4.087	-3.170	-1.185	-1.289	1.543	-0.780	-0.345	1.283	1.511	3.350	1.918	2.804	-2.703	-3.674	-2.233	2.743	0.521	-1.508	1.495	2.278	2.984	3.385	3.853	3.755	3.201	3.966	683.594
-5.019	-3.894	-4.134	-3.087	-1.225	-1.318	1.626	-0.861	-0.395	1.500	1.871	3.858	2.196	3.020	-2.555	-3.550	-2.281	2.656	0.423	-1.523	1.566	2.219	2.776	3.470	3.454	3.505	3.305	4.088	687.500
-4.875	-3.692	-4.085	-2.907	-1.206	-1.282	1.629	-0.954	-0.539	1.591	1.977	4.047	2.426	3.256	-2.370	-3.331	-2.286	2.645	0.388	-1.437	1.697	2.201	2.621	3.505	3.084	3.137	3.262	3.894	691.406
-4.677	-3.423	-3.940	-2.649	-1.134	-1.188	1.564	-1.038	-0.752	1.556	1.836	3.921	2.585	3.486	-2.161	-3.042	-2.258	2.705	0.403	-1.265	1.867	2.211	2.516	3.476	2.764	2.684	3.079	3.421	695.312
-4.427	-3.113	-3.709	-2.342	-1.015	-1.048	1.456	-1.090	-0.995	1.414	1.487	3.518	2.657	3.681	-1.941	-2.719	-2.215	2.824	0.450	-1.036	2.053	2.227	2.450	3.373	2.502	2.180	2.775	2.725	699.219
-4.138	-2.792	-3.408	-2.019	-0.862	-0.873	1.333	-1.086	-1.226	1.195	0.991	2.909	2.635	3.816	-1.725	-2.398	-2.173	2.982	0.511	-0.784	2.228	2.231	2.411	3.186	2.298	1.657	2.376	1.878	703.125
-3.826	-2.488	-3.060	-1.709	-0.687	-0.678	1.225	-1.008	-1.402	0.931	0.419	2.177	2.524	3.873	-1.525	-2.112	-2.146	3.162	0.568	-0.542	2.369	2.206	2.385	2.918	2.147	1.139	1.912	0.955	707.031
-3.512	-2.226	-2.691	-1.437	-0.504	-0.472	1.155	-0.848	-1.494	0.656	-0.159	1.404	2.334	3.843	-1.347	-1.887	-2.142	3.348	0.611	-0.341	2.459	2.143	2.359	2.577	2.039	0.648	1.415	0.029	710.938
-3.219	-2.024	-2.322	-1.223	-0.328	-0.265	1.136	-0.608	-1.488	0.399	-0.690	0.661	2.085	3.728	-1.198	-1.737	-2.163	3.527	0.635	-0.201	2.489	2.041	2.329	2.186	1.965	0.198	0.918	-0.837	714.844
-2.969	-1.890	-1.975	-1.077	-0.169	-0.063	1.171	-0.305	-1.392	0.179	-1.136	-0.002	1.799	3.542	-1.076	-1.665	-2.202	3.694	0.641	-0.131	2.456	1.911	2.293	1.778	1.915	-0.201	0.449	-1.598	718.750
-2.775	-1.823	-1.668	-0.997	-0.034	0.127	1.249	0.032	-1.229	0.004	-1.487	-0.560	1.505	3.310	-0.980	-1.658	-2.249	3.846	0.637	-0.125	2.373	1.771	2.259	1.390	1.883	-0.543	0.027	-2.227	722.656
-2.647	-1.812	-1.413	-0.975	0.073	0.298	1.349	0.367	-1.035	-0.123	-1.746	-1.008	1.229	3.063	-0.904	-1.694	-2.292	3.984	0.635	-0.165	2.258	1.642	2.234	1.061	1.860	-0.828	-0.332	-2.717	726.562
-2.582	-1.838	-1.219	-0.995	0.155	0.443	1.448	0.658	-0.850	-0.210	-1.931	-1.353	0.999	2.837	-0.844	-1.748	-2.318	4.108	0.649	-0.226	2.137	1.548	2.227	0.825	1.841	-1.059	-0.622	-3.074	730.469
-2.569	-1.881	-1.092	-1.036	0.217	0.556	1.517	0.870	-0.710	-0.266	-2.063	-1.609	0.838	2.664	-0.797	-1.794	-2.318	4.216	0.688	-0.280	2.037	1.509	2.246	0.703	1.818	-1.238	-0.842	-3.315	734.375
-2.592	-1.921	-1.032	-1.080	0.267	0.629	1.534	0.977	-0.637	-0.301	-2.154	-1.786	0.765	2.568	-0.762	-1.814	-2.289	4.304	0.760	-0.301	1.983	1.535	2.292	0.701	1.786	-1.370	-0.992	-3.453	738.281
-2.634	-1.945	-1.039	-1.112	0.307	0.659	1.483	0.967	-0.641	-0.319	-2.212	-1.886	0.787	2.564	-0.737	-1.801	-2.235	4.362	0.860	-0.276	1.985	1.625	2.361	0.810	1.743	-1.451	-1.070	-3.497	742.188
-2.678	-1.950	-1.109	-1.129	0.336	0.641	1.354	0.845	-0.713	-0.324	-2.229	-1.903	0.903	2.647	-0.720	-1.761	-2.167	4.381	0.979	-0.201	2.044	1.767	2.443	1.007	1.691	-1.474	-1.073	-3.442	746.094
-2.717	-1.941	-1.234	-1.135	0.348	0.573	1.150	0.635	-0.831	-0.312	-2.193	-1.822	1.100	2.800	-0.712	-1.713	-2.102	4.354	1.099	-0.091	2.146	1.936	2.523	1.260	1.637	-1.425	-0.998	-3.274	750.000
-2.751	-1.935	-1.406	-1.143	0.332	0.454	0.884	0.372	-0.964	-0.276	-2.089	-1.628	1.355	2.995	-0.708	-1.680	-2.057	4.275	1.201	0.034	2.265	2.105	2.585	1.534	1.593	-1.292	-0.840	-2.977	753.906
-2.783	-1.948	-1.612	-1.172	0.276	0.288	0.579	0.097	-1.079	-0.208	-1.905	-1.313	1.636	3.193	-0.708	-1.685	-2.051	4.143	1.264	0.142	2.369	2.243	2.611	1.794	1.570	-1.064	-0.600	-2.541	757.812
-2.819	-1.995	-1.838	-1.234	0.173	0.086	0.261	-0.150	-1.147	-0.104	-1.637	-0.881	1.910	3.360	-0.710	-1.747	-2.094	3.966	1.274	0.206	2.428	2.324	2.589	2.010	1.578	-0.742	-0.287	-1.972	761.719
-2.864	-2.085	-2.066	-1.337	0.020	-0.139	-0.042	-0.334	-1.147	0.039	-1.291	-0.352	2.144	3.466	-0.714	-1.870	-2.194	3.755	1.223	0.202	2.419	2.331	2.512	2.164	1.623	-0.337	0.081	-1.296	765.625
-2.915	-2.216	-2.279	-1.479	-0.174	-0.366	-0.305	-0.439	-1.070	0.215	-0.884	0.244	2.315	3.492	-0.723	-2.050	-2.346	3.528	1.114	0.117	2.331	2.260	2.384	2.248	1.704	0.123	0.478	-0.556	769.531
-2.969	-2.376	-2.461	-1.650	-0.395	-0.575	-0.512	-0.460	-0.918	0.415	-0.441	0.868	2.407	3.434	-0.737	-2.269	-2.543	3.304	0.952	-0.050	2.166	2.116	2.215	2.265	1.816	0.603	0.874	0.190	773.438
-3.018	-2.550	-2.599	-1.835	-0.623	-0.747	-0.655	-0.409	-0.701	0.623	0.011	1.484	2.417	3.300	-0.759	-2.502	-2.770	3.101	0.750	-0.290	1.934	1.914	2.021	2.226	1.948	1.065	1.243	0.888	777.344
-3.055	-2.722	-2.690	-2.018	-0.840	-0.868	-0.736	-0.305	-0.437	0.827	0.450	2.066	2.354	3.108	-0.787	-2.726	-3.014	2.928	0.519	-0.589	1.654	1.673	1.823	2.149	2.092	1.479	1.564	1.494	781.250
-3.078	-2.878	-2.735	-2.187	-1.031	-0.935	-0.767	-0.174	-0.143	1.014	0.859	2.599	2.231	2.878	-0.819	-2.922	-3.262	2.791	0.271	-0.927	1.345	1.413	1.634	2.051	2.239	1.827	1.831	1.987	785.156
-3.085	-3.012	-2.743	-2.337	-1.191	-0.954	-0.761	-0.036	0.165	1.178	1.235	3.085	2.069	2.628	-0.851	-3.079	-3.507	2.685	0.014	-1.287	1.024	1.149	1.466	1.950	2.384	2.109	2.046	2.371	789.062
-3.080	-3.124	-2.727	-2.468	-1.324	-0.937	-0.737	0.093	0.474	1.322	1.582	3.536	1.886	2.376	-0.884	-3.200	-3.744	2.602	-0.246	-1.656	0.702	0.890	1.319	1.854	2.524	2.339	2.224	2.671	792.969
-3.066	-3.222	-2.702	-2.586	-1.440	-0.902	-0.711	0.208	0.777	1.452	1.914	3.968	1.700	2.130	-0.915	-3.298	-3.976	2.529	-0.503	-2.022	0.388	0.640	1.188	1.771	2.658	2.540	2.384	2.927	796.875
