FP1	F3	F7	FC3	C3	C5	P3	P7	PO7	PO3	O1	Oz	Pz	CPz	FP2	Fz	F4	F8	FC4	FCz	Cz	C4	C6	P4	P8	PO8	PO4	O2	time
1.749	0.148	-0.329	0.441	0.302	-0.103	-1.056	-1.490	-1.319	-1.152	-1.587	-0.956	-0.040	0.036	0.172	1.333	0.942	0.571	0.851	1.227	0.874	1.127	0.594	0.154	0.320	-0.159	-0.381	-0.328	-199.219
1.353	0.218	-0.436	0.422	0.396	-0.063	-0.750	-1.186	-1.122	-0.825	-1.378	-0.841	0.141	0.066	0.166	1.185	0.862	0.400	0.663	1.233	0.842	0.995	0.395	0.242	0.296	-0.088	-0.199	-0.115	-195.312
0.978	0.286	-0.537	0.403	0.484	-0.019	-0.455	-0.894	-0.928	-0.514	-1.171	-0.726	0.307	0.090	0.153	1.038	0.770	0.229	0.479	1.226	0.803	0.865	0.211	0.322	0.276	-0.018	-0.035	0.089	-191.406
0.646	0.349	-0.621	0.384	0.557	0.028	-0.179	-0.627	-0.741	-0.235	-0.968	-0.613	0.446	0.100	0.130	0.893	0.662	0.064	0.301	1.195	0.756	0.738	0.057	0.382	0.260	0.045	0.093	0.272	-187.500
0.374	0.406	-0.679	0.363	0.612	0.080	0.065	-0.391	-0.567	0.001	-0.772	-0.500	0.546	0.093	0.093	0.751	0.537	-0.090	0.134	1.134	0.698	0.615	-0.061	0.416	0.246	0.093	0.176	0.424	-183.594
0.171	0.456	-0.701	0.341	0.645	0.132	0.270	-0.195	-0.410	0.186	-0.590	-0.390	0.605	0.070	0.044	0.617	0.401	-0.224	-0.021	1.044	0.633	0.497	-0.141	0.419	0.228	0.118	0.211	0.533	-179.688
0.043	0.496	-0.679	0.318	0.655	0.181	0.430	-0.040	-0.273	0.320	-0.427	-0.287	0.621	0.034	-0.013	0.495	0.264	-0.330	-0.157	0.931	0.567	0.389	-0.186	0.388	0.201	0.115	0.200	0.591	-175.781
-0.007	0.524	-0.611	0.294	0.643	0.222	0.538	0.073	-0.162	0.404	-0.292	-0.196	0.598	-0.010	-0.072	0.391	0.136	-0.402	-0.273	0.804	0.505	0.293	-0.202	0.325	0.157	0.076	0.150	0.591	-171.875
0.016	0.541	-0.495	0.271	0.614	0.252	0.593	0.146	-0.078	0.444	-0.192	-0.123	0.543	-0.055	-0.122	0.309	0.029	-0.435	-0.362	0.677	0.455	0.212	-0.197	0.233	0.092	-0.001	0.071	0.529	-167.969
0.107	0.546	-0.338	0.251	0.570	0.270	0.594	0.182	-0.025	0.446	-0.133	-0.077	0.460	-0.095	-0.155	0.255	-0.044	-0.428	-0.425	0.560	0.421	0.149	-0.180	0.118	0.004	-0.116	-0.029	0.407	-164.062
0.254	0.539	-0.150	0.235	0.518	0.277	0.544	0.187	-0.003	0.415	-0.116	-0.063	0.357	-0.125	-0.160	0.227	-0.078	-0.382	-0.464	0.465	0.405	0.102	-0.156	-0.013	-0.102	-0.262	-0.143	0.235	-160.156
0.443	0.520	0.054	0.223	0.460	0.273	0.449	0.168	-0.008	0.359	-0.138	-0.083	0.239	-0.143	-0.130	0.222	-0.071	-0.304	-0.482	0.395	0.405	0.071	-0.129	-0.153	-0.220	-0.428	-0.263	0.025	-156.250
0.655	0.486	0.256	0.213	0.399	0.264	0.318	0.135	-0.035	0.284	-0.191	-0.137	0.112	-0.150	-0.061	0.230	-0.030	-0.207	-0.488	0.352	0.418	0.052	-0.100	-0.290	-0.337	-0.600	-0.384	-0.200	-152.344
0.870	0.437	0.438	0.202	0.338	0.252	0.164	0.095	-0.079	0.198	-0.264	-0.217	-0.017	-0.147	0.045	0.241	0.033	-0.103	-0.488	0.330	0.439	0.044	-0.070	-0.416	-0.442	-0.759	-0.502	-0.419	-148.438
1.066	0.374	0.584	0.191	0.277	0.242	0.000	0.056	-0.132	0.107	-0.346	-0.317	-0.140	-0.138	0.182	0.244	0.102	-0.008	-0.486	0.324	0.462	0.047	-0.039	-0.522	-0.521	-0.887	-0.609	-0.611	-144.531
1.225	0.299	0.683	0.177	0.218	0.236	-0.158	0.023	-0.189	0.017	-0.426	-0.425	-0.250	-0.125	0.335	0.230	0.160	0.067	-0.485	0.324	0.482	0.060	-0.006	-0.599	-0.564	-0.967	-0.699	-0.759	-140.625
1.332	0.219	0.730	0.161	0.161	0.235	-0.297	-0.003	-0.245	-0.069	-0.497	-0.527	-0.340	-0.111	0.488	0.195	0.194	0.118	-0.481	0.321	0.493	0.082	0.028	-0.642	-0.565	-0.988	-0.763	-0.854	-136.719
1.379	0.141	0.726	0.144	0.106	0.237	-0.406	-0.023	-0.297	-0.147	-0.552	-0.613	-0.404	-0.101	0.619	0.140	0.194	0.147	-0.467	0.309	0.493	0.111	0.060	-0.647	-0.522	-0.942	-0.793	-0.893	-132.812
1.360	0.072	0.677	0.126	0.054	0.240	-0.479	-0.040	-0.343	-0.214	-0.588	-0.668	-0.440	-0.095	0.706	0.068	0.160	0.158	-0.439	0.279	0.478	0.144	0.091	-0.614	-0.436	-0.827	-0.781	-0.877	-128.906
1.275	0.018	0.594	0.104	0.004	0.238	-0.511	-0.059	-0.382	-0.266	-0.600	-0.684	-0.445	-0.094	0.730	-0.016	0.097	0.161	-0.392	0.228	0.444	0.175	0.122	-0.543	-0.310	-0.649	-0.723	-0.811	-125.000
1.128	-0.020	0.485	0.073	-0.045	0.226	-0.502	-0.079	-0.408	-0.297	-0.583	-0.653	-0.418	-0.094	0.677	-0.106	0.015	0.159	-0.329	0.153	0.389	0.199	0.154	-0.438	-0.151	-0.418	-0.614	-0.703	-121.094
0.926	-0.046	0.362	0.029	-0.093	0.196	-0.455	-0.100	-0.413	-0.301	-0.532	-0.572	-0.361	-0.094	0.543	-0.198	-0.072	0.152	-0.256	0.055	0.311	0.210	0.187	-0.305	0.029	-0.148	-0.460	-0.557	-117.188
0.681	-0.066	0.233	-0.032	-0.140	0.145	-0.372	-0.117	-0.389	-0.271	-0.443	-0.443	-0.275	-0.088	0.337	-0.290	-0.156	0.135	-0.187	-0.064	0.209	0.203	0.218	-0.153	0.219	0.142	-0.266	-0.380	-113.281
0.406	-0.088	0.107	-0.112	-0.186	0.071	-0.258	-0.123	-0.324	-0.203	-0.313	-0.273	-0.167	-0.075	0.079	-0.383	-0.231	0.100	-0.136	-0.195	0.085	0.175	0.241	0.005	0.400	0.429	-0.049	-0.181	-109.375
0.118	-0.121	-0.012	-0.208	-0.229	-0.020	-0.119	-0.110	-0.210	-0.095	-0.142	-0.075	-0.041	-0.055	-0.200	-0.478	-0.298	0.042	-0.116	-0.332	-0.053	0.124	0.248	0.157	0.556	0.689	0.177	0.030	-105.469
-0.164	-0.170	-0.119	-0.314	-0.265	-0.121	0.036	-0.072	-0.045	0.049	0.063	0.138	0.093	-0.027	-0.464	-0.575	-0.361	-0.043	-0.135	-0.466	-0.200	0.051	0.229	0.290	0.670	0.901	0.390	0.240	-101.562
-0.420	-0.234	-0.210	-0.421	-0.292	-0.218	0.198	-0.008	0.167	0.221	0.291	0.351	0.227	0.006	-0.679	-0.675	-0.425	-0.151	-0.191	-0.587	-0.342	-0.038	0.177	0.396	0.725	1.044	0.576	0.432	-97.656
-0.635	-0.312	-0.284	-0.518	-0.306	-0.299	0.357	0.079	0.412	0.406	0.526	0.549	0.354	0.042	-0.824	-0.775	-0.493	-0.271	-0.274	-0.688	-0.468	-0.138	0.093	0.466	0.714	1.107	0.722	0.591	-93.750
-0.798	-0.397	-0.339	-0.597	-0.307	-0.354	0.501	0.181	0.666	0.588	0.747	0.718	0.466	0.082	-0.889	-0.868	-0.559	-0.388	-0.366	-0.764	-0.565	-0.237	-0.020	0.501	0.637	1.087	0.820	0.705	-89.844
-0.904	-0.483	-0.373	-0.651	-0.295	-0.378	0.618	0.286	0.902	0.746	0.936	0.850	0.557	0.125	-0.880	-0.945	-0.613	-0.486	-0.446	-0.812	-0.626	-0.322	-0.148	0.502	0.502	0.987	0.869	0.765	-85.938
-0.959	-0.564	-0.387	-0.679	-0.273	-0.371	0.698	0.380	1.092	0.864	1.073	0.938	0.625	0.173	-0.813	-0.999	-0.637	-0.549	-0.495	-0.830	-0.647	-0.382	-0.274	0.478	0.325	0.824	0.874	0.769	-82.031
-0.973	-0.635	-0.383	-0.681	-0.244	-0.340	0.732	0.451	1.212	0.927	1.147	0.979	0.663	0.224	-0.710	-1.020	-0.617	-0.565	-0.494	-0.820	-0.628	-0.405	-0.381	0.438	0.129	0.617	0.840	0.723	-78.125
-0.958	-0.691	-0.362	-0.663	-0.216	-0.295	0.716	0.487	1.246	0.928	1.150	0.975	0.669	0.279	-0.593	-1.001	-0.542	-0.530	-0.434	-0.786	-0.578	-0.389	-0.452	0.388	-0.064	0.391	0.776	0.636	-74.219
-0.929	-0.729	-0.330	-0.628	-0.193	-0.249	0.649	0.485	1.192	0.864	1.086	0.929	0.637	0.334	-0.477	-0.940	-0.410	-0.448	-0.313	-0.729	-0.506	-0.333	-0.475	0.334	-0.234	0.169	0.690	0.521	-70.312
-0.893	-0.745	-0.288	-0.582	-0.180	-0.210	0.538	0.446	1.056	0.743	0.967	0.848	0.566	0.383	-0.371	-0.836	-0.231	-0.330	-0.136	-0.656	-0.423	-0.247	-0.446	0.280	-0.366	-0.029	0.589	0.393	-66.406
-0.858	-0.735	-0.240	-0.526	-0.180	-0.184	0.391	0.375	0.855	0.576	0.812	0.742	0.454	0.419	-0.277	-0.694	-0.027	-0.196	0.083	-0.570	-0.342	-0.147	-0.372	0.224	-0.454	-0.191	0.476	0.263	-62.500
-0.824	-0.695	-0.186	-0.458	-0.193	-0.172	0.223	0.284	0.612	0.379	0.641	0.617	0.306	0.435	-0.189	-0.521	0.178	-0.065	0.323	-0.474	-0.269	-0.048	-0.264	0.165	-0.497	-0.308	0.356	0.140	-58.594
-0.789	-0.622	-0.123	-0.376	-0.216	-0.168	0.048	0.186	0.350	0.169	0.477	0.483	0.128	0.424	-0.105	-0.328	0.358	0.045	0.564	-0.374	-0.213	0.031	-0.140	0.099	-0.504	-0.380	0.232	0.028	-54.688
-0.748	-0.514	-0.048	-0.278	-0.244	-0.167	-0.119	0.094	0.096	-0.038	0.335	0.347	-0.069	0.382	-0.020	-0.126	0.491	0.123	0.780	-0.273	-0.177	0.075	-0.019	0.027	-0.483	-0.413	0.108	-0.073	-50.781
-0.700	-0.373	0.041	-0.163	-0.272	-0.160	-0.262	0.017	-0.130	-0.229	0.227	0.217	-0.270	0.310	0.067	0.073	0.565	0.170	0.951	-0.179	-0.162	0.077	0.082	-0.052	-0.447	-0.413	-0.013	-0.163	-46.875
-0.641	-0.208	0.143	-0.034	-0.295	-0.142	-0.374	-0.037	-0.309	-0.394	0.155	0.098	-0.461	0.211	0.152	0.256	0.575	0.195	1.061	-0.099	-0.169	0.035	0.152	-0.135	-0.401	-0.389	-0.127	-0.245	-42.969
-0.576	-0.030	0.252	0.100	-0.309	-0.112	-0.446	-0.065	-0.429	-0.527	0.118	-0.002	-0.627	0.092	0.232	0.409	0.522	0.213	1.100	-0.041	-0.198	-0.046	0.185	-0.215	-0.351	-0.347	-0.227	-0.315	-39.062
-0.512	0.142	0.356	0.229	-0.313	-0.071	-0.480	-0.069	-0.482	-0.625	0.108	-0.077	-0.757	-0.038	0.299	0.519	0.415	0.239	1.064	-0.015	-0.249	-0.156	0.185	-0.285	-0.296	-0.289	-0.307	-0.371	-35.156
-0.459	0.288	0.441	0.339	-0.309	-0.024	-0.475	-0.053	-0.468	-0.688	0.119	-0.120	-0.841	-0.165	0.346	0.573	0.263	0.281	0.958	-0.029	-0.320	-0.284	0.163	-0.337	-0.229	-0.214	-0.358	-0.402	-31.250
-0.431	0.387	0.491	0.417	-0.300	0.020	-0.439	-0.020	-0.391	-0.715	0.145	-0.127	-0.875	-0.279	0.365	0.565	0.076	0.337	0.794	-0.089	-0.410	-0.415	0.130	-0.363	-0.146	-0.116	-0.374	-0.401	-27.344
-0.438	0.424	0.498	0.454	-0.291	0.056	-0.378	0.023	-0.259	-0.707	0.181	-0.095	-0.859	-0.369	0.350	0.491	-0.133	0.396	0.587	-0.196	-0.516	-0.539	0.101	-0.358	-0.041	0.007	-0.352	-0.360	-23.438
-0.487	0.393	0.456	0.443	-0.286	0.078	-0.300	0.071	-0.087	-0.665	0.226	-0.027	-0.799	-0.428	0.297	0.360	-0.354	0.437	0.358	-0.344	-0.632	-0.647	0.088	-0.322	0.088	0.159	-0.291	-0.275	-19.531
-0.579	0.298	0.369	0.386	-0.290	0.083	-0.210	0.118	0.110	-0.591	0.279	0.069	-0.703	-0.452	0.206	0.188	-0.573	0.438	0.128	-0.523	-0.751	-0.733	0.094	-0.259	0.236	0.338	-0.196	-0.148	-15.625
-0.707	0.150	0.249	0.287	-0.308	0.068	-0.117	0.160	0.313	-0.490	0.343	0.183	-0.583	-0.442	0.084	-0.001	-0.777	0.384	-0.083	-0.716	-0.863	-0.794	0.119	-0.176	0.394	0.535	-0.078	0.009	-11.719
-0.859	-0.028	0.111	0.160	-0.339	0.034	-0.025	0.192	0.504	-0.366	0.416	0.300	-0.452	-0.398	-0.057	-0.178	-0.950	0.271	-0.258	-0.904	-0.957	-0.832	0.156	-0.082	0.549	0.738	0.051	0.181	-7.812
-1.018	-0.213	-0.027	0.016	-0.384	-0.018	0.064	0.210	0.670	-0.227	0.500	0.408	-0.323	-0.326	-0.199	-0.316	-1.077	0.106	-0.383	-1.067	-1.022	-0.850	0.191	0.012	0.683	0.932	0.176	0.351	-3.906
-1.165	-0.380	-0.152	-0.126	-0.437	-0.084	0.147	0.210	0.797	-0.083	0.591	0.497	-0.203	-0.230	-0.323	-0.395	-1.146	-0.089	-0.451	-1.187	-1.048	-0.851	0.214	0.096	0.781	1.097	0.284	0.498	0.000
-1.285	-0.508	-0.251	-0.251	-0.490	-0.156	0.226	0.193	0.881	0.056	0.685	0.560	-0.099	-0.115	-0.412	-0.403	-1.151	-0.286	-0.462	-1.254	-1.031	-0.840	0.212	0.163	0.826	1.214	0.364	0.608	3.906
-1.365	-0.581	-0.318	-0.344	-0.532	-0.226	0.303	0.159	0.918	0.183	0.778	0.599	-0.011	0.013	-0.456	-0.340	-1.094	-0.456	-0.419	-1.260	-0.967	-0.823	0.180	0.207	0.808	1.269	0.406	0.670	7.812
-1.398	-0.592	-0.348	-0.391	-0.554	-0.284	0.378	0.112	0.912	0.292	0.863	0.617	0.062	0.147	-0.448	-0.214	-0.988	-0.577	-0.334	-1.208	-0.859	-0.802	0.114	0.224	0.720	1.251	0.408	0.684	11.719
-1.382	-0.538	-0.341	-0.382	-0.544	-0.319	0.454	0.056	0.868	0.379	0.935	0.624	0.122	0.276	-0.395	-0.045	-0.857	-0.641	-0.221	-1.106	-0.715	-0.781	0.019	0.211	0.563	1.157	0.369	0.652	15.625
-1.324	-0.428	-0.297	-0.314	-0.499	-0.324	0.528	-0.000	0.793	0.444	0.989	0.628	0.169	0.391	-0.308	0.146	-0.726	-0.648	-0.097	-0.968	-0.549	-0.763	-0.095	0.169	0.346	0.992	0.294	0.585	19.531
-1.235	-0.278	-0.221	-0.190	-0.420	-0.296	0.596	-0.051	0.696	0.488	1.020	0.638	0.203	0.482	-0.204	0.333	-0.621	-0.611	0.019	-0.813	-0.375	-0.748	-0.213	0.101	0.089	0.773	0.193	0.497	23.438
-1.131	-0.111	-0.116	-0.021	-0.316	-0.239	0.650	-0.090	0.584	0.514	1.027	0.658	0.221	0.538	-0.102	0.493	-0.562	-0.544	0.113	-0.661	-0.215	-0.737	-0.318	0.013	-0.182	0.524	0.076	0.402	27.344
-1.028	0.042	0.007	0.172	-0.204	-0.164	0.682	-0.114	0.467	0.524	1.011	0.689	0.217	0.550	-0.020	0.609	-0.558	-0.462	0.171	-0.533	-0.088	-0.728	-0.390	-0.084	-0.433	0.275	-0.040	0.315	31.250
-0.947	0.154	0.137	0.365	-0.108	-0.089	0.679	-0.123	0.353	0.517	0.973	0.729	0.185	0.515	0.030	0.667	-0.607	-0.376	0.186	-0.446	-0.011	-0.722	-0.417	-0.180	-0.628	0.059	-0.140	0.246	35.156
-0.900	0.197	0.260	0.528	-0.049	-0.033	0.636	-0.117	0.247	0.491	0.919	0.770	0.120	0.431	0.042	0.661	-0.694	-0.288	0.157	-0.411	0.002	-0.718	-0.391	-0.260	-0.734	-0.093	-0.211	0.207	39.062
-0.899	0.153	0.360	0.635	-0.049	-0.010	0.549	-0.102	0.157	0.444	0.854	0.803	0.018	0.301	0.016	0.592	-0.802	-0.194	0.086	-0.436	-0.057	-0.718	-0.312	-0.313	-0.725	-0.157	-0.244	0.202	42.969
-0.946	0.014	0.425	0.669	-0.118	-0.034	0.421	-0.079	0.087	0.376	0.785	0.822	-0.119	0.131	-0.044	0.465	-0.911	-0.087	-0.017	-0.520	-0.184	-0.725	-0.191	-0.332	-0.590	-0.120	-0.235	0.236	46.875
-1.038	-0.214	0.447	0.619	-0.258	-0.104	0.263	-0.052	0.041	0.289	0.723	0.822	-0.287	-0.067	-0.129	0.287	-1.004	0.038	-0.141	-0.660	-0.371	-0.740	-0.043	-0.312	-0.333	0.019	-0.186	0.309	50.781
-1.167	-0.512	0.424	0.488	-0.460	-0.217	0.090	-0.018	0.024	0.188	0.677	0.803	-0.476	-0.282	-0.230	0.069	-1.074	0.184	-0.276	-0.846	-0.600	-0.768	0.112	-0.255	0.022	0.247	-0.104	0.419	54.688
-1.324	-0.853	0.360	0.290	-0.706	-0.357	-0.078	0.024	0.042	0.084	0.663	0.773	-0.673	-0.501	-0.340	-0.179	-1.124	0.343	-0.412	-1.067	-0.851	-0.809	0.254	-0.168	0.442	0.545	0.004	0.563	58.594
-1.497	-1.205	0.264	0.045	-0.972	-0.510	-0.223	0.082	0.100	-0.012	0.694	0.746	-0.864	-0.711	-0.455	-0.447	-1.165	0.505	-0.544	-1.311	-1.105	-0.863	0.370	-0.060	0.884	0.885	0.128	0.738	62.500
-1.681	-1.540	0.148	-0.223	-1.233	-0.658	-0.329	0.161	0.205	-0.087	0.785	0.740	-1.033	-0.901	-0.577	-0.726	-1.218	0.654	-0.670	-1.565	-1.345	-0.929	0.446	0.058	1.308	1.242	0.261	0.943	66.406
-1.871	-1.833	0.022	-0.490	-1.469	-0.788	-0.387	0.266	0.360	-0.131	0.945	0.772	-1.170	-1.061	-0.707	-1.007	-1.305	0.772	-0.796	-1.818	-1.560	-1.005	0.481	0.175	1.679	1.595	0.399	1.175	70.312
-2.067	-2.075	-0.106	-0.739	-1.665	-0.891	-0.394	0.399	0.569	-0.136	1.177	0.857	-1.266	-1.189	-0.854	-1.287	-1.446	0.845	-0.927	-2.062	-1.748	-1.087	0.475	0.282	1.982	1.935	0.541	1.436	74.219
-2.275	-2.267	-0.232	-0.962	-1.819	-0.965	-0.355	0.559	0.826	-0.101	1.478	1.004	-1.321	-1.282	-1.026	-1.565	-1.657	0.858	-1.070	-2.296	-1.912	-1.172	0.439	0.376	2.216	2.264	0.691	1.729	78.125
-2.508	-2.427	-0.361	-1.162	-1.940	-1.012	-0.278	0.743	1.127	-0.026	1.835	1.216	-1.335	-1.343	-1.236	-1.845	-1.946	0.803	-1.231	-2.523	-2.063	-1.259	0.385	0.457	2.402	2.598	0.855	2.061	82.031
-2.782	-2.585	-0.503	-1.352	-2.043	-1.043	-0.175	0.947	1.461	0.088	2.235	1.498	-1.313	-1.379	-1.499	-2.140	-2.313	0.679	-1.414	-2.753	-2.216	-1.344	0.324	0.533	2.568	2.963	1.046	2.444	85.938
-3.120	-2.776	-0.674	-1.552	-2.151	-1.071	-0.055	1.167	1.817	0.241	2.663	1.850	-1.259	-1.396	-1.832	-2.464	-2.749	0.487	-1.621	-3.002	-2.384	-1.431	0.268	0.613	2.754	3.388	1.278	2.895	89.844
-3.542	-3.034	-0.892	-1.783	-2.287	-1.112	0.074	1.400	2.185	0.435	3.111	2.279	-1.177	-1.403	-2.249	-2.833	-3.242	0.237	-1.857	-3.284	-2.583	-1.522	0.220	0.711	2.993	3.902	1.565	3.427	93.750
-4.065	-3.387	-1.173	-2.065	-2.469	-1.178	0.210	1.645	2.561	0.674	3.573	2.787	-1.069	-1.407	-2.759	-3.260	-3.777	-0.060	-2.124	-3.613	-2.819	-1.624	0.176	0.839	3.310	4.522	1.920	4.053	97.656
-4.696	-3.843	-1.524	-2.406	-2.704	-1.281	0.353	1.903	2.939	0.959	4.046	3.373	-0.936	-1.415	-3.359	-3.746	-4.335	-0.387	-2.423	-3.994	-3.092	-1.744	0.127	1.004	3.712	5.250	2.346	4.771	101.562
-5.422	-4.392	-1.942	-2.802	-2.988	-1.422	0.502	2.169	3.317	1.287	4.530	4.029	-0.780	-1.431	-4.036	-4.284	-4.894	-0.725	-2.753	-4.422	-3.394	-1.887	0.059	1.205	4.189	6.066	2.833	5.564	105.469
-6.215	-5.004	-2.408	-3.236	-3.305	-1.596	0.659	2.439	3.691	1.651	5.017	4.733	-0.606	-1.454	-4.760	-4.849	-5.429	-1.055	-3.106	-4.880	-3.703	-2.053	-0.038	1.432	4.711	6.925	3.359	6.398	109.375
-7.025	-5.630	-2.892	-3.676	-3.626	-1.789	0.821	2.701	4.054	2.035	5.495	5.450	-0.420	-1.482	-5.489	-5.404	-5.916	-1.358	-3.466	-5.339	-3.993	-2.237	-0.169	1.669	5.234	7.763	3.892	7.221	113.281
-7.791	-6.214	-3.357	-4.085	-3.916	-1.981	0.985	2.942	4.392	2.419	5.943	6.134	-0.228	-1.509	-6.171	-5.906	-6.326	-1.616	-3.810	-5.765	-4.233	-2.426	-0.331	1.895	5.702	8.505	4.388	7.973	117.188
-8.446	-6.696	-3.761	-4.421	-4.138	-2.147	1.146	3.145	4.686	2.777	6.335	6.737	-0.039	-1.525	-6.753	-6.307	-6.634	-1.819	-4.110	-6.116	-4.390	-2.600	-0.511	2.085	6.059	9.071	4.806	8.589	121.094
-8.930	-7.025	-4.065	-4.646	-4.261	-2.264	1.299	3.293	4.916	3.088	6.644	7.209	0.140	-1.518	-7.185	-6.563	-6.820	-1.959	-4.335	-6.357	-4.439	-2.737	-0.691	2.221	6.253	9.392	5.107	9.017	125.000
-9.194	-7.163	-4.241	-4.731	-4.260	-2.312	1.440	3.370	5.058	3.332	6.842	7.514	0.304	-1.474	-7.429	-6.643	-6.871	-2.032	-4.456	-6.454	-4.365	-2.812	-0.848	2.286	6.245	9.422	5.264	9.215	128.906
-9.212	-7.093	-4.272	-4.660	-4.125	-2.280	1.565	3.365	5.095	3.496	6.912	7.631	0.450	-1.382	-7.461	-6.529	-6.781	-2.038	-4.455	-6.390	-4.164	-2.807	-0.961	2.278	6.012	9.139	5.266	9.167	132.812
-8.983	-6.816	-4.160	-4.430	-3.857	-2.166	1.672	3.269	5.012	3.578	6.844	7.559	0.580	-1.232	-7.279	-6.223	-6.557	-1.978	-4.318	-6.157	-3.843	-2.707	-1.013	2.199	5.554	8.555	5.120	8.881	136.719
-8.530	-6.357	-3.923	-4.056	-3.475	-1.979	1.759	3.079	4.803	3.583	6.645	7.319	0.699	-1.019	-6.901	-5.742	-6.208	-1.854	-4.049	-5.767	-3.420	-2.507	-0.992	2.065	4.892	7.713	4.848	8.386	140.625
-7.900	-5.754	-3.593	-3.563	-3.008	-1.735	1.826	2.798	4.476	3.524	6.333	6.947	0.814	-0.747	-6.358	-5.122	-5.752	-1.670	-3.663	-5.244	-2.920	-2.215	-0.897	1.897	4.068	6.678	4.483	7.729	144.531
-7.151	-5.058	-3.213	-2.987	-2.492	-1.461	1.874	2.435	4.046	3.421	5.937	6.489	0.933	-0.424	-5.695	-4.409	-5.212	-1.432	-3.186	-4.625	-2.371	-1.844	-0.735	1.720	3.136	5.531	4.068	6.970	148.438
-6.351	-4.325	-2.827	-2.370	-1.966	-1.182	1.906	2.007	3.544	3.295	5.496	5.994	1.060	-0.066	-4.959	-3.654	-4.614	-1.150	-2.656	-3.953	-1.802	-1.419	-0.524	1.558	2.164	4.357	3.645	6.170	152.344
-5.568	-3.612	-2.477	-1.752	-1.469	-0.926	1.928	1.539	3.008	3.167	5.048	5.509	1.201	0.307	-4.200	-2.911	-3.990	-0.840	-2.115	-3.275	-1.241	-0.969	-0.287	1.434	1.215	3.238	3.251	5.389	156.250
-4.860	-2.968	-2.194	-1.173	-1.030	-0.714	1.945	1.063	2.485	3.056	4.633	5.071	1.356	0.675	-3.463	-2.227	-3.373	-0.524	-1.603	-2.637	-0.713	-0.528	-0.052	1.361	0.349	2.239	2.915	4.676	160.156
-4.272	-2.435	-1.993	-0.663	-0.671	-0.559	1.968	0.614	2.023	2.979	4.286	4.706	1.521	1.015	-2.791	-1.640	-2.799	-0.231	-1.159	-2.077	-0.242	-0.127	0.154	1.347	-0.388	1.409	2.653	4.071	164.062
-3.833	-2.041	-1.878	-0.246	-0.406	-0.467	2.004	0.227	1.667	2.948	4.032	4.431	1.688	1.307	-2.220	-1.177	-2.302	0.009	-0.810	-1.627	0.154	0.209	0.306	1.387	-0.963	0.777	2.472	3.599	167.969
-3.556	-1.797	-1.836	0.064	-0.237	-0.436	2.057	-0.068	1.451	2.969	3.890	4.249	1.846	1.533	-1.783	-0.854	-1.910	0.170	-0.571	-1.309	0.456	0.459	0.391	1.470	-1.363	0.351	2.368	3.272	171.875
-3.432	-1.703	-1.844	0.265	-0.162	-0.458	2.125	-0.249	1.395	3.043	3.863	4.158	1.982	1.679	-1.504	-0.673	-1.643	0.236	-0.446	-1.132	0.650	0.613	0.405	1.577	-1.591	0.123	2.328	3.087	175.781
-3.441	-1.745	-1.874	0.365	-0.172	-0.519	2.205	-0.305	1.498	3.159	3.947	4.148	2.079	1.734	-1.393	-0.629	-1.510	0.209	-0.427	-1.098	0.725	0.670	0.353	1.685	-1.664	0.071	2.337	3.031	179.688
-3.551	-1.896	-1.899	0.378	-0.258	-0.602	2.283	-0.241	1.744	3.301	4.123	4.205	2.125	1.694	-1.447	-0.707	-1.508	0.104	-0.498	-1.199	0.676	0.636	0.252	1.771	-1.606	0.165	2.374	3.082	183.594
-3.726	-2.128	-1.894	0.324	-0.405	-0.692	2.346	-0.072	2.097	3.445	4.365	4.311	2.107	1.557	-1.644	-0.890	-1.622	-0.051	-0.638	-1.421	0.502	0.521	0.122	1.815	-1.447	0.372	2.423	3.212	187.500
-3.932	-2.409	-1.848	0.223	-0.604	-0.774	2.379	0.178	2.514	3.567	4.639	4.449	2.018	1.330	-1.949	-1.154	-1.828	-0.221	-0.827	-1.744	0.213	0.339	-0.014	1.805	-1.215	0.661	2.468	3.389	191.406
-4.138	-2.710	-1.759	0.093	-0.843	-0.841	2.368	0.480	2.946	3.644	4.911	4.602	1.855	1.024	-2.317	-1.480	-2.099	-0.377	-1.049	-2.148	-0.176	0.109	-0.135	1.737	-0.931	1.003	2.502	3.588	195.312
-4.327	-3.011	-1.633	-0.054	-1.111	-0.890	2.307	0.803	3.351	3.660	5.150	4.753	1.621	0.655	-2.704	-1.846	-2.404	-0.497	-1.290	-2.608	-0.647	-0.154	-0.226	1.619	-0.608	1.378	2.521	3.787	199.219
-4.489	-3.295	-1.488	-0.213	-1.401	-0.924	2.195	1.122	3.695	3.608	5.333	4.893	1.328	0.244	-3.070	-2.235	-2.716	-0.576	-1.546	-3.105	-1.175	-0.430	-0.276	1.467	-0.252	1.773	2.529	3.973	203.125
-4.627	-3.555	-1.341	-0.386	-1.704	-0.952	2.037	1.416	3.960	3.492	5.447	5.012	0.991	-0.189	-3.392	-2.634	-3.014	-0.623	-1.813	-3.619	-1.737	-0.703	-0.283	1.302	0.140	2.180	2.534	4.143	207.031
-4.749	-3.788	-1.210	-0.578	-2.014	-0.985	1.847	1.675	4.142	3.328	5.491	5.108	0.633	-0.621	-3.660	-3.034	-3.283	-0.655	-2.092	-4.135	-2.313	-0.957	-0.247	1.150	0.572	2.600	2.547	4.302	210.938
-4.867	-4.000	-1.110	-0.796	-2.327	-1.033	1.641	1.894	4.252	3.136	5.477	5.185	0.277	-1.035	-3.880	-3.430	-3.520	-0.695	-2.385	-4.643	-2.882	-1.181	-0.174	1.033	1.048	3.036	2.578	4.460	214.844
-4.992	-4.198	-1.050	-1.048	-2.639	-1.105	1.437	2.075	4.310	2.941	5.426	5.248	-0.053	-1.415	-4.072	-3.821	-3.728	-0.761	-2.693	-5.138	-3.430	-1.368	-0.073	0.971	1.572	3.492	2.639	4.632	218.750
-5.137	-4.392	-1.040	-1.339	-2.949	-1.207	1.255	2.222	4.344	2.770	5.367	5.309	-0.338	-1.749	-4.259	-4.207	-3.919	-0.864	-3.017	-5.615	-3.943	-1.517	0.046	0.975	2.140	3.976	2.737	4.831	222.656
-5.308	-4.597	-1.084	-1.669	-3.257	-1.341	1.110	2.342	4.381	2.644	5.330	5.382	-0.559	-2.032	-4.467	-4.592	-4.106	-1.008	-3.354	-6.075	-4.412	-1.631	0.168	1.053	2.746	4.490	2.878	5.067	226.562
-5.511	-4.826	-1.185	-2.037	-3.563	-1.504	1.015	2.439	4.445	2.582	5.343	5.478	-0.706	-2.256	-4.714	-4.979	-4.300	-1.186	-3.700	-6.518	-4.828	-1.718	0.280	1.201	3.377	5.037	3.067	5.346	230.469
-5.752	-5.091	-1.346	-2.437	-3.868	-1.695	0.978	2.519	4.551	2.596	5.425	5.611	-0.774	-2.417	-5.007	-5.370	-4.509	-1.385	-4.048	-6.941	-5.184	-1.788	0.371	1.414	4.020	5.614	3.305	5.667	234.375
-6.036	-5.401	-1.569	-2.861	-4.170	-1.907	1.003	2.587	4.705	2.690	5.586	5.786	-0.763	-2.511	-5.343	-5.766	-4.733	-1.593	-4.390	-7.341	-5.475	-1.850	0.432	1.681	4.657	6.213	3.591	6.024	238.281
-6.366	-5.762	-1.854	-3.300	-4.469	-2.137	1.088	2.646	4.904	2.861	5.825	6.007	-0.677	-2.535	-5.709	-6.165	-4.968	-1.796	-4.718	-7.715	-5.698	-1.908	0.463	1.990	5.274	6.822	3.923	6.409	242.188
-6.748	-6.172	-2.199	-3.747	-4.760	-2.379	1.229	2.701	5.135	3.098	6.129	6.271	-0.523	-2.489	-6.082	-6.565	-5.208	-1.990	-5.023	-8.057	-5.853	-1.964	0.469	2.329	5.857	7.427	4.295	6.809	246.094
-7.184	-6.623	-2.596	-4.192	-5.038	-2.624	1.417	2.756	5.383	3.385	6.478	6.571	-0.309	-2.374	-6.440	-6.959	-5.443	-2.172	-5.300	-8.362	-5.944	-2.012	0.462	2.689	6.398	8.011	4.700	7.211	250.000
-7.671	-7.103	-3.038	-4.625	-5.295	-2.866	1.642	2.815	5.628	3.706	6.851	6.894	-0.045	-2.195	-6.765	-7.342	-5.666	-2.345	-5.542	-8.626	-5.975	-2.044	0.456	3.061	6.889	8.558	5.127	7.603	253.906
-8.201	-7.596	-3.511	-5.037	-5.523	-3.094	1.894	2.883	5.856	4.039	7.221	7.228	0.259	-1.962	-7.049	-7.707	-5.871	-2.515	-5.749	-8.845	-5.956	-2.049	0.467	3.439	7.328	9.055	5.565	7.974	257.812
-8.759	-8.084	-3.998	-5.419	-5.712	-3.298	2.162	2.963	6.053	4.367	7.566	7.557	0.593	-1.688	-7.291	-8.048	-6.051	-2.684	-5.918	-9.019	-5.895	-2.017	0.503	3.818	7.711	9.488	6.002	8.315	261.719
-9.319	-8.550	-4.482	-5.763	-5.853	-3.469	2.437	3.056	6.212	4.676	7.870	7.867	0.945	-1.385	-7.499	-8.358	-6.205	-2.851	-6.050	-9.146	-5.800	-1.943	0.569	4.191	8.037	9.847	6.425	8.619	265.625
-9.854	-8.973	-4.942	-6.060	-5.938	-3.600	2.711	3.159	6.331	4.955	8.118	8.143	1.305	-1.066	-7.688	-8.631	-6.329	-3.010	-6.145	-9.227	-5.679	-1.825	0.663	4.552	8.303	10.124	6.820	8.882	269.531
-10.330	-9.335	-5.358	-6.303	-5.963	-3.686	2.979	3.266	6.410	5.197	8.301	8.372	1.664	-0.741	-7.867	-8.861	-6.425	-3.152	-6.202	-9.259	-5.536	-1.669	0.777	4.894	8.505	10.316	7.178	9.100	273.438
-10.716	-9.622	-5.712	-6.484	-5.925	-3.724	3.236	3.367	6.452	5.400	8.417	8.539	2.014	-0.418	-8.041	-9.042	-6.493	-3.267	-6.218	-9.242	-5.374	-1.483	0.902	5.210	8.639	10.419	7.487	9.271	277.344
-10.988	-9.819	-5.990	-6.595	-5.825	-3.713	3.477	3.450	6.461	5.561	8.464	8.639	2.349	-0.101	-8.208	-9.166	-6.536	-3.346	-6.193	-9.175	-5.191	-1.279	1.026	5.490	8.701	10.434	7.739	9.393	281.250
-11.132	-9.921	-6.182	-6.633	-5.669	-3.658	3.700	3.502	6.440	5.684	8.446	8.666	2.666	0.209	-8.360	-9.229	-6.559	-3.389	-6.125	-9.057	-4.989	-1.072	1.139	5.726	8.689	10.364	7.930	9.465	285.156
-11.150	-9.927	-6.284	-6.596	-5.465	-3.561	3.903	3.518	6.395	5.774	8.373	8.624	2.961	0.515	-8.483	-9.229	-6.567	-3.402	-6.015	-8.887	-4.765	-0.873	1.230	5.911	8.605	10.218	8.058	9.489	289.062
-11.060	-9.848	-6.301	-6.488	-5.226	-3.430	4.085	3.493	6.331	5.836	8.256	8.527	3.233	0.815	-8.563	-9.169	-6.570	-3.399	-5.869	-8.671	-4.521	-0.692	1.292	6.041	8.454	10.009	8.127	9.469	292.969
-10.893	-9.703	-6.249	-6.321	-4.967	-3.275	4.244	3.434	6.254	5.880	8.113	8.391	3.482	1.111	-8.590	-9.057	-6.577	-3.398	-5.694	-8.415	-4.260	-0.538	1.319	6.115	8.248	9.756	8.145	9.416	296.875
-10.692	-9.519	-6.150	-6.114	-4.704	-3.108	4.381	3.352	6.177	5.915	7.966	8.242	3.708	1.399	-8.565	-8.911	-6.596	-3.420	-5.500	-8.133	-3.989	-0.414	1.305	6.137	8.004	9.482	8.125	9.341	300.781
-10.503	-9.327	-6.030	-5.887	-4.453	-2.939	4.500	3.266	6.114	5.954	7.840	8.107	3.911	1.673	-8.497	-8.749	-6.634	-3.486	-5.303	-7.839	-3.717	-0.319	1.248	6.116	7.741	9.210	8.081	9.260	304.688
-10.368	-9.159	-5.915	-5.667	-4.226	-2.777	4.606	3.197	6.084	6.009	7.759	8.010	4.093	1.929	-8.408	-8.597	-6.695	-3.609	-5.114	-7.552	-3.451	-0.252	1.150	6.064	7.479	8.964	8.031	9.186	308.594
-10.317	-9.042	-5.828	-5.474	-4.029	-2.630	4.710	3.166	6.105	6.093	7.747	7.972	4.255	2.159	-8.329	-8.476	-6.782	-3.797	-4.947	-7.289	-3.200	-0.209	1.013	5.994	7.235	8.760	7.992	9.132	312.500
-10.370	-8.994	-5.783	-5.325	-3.862	-2.501	4.823	3.189	6.192	6.218	7.822	8.008	4.402	2.361	-8.292	-8.405	-6.897	-4.048	-4.813	-7.064	-2.970	-0.185	0.842	5.919	7.023	8.612	7.976	9.107	316.406
-10.531	-9.019	-5.790	-5.227	-3.721	-2.389	4.957	3.275	6.353	6.391	7.992	8.122	4.541	2.536	-8.331	-8.395	-7.042	-4.353	-4.719	-6.886	-2.765	-0.175	0.645	5.851	6.852	8.524	7.994	9.115	320.312
-10.789	-9.110	-5.846	-5.176	-3.595	-2.293	5.122	3.423	6.585	6.615	8.257	8.310	4.678	2.686	-8.467	-8.447	-7.217	-4.691	-4.669	-6.758	-2.585	-0.175	0.428	5.799	6.725	8.496	8.050	9.157	324.219
-11.124	-9.249	-5.944	-5.162	-3.475	-2.208	5.323	3.624	6.874	6.889	8.605	8.560	4.820	2.821	-8.712	-8.552	-7.420	-5.038	-4.663	-6.676	-2.427	-0.181	0.202	5.770	6.640	8.517	8.142	9.230	328.125
-11.504	-9.410	-6.073	-5.168	-3.349	-2.132	5.561	3.860	7.198	7.207	9.015	8.851	4.974	2.949	-9.060	-8.693	-7.646	-5.366	-4.698	-6.627	-2.286	-0.189	-0.026	5.766	6.589	8.574	8.264	9.329	332.031
-11.898	-9.566	-6.218	-5.177	-3.209	-2.061	5.829	4.111	7.529	7.555	9.459	9.163	5.141	3.080	-9.487	-8.847	-7.880	-5.650	-4.768	-6.596	-2.155	-0.198	-0.244	5.787	6.562	8.652	8.408	9.446	335.938
-12.279	-9.695	-6.368	-5.175	-3.056	-1.994	6.117	4.354	7.841	7.919	9.906	9.472	5.323	3.220	-9.959	-8.990	-8.107	-5.877	-4.863	-6.567	-2.025	-0.205	-0.444	5.829	6.548	8.736	8.563	9.574	339.844
-12.628	-9.782	-6.516	-5.155	-2.891	-1.934	6.408	4.570	8.112	8.282	10.328	9.764	5.516	3.373	-10.437	-9.101	-8.307	-6.047	-4.974	-6.523	-1.891	-0.210	-0.620	5.891	6.541	8.818	8.723	9.713	343.750
-12.940	-9.821	-6.660	-5.119	-2.727	-1.883	6.686	4.741	8.329	8.627	10.701	10.029	5.713	3.538	-10.883	-9.166	-8.461	-6.174	-5.085	-6.452	-1.748	-0.212	-0.764	5.968	6.536	8.896	8.886	9.863	347.656
-13.222	-9.820	-6.808	-5.076	-2.576	-1.851	6.932	4.858	8.488	8.940	11.012	10.272	5.911	3.708	-11.269	-9.182	-8.558	-6.283	-5.182	-6.347	-1.593	-0.209	-0.871	6.062	6.539	8.980	9.057	10.037	351.562
-13.487	-9.792	-6.969	-5.042	-2.456	-1.844	7.133	4.914	8.593	9.210	11.256	10.501	6.102	3.878	-11.583	-9.150	-8.594	-6.401	-5.248	-6.208	-1.429	-0.197	-0.939	6.175	6.556	9.084	9.245	10.248	355.469
-13.749	-9.756	-7.156	-5.032	-2.377	-1.873	7.275	4.904	8.651	9.430	11.433	10.732	6.283	4.040	-11.825	-9.079	-8.572	-6.552	-5.269	-6.039	-1.260	-0.175	-0.968	6.311	6.598	9.225	9.462	10.510	359.375
-14.014	-9.727	-7.372	-5.054	-2.346	-1.943	7.351	4.826	8.670	9.595	11.542	10.971	6.451	4.188	-12.004	-8.978	-8.505	-6.745	-5.235	-5.844	-1.088	-0.138	-0.960	6.472	6.672	9.412	9.715	10.830	363.281
-14.270	-9.711	-7.611	-5.107	-2.360	-2.055	7.360	4.681	8.652	9.700	11.583	11.216	6.607	4.321	-12.131	-8.857	-8.411	-6.969	-5.141	-5.632	-0.916	-0.083	-0.920	6.656	6.777	9.645	10.002	11.199	367.188
-14.492	-9.704	-7.855	-5.179	-2.403	-2.200	7.304	4.471	8.590	9.740	11.545	11.445	6.747	4.441	-12.213	-8.717	-8.308	-7.202	-4.990	-5.405	-0.743	-0.009	-0.855	6.854	6.908	9.909	10.309	11.590	371.094
-14.638	-9.690	-8.072	-5.246	-2.455	-2.362	7.191	4.203	8.474	9.709	11.413	11.623	6.868	4.553	-12.248	-8.555	-8.213	-7.407	-4.791	-5.167	-0.564	0.086	-0.771	7.050	7.049	10.174	10.606	11.958	375.000
-14.662	-9.645	-8.227	-5.279	-2.490	-2.518	7.032	3.887	8.292	9.602	11.170	11.706	6.966	4.662	-12.227	-8.364	-8.139	-7.550	-4.560	-4.914	-0.375	0.200	-0.675	7.225	7.179	10.401	10.857	12.247	378.906
-14.526	-9.545	-8.287	-5.253	-2.483	-2.642	6.841	3.541	8.036	9.416	10.802	11.649	7.036	4.773	-12.137	-8.133	-8.093	-7.603	-4.314	-4.643	-0.170	0.327	-0.575	7.357	7.276	10.550	11.023	12.402	382.812
-14.210	-9.373	-8.230	-5.148	-2.414	-2.710	6.634	3.188	7.708	9.156	10.313	11.427	7.073	4.888	-11.967	-7.857	-8.077	-7.557	-4.071	-4.353	0.054	0.463	-0.475	7.427	7.321	10.589	11.074	12.384	386.719
-13.727	-9.123	-8.055	-4.958	-2.277	-2.704	6.426	2.854	7.320	8.836	9.721	11.037	7.076	5.004	-11.718	-7.534	-8.088	-7.420	-3.847	-4.042	0.297	0.598	-0.381	7.426	7.299	10.502	10.994	12.180	390.625
-13.118	-8.806	-7.778	-4.692	-2.075	-2.617	6.235	2.563	6.900	8.479	9.067	10.512	7.046	5.117	-11.401	-7.175	-8.115	-7.221	-3.651	-3.717	0.551	0.725	-0.296	7.352	7.206	10.292	10.793	11.812	394.531
-12.454	-8.447	-7.436	-4.377	-1.822	-2.459	6.073	2.339	6.481	8.113	8.410	9.910	6.990	5.219	-11.041	-6.799	-8.148	-7.003	-3.491	-3.387	0.804	0.834	-0.228	7.215	7.048	9.983	10.498	11.332	398.438
-11.822	-8.083	-7.079	-4.046	-1.542	-2.250	5.951	2.196	6.102	7.773	7.815	9.312	6.916	5.304	-10.675	-6.432	-8.172	-6.808	-3.367	-3.068	1.042	0.919	-0.181	7.035	6.837	9.616	10.154	10.816	402.344
-11.307	-7.755	-6.757	-3.739	-1.262	-2.017	5.876	2.141	5.804	7.491	7.348	8.800	6.836	5.366	-10.341	-6.105	-8.180	-6.673	-3.281	-2.781	1.251	0.974	-0.161	6.835	6.593	9.234	9.813	10.344	406.250
-10.976	-7.498	-6.511	-3.489	-1.003	-1.792	5.851	2.170	5.617	7.296	7.059	8.446	6.763	5.407	-10.078	-5.847	-8.168	-6.618	-3.232	-2.544	1.417	0.996	-0.171	6.641	6.335	8.883	9.522	9.989	410.156
-10.866	-7.338	-6.372	-3.323	-0.784	-1.601	5.873	2.272	5.563	7.207	6.980	8.299	6.708	5.430	-9.915	-5.679	-8.142	-6.648	-3.223	-2.374	1.536	0.984	-0.213	6.474	6.081	8.597	9.317	9.801	414.062
-10.979	-7.288	-6.346	-3.251	-0.611	-1.460	5.941	2.427	5.649	7.232	7.113	8.373	6.680	5.442	-9.867	-5.617	-8.113	-6.747	-3.258	-2.280	1.607	0.944	-0.287	6.347	5.843	8.394	9.216	9.795	417.969
-11.287	-7.345	-6.424	-3.269	-0.485	-1.376	6.048	2.617	5.866	7.365	7.442	8.651	6.688	5.454	-9.939	-5.661	-8.100	-6.893	-3.340	-2.265	1.639	0.880	-0.388	6.268	5.627	8.275	9.220	9.959	421.875
-11.732	-7.494	-6.582	-3.361	-0.397	-1.342	6.189	2.819	6.193	7.593	7.924	9.091	6.737	5.478	-10.121	-5.804	-8.123	-7.061	-3.475	-2.320	1.642	0.800	-0.512	6.235	5.433	8.229	9.315	10.253	425.781
-12.248	-7.709	-6.785	-3.500	-0.334	-1.346	6.359	3.014	6.599	7.893	8.510	9.634	6.832	5.525	-10.394	-6.027	-8.196	-7.232	-3.661	-2.428	1.633	0.714	-0.654	6.240	5.255	8.233	9.478	10.624	429.688
-12.764	-7.958	-6.999	-3.655	-0.283	-1.370	6.553	3.188	7.046	8.240	9.138	10.216	6.973	5.603	-10.730	-6.302	-8.328	-7.394	-3.892	-2.566	1.628	0.630	-0.807	6.273	5.084	8.256	9.680	11.012	433.594
-13.215	-8.207	-7.190	-3.794	-0.228	-1.394	6.764	3.327	7.492	8.607	9.753	10.777	7.158	5.717	-11.097	-6.597	-8.516	-7.547	-4.153	-2.704	1.643	0.558	-0.968	6.319	4.905	8.268	9.895	11.363	437.500
-13.552	-8.422	-7.333	-3.890	-0.158	-1.401	6.986	3.421	7.897	8.968	10.301	11.263	7.382	5.870	-11.459	-6.874	-8.744	-7.693	-4.423	-2.809	1.693	0.507	-1.131	6.366	4.703	8.240	10.096	11.631	441.406
-13.742	-8.572	-7.413	-3.920	-0.063	-1.379	7.207	3.462	8.225	9.297	10.737	11.633	7.634	6.061	-11.776	-7.094	-8.984	-7.835	-4.674	-2.850	1.792	0.485	-1.292	6.401	4.465	8.148	10.262	11.786	445.312
-13.768	-8.634	-7.424	-3.871	0.066	-1.323	7.416	3.443	8.446	9.572	11.027	11.859	7.902	6.286	-12.011	-7.222	-9.199	-7.968	-4.874	-2.801	1.950	0.502	-1.445	6.419	4.178	7.972	10.375	11.811	449.219
-13.632	-8.590	-7.371	-3.740	0.232	-1.231	7.599	3.357	8.537	9.771	11.152	11.929	8.170	6.539	-12.132	-7.231	-9.348	-8.085	-4.996	-2.646	2.173	0.565	-1.583	6.414	3.836	7.705	10.423	11.702	453.125
-13.350	-8.435	-7.264	-3.534	0.436	-1.111	7.742	3.204	8.486	9.877	11.104	11.843	8.422	6.813	-12.116	-7.106	-9.397	-8.171	-5.019	-2.379	2.462	0.679	-1.698	6.387	3.442	7.346	10.396	11.469	457.031
-12.949	-8.175	-7.116	-3.266	0.674	-0.972	7.831	2.985	8.290	9.878	10.893	11.610	8.644	7.097	-11.948	-6.846	-9.323	-8.208	-4.933	-2.012	2.806	0.845	-1.785	6.339	3.006	6.909	10.293	11.126	460.938
-12.464	-7.826	-6.943	-2.956	0.938	-0.826	7.857	2.708	7.960	9.765	10.538	11.253	8.821	7.379	-11.629	-6.467	-9.120	-8.182	-4.743	-1.565	3.191	1.055	-1.839	6.274	2.548	6.415	10.116	10.698	464.844
-11.929	-7.412	-6.759	-2.623	1.212	-0.688	7.815	2.386	7.514	9.539	10.072	10.798	8.942	7.646	-11.171	-5.999	-8.798	-8.083	-4.466	-1.072	3.594	1.299	-1.857	6.196	2.091	5.893	9.872	10.209	468.750
-11.375	-6.962	-6.576	-2.287	1.483	-0.567	7.702	2.036	6.981	9.208	9.528	10.274	9.001	7.885	-10.597	-5.477	-8.384	-7.910	-4.130	-0.568	3.991	1.559	-1.840	6.108	1.663	5.375	9.573	9.686	472.656
-10.828	-6.506	-6.399	-1.964	1.732	-0.471	7.525	1.676	6.395	8.787	8.946	9.707	8.993	8.082	-9.938	-4.942	-7.912	-7.668	-3.768	-0.087	4.358	1.814	-1.791	6.009	1.284	4.890	9.231	9.149	476.562
-10.300	-6.068	-6.229	-1.664	1.945	-0.402	7.292	1.326	5.788	8.298	8.357	9.121	8.918	8.227	-9.228	-4.428	-7.418	-7.371	-3.412	0.341	4.675	2.044	-1.717	5.897	0.971	4.457	8.859	8.612	480.469
-9.797	-5.666	-6.062	-1.392	2.111	-0.357	7.015	1.001	5.194	7.771	7.789	8.534	8.778	8.311	-8.502	-3.962	-6.937	-7.037	-3.091	0.700	4.927	2.230	-1.624	5.768	0.728	4.088	8.467	8.083	484.375
-9.315	-5.307	-5.887	-1.150	2.228	-0.327	6.710	0.713	4.639	7.233	7.261	7.960	8.576	8.330	-7.793	-3.561	-6.495	-6.686	-2.822	0.982	5.105	2.358	-1.521	5.615	0.551	3.782	8.065	7.564	488.281
-8.848	-4.992	-5.691	-0.935	2.296	-0.302	6.394	0.474	4.144	6.712	6.785	7.410	8.318	8.280	-7.132	-3.231	-6.112	-6.339	-2.617	1.188	5.203	2.420	-1.417	5.435	0.428	3.529	7.657	7.055	492.188
-8.390	-4.713	-5.460	-0.744	2.322	-0.274	6.080	0.288	3.724	6.232	6.369	6.891	8.010	8.160	-6.543	-2.971	-5.800	-6.013	-2.478	1.321	5.223	2.413	-1.320	5.222	0.341	3.316	7.246	6.558	496.094
-7.937	-4.461	-5.184	-0.575	2.318	-0.233	5.782	0.160	3.388	5.808	6.015	6.411	7.660	7.972	-6.042	-2.776	-5.562	-5.722	-2.404	1.391	5.165	2.339	-1.240	4.974	0.276	3.126	6.836	6.077	500.000
-7.489	-4.226	-4.860	-0.428	2.292	-0.178	5.507	0.091	3.142	5.449	5.725	5.978	7.276	7.719	-5.638	-2.639	-5.396	-5.472	-2.388	1.401	5.032	2.202	-1.184	4.694	0.215	2.948	6.426	5.621	503.906
-7.051	-4.004	-4.492	-0.303	2.251	-0.108	5.261	0.081	2.989	5.157	5.502	5.599	6.866	7.404	-5.327	-2.552	-5.293	-5.264	-2.425	1.356	4.829	2.010	-1.158	4.384	0.147	2.773	6.022	5.202	507.812
-6.632	-3.793	-4.095	-0.205	2.200	-0.030	5.045	0.129	2.929	4.927	5.343	5.280	6.443	7.037	-5.096	-2.506	-5.236	-5.094	-2.509	1.258	4.561	1.771	-1.166	4.054	0.064	2.600	5.627	4.833	511.719
-6.242	-3.599	-3.691	-0.138	2.137	0.049	4.858	0.232	2.963	4.750	5.249	5.028	6.015	6.628	-4.924	-2.494	-5.207	-4.955	-2.631	1.110	4.236	1.494	-1.210	3.713	-0.036	2.431	5.246	4.525	515.625
-5.891	-3.432	-3.306	-0.108	2.059	0.121	4.699	0.385	3.085	4.617	5.217	4.844	5.595	6.190	-4.785	-2.510	-5.183	-4.838	-2.783	0.916	3.866	1.190	-1.287	3.372	-0.152	2.273	4.888	4.288	519.531
-5.586	-3.306	-2.963	-0.117	1.960	0.177	4.566	0.580	3.288	4.515	5.240	4.725	5.194	5.739	-4.655	-2.546	-5.146	-4.733	-2.951	0.682	3.465	0.869	-1.390	3.044	-0.278	2.133	4.561	4.122	523.438
-5.334	-3.231	-2.684	-0.169	1.837	0.213	4.456	0.806	3.556	4.435	5.310	4.665	4.818	5.293	-4.515	-2.597	-5.082	-4.629	-3.122	0.418	3.050	0.543	-1.508	2.740	-0.404	2.019	4.270	4.025	527.344
-5.132	-3.217	-2.477	-0.260	1.688	0.226	4.362	1.047	3.869	4.366	5.410	4.652	4.476	4.871	-4.353	-2.656	-4.987	-4.516	-3.277	0.138	2.640	0.225	-1.629	2.469	-0.518	1.933	4.021	3.985	531.250
-4.972	-3.266	-2.341	-0.383	1.518	0.215	4.278	1.283	4.196	4.294	5.521	4.667	4.171	4.487	-4.164	-2.716	-4.865	-4.382	-3.399	-0.143	2.254	-0.072	-1.738	2.241	-0.607	1.876	3.818	3.989	535.156
-4.840	-3.369	-2.261	-0.529	1.333	0.183	4.195	1.490	4.503	4.208	5.617	4.690	3.905	4.154	-3.953	-2.770	-4.729	-4.218	-3.475	-0.410	1.911	-0.334	-1.817	2.061	-0.659	1.845	3.662	4.018	539.062
-4.714	-3.512	-2.218	-0.681	1.146	0.132	4.102	1.643	4.752	4.094	5.669	4.697	3.677	3.881	-3.728	-2.810	-4.593	-4.017	-3.493	-0.646	1.624	-0.547	-1.851	1.934	-0.665	1.835	3.551	4.053	542.969
-4.571	-3.671	-2.187	-0.823	0.966	0.065	3.988	1.718	4.906	3.940	5.651	4.669	3.489	3.670	-3.497	-2.826	-4.467	-3.775	-3.447	-0.837	1.404	-0.701	-1.828	1.859	-0.623	1.839	3.483	4.076	546.875
-4.395	-3.820	-2.149	-0.939	0.802	-0.018	3.844	1.697	4.938	3.740	5.539	4.590	3.339	3.521	-3.268	-2.811	-4.360	-3.494	-3.339	-0.971	1.257	-0.788	-1.739	1.835	-0.536	1.851	3.454	4.076	550.781
-4.175	-3.933	-2.091	-1.017	0.661	-0.115	3.666	1.570	4.829	3.491	5.321	4.453	3.226	3.429	-3.041	-2.756	-4.270	-3.182	-3.173	-1.041	1.182	-0.804	-1.585	1.859	-0.409	1.870	3.458	4.045	554.688
-3.917	-3.991	-2.011	-1.050	0.544	-0.229	3.453	1.339	4.577	3.199	5.002	4.262	3.150	3.385	-2.818	-2.660	-4.191	-2.852	-2.964	-1.042	1.176	-0.754	-1.372	1.924	-0.254	1.896	3.491	3.987	558.594
-3.634	-3.982	-1.917	-1.039	0.450	-0.358	3.211	1.018	4.197	2.875	4.597	4.032	3.108	3.382	-2.595	-2.522	-4.114	-2.518	-2.727	-0.976	1.229	-0.651	-1.115	2.023	-0.082	1.932	3.547	3.910	562.500
-3.349	-3.904	-1.823	-0.988	0.375	-0.500	2.952	0.629	3.717	2.538	4.138	3.784	3.095	3.410	-2.371	-2.348	-4.032	-2.198	-2.483	-0.849	1.330	-0.511	-0.838	2.147	0.096	1.982	3.620	3.825	566.406
-3.085	-3.766	-1.744	-0.908	0.318	-0.649	2.689	0.205	3.177	2.204	3.661	3.541	3.106	3.462	-2.148	-2.146	-3.940	-1.904	-2.255	-0.671	1.466	-0.357	-0.569	2.281	0.270	2.048	3.700	3.745	570.312
-2.860	-3.583	-1.690	-0.808	0.277	-0.795	2.438	-0.218	2.623	1.892	3.205	3.323	3.131	3.530	-1.927	-1.929	-3.842	-1.648	-2.062	-0.455	1.620	-0.210	-0.334	2.411	0.429	2.129	3.777	3.677	574.219
-2.680	-3.377	-1.664	-0.701	0.254	-0.924	2.212	-0.605	2.103	1.613	2.801	3.145	3.157	3.605	-1.711	-1.710	-3.742	-1.436	-1.919	-0.222	1.776	-0.090	-0.156	2.522	0.566	2.220	3.840	3.623	578.125
-2.544	-3.168	-1.664	-0.594	0.250	-1.024	2.022	-0.924	1.658	1.376	2.471	3.007	3.171	3.677	-1.504	-1.503	-3.647	-1.268	-1.836	0.011	1.915	-0.009	-0.047	2.595	0.672	2.308	3.875	3.575	582.031
-2.439	-2.972	-1.676	-0.495	0.267	-1.082	1.872	-1.151	1.320	1.183	2.223	2.904	3.159	3.738	-1.305	-1.317	-3.564	-1.143	-1.811	0.224	2.023	0.026	-0.009	2.620	0.743	2.381	3.867	3.519	585.938
-2.345	-2.799	-1.684	-0.404	0.305	-1.090	1.762	-1.276	1.109	1.031	2.053	2.820	3.109	3.777	-1.116	-1.161	-3.492	-1.057	-1.834	0.403	2.090	0.017	-0.031	2.585	0.772	2.422	3.807	3.437	589.844
-2.241	-2.649	-1.669	-0.320	0.363	-1.043	1.688	-1.296	1.026	0.914	1.942	2.734	3.012	3.785	-0.932	-1.030	-3.432	-1.003	-1.888	0.542	2.113	-0.029	-0.097	2.487	0.757	2.415	3.684	3.311	593.750
-2.103	-2.511	-1.613	-0.233	0.439	-0.944	1.639	-1.224	1.064	0.819	1.868	2.625	2.867	3.760	-0.749	-0.917	-3.377	-0.972	-1.949	0.644	2.097	-0.098	-0.186	2.330	0.694	2.349	3.498	3.124	597.656
-1.911	-2.368	-1.502	-0.132	0.530	-0.801	1.605	-1.080	1.198	0.737	1.805	2.474	2.677	3.702	-0.558	-0.805	-3.319	-0.955	-1.994	0.720	2.056	-0.179	-0.280	2.121	0.581	2.216	3.250	2.866	601.562
-1.651	-2.198	-1.332	-0.004	0.634	-0.626	1.575	-0.889	1.401	0.657	1.728	2.268	2.454	3.616	-0.354	-0.674	-3.249	-0.947	-2.004	0.789	2.009	-0.259	-0.367	1.873	0.420	2.016	2.950	2.536	605.469
-1.319	-1.984	-1.106	0.160	0.747	-0.438	1.544	-0.678	1.642	0.573	1.625	2.004	2.211	3.511	-0.131	-0.508	-3.156	-0.942	-1.967	0.871	1.976	-0.330	-0.441	1.603	0.215	1.759	2.612	2.140	609.375
-0.919	-1.715	-0.841	0.363	0.868	-0.255	1.507	-0.472	1.890	0.483	1.493	1.690	1.969	3.400	0.107	-0.296	-3.034	-0.939	-1.880	0.982	1.976	-0.385	-0.503	1.331	-0.022	1.460	2.258	1.698	613.281
-0.467	-1.394	-0.559	0.599	0.989	-0.097	1.466	-0.289	2.121	0.391	1.339	1.343	1.747	3.296	0.352	-0.038	-2.883	-0.938	-1.753	1.128	2.018	-0.423	-0.557	1.074	-0.276	1.144	1.912	1.234	617.188
0.015	-1.038	-0.288	0.850	1.103	0.019	1.426	-0.142	2.315	0.306	1.180	0.988	1.564	3.207	0.588	0.252	-2.707	-0.939	-1.600	1.305	2.101	-0.442	-0.607	0.852	-0.528	0.837	1.600	0.780	621.094
0.496	-0.675	-0.054	1.094	1.201	0.081	1.392	-0.035	2.462	0.238	1.038	0.654	1.434	3.142	0.794	0.551	-2.522	-0.944	-1.441	1.499	2.214	-0.442	-0.654	0.679	-0.754	0.566	1.349	0.366	625.000
0.942	-0.340	0.122	1.304	1.273	0.087	1.369	0.035	2.559	0.198	0.932	0.368	1.366	3.102	0.951	0.828	-2.347	-0.953	-1.297	1.687	2.336	-0.424	-0.699	0.565	-0.933	0.354	1.176	0.018	628.906
1.326	-0.067	0.233	1.457	1.313	0.038	1.362	0.075	2.610	0.195	0.873	0.151	1.361	3.087	1.045	1.053	-2.206	-0.969	-1.182	1.848	2.445	-0.390	-0.734	0.514	-1.050	0.215	1.092	-0.248	632.812
1.627	0.119	0.280	1.541	1.320	-0.051	1.371	0.093	2.621	0.229	0.864	0.011	1.413	3.092	1.069	1.202	-2.119	-0.990	-1.108	1.962	2.519	-0.340	-0.751	0.525	-1.094	0.152	1.097	-0.426	636.719
1.840	0.207	0.279	1.552	1.297	-0.164	1.391	0.099	2.598	0.294	0.892	-0.057	1.510	3.112	1.027	1.261	-2.101	-1.015	-1.072	2.019	2.543	-0.278	-0.741	0.589	-1.066	0.157	1.179	-0.526	640.625
1.974	0.202	0.257	1.500	1.255	-0.279	1.417	0.095	2.547	0.376	0.937	-0.072	1.633	3.139	0.932	1.234	-2.153	-1.039	-1.067	2.021	2.513	-0.206	-0.698	0.694	-0.977	0.210	1.316	-0.568	644.531
2.056	0.125	0.242	1.404	1.205	-0.376	1.437	0.082	2.465	0.455	0.968	-0.061	1.761	3.165	0.808	1.135	-2.265	-1.054	-1.075	1.981	2.435	-0.125	-0.619	0.821	-0.843	0.283	1.475	-0.578	648.438
2.121	0.009	0.266	1.289	1.160	-0.437	1.442	0.053	2.350	0.509	0.957	-0.056	1.874	3.186	0.685	0.993	-2.411	-1.049	-1.076	1.919	2.325	-0.037	-0.505	0.950	-0.692	0.345	1.626	-0.590	652.344
2.210	-0.108	0.350	1.182	1.132	-0.453	1.421	0.002	2.194	0.517	0.878	-0.090	1.954	3.197	0.594	0.845	-2.557	-1.009	-1.048	1.860	2.205	0.054	-0.365	1.061	-0.551	0.364	1.735	-0.634	656.250
2.360	-0.188	0.506	1.109	1.132	-0.422	1.368	-0.081	1.988	0.462	0.715	-0.187	1.990	3.198	0.567	0.729	-2.665	-0.921	-0.973	1.831	2.104	0.147	-0.208	1.133	-0.449	0.312	1.775	-0.739	660.156
2.595	-0.200	0.733	1.091	1.166	-0.347	1.277	-0.204	1.725	0.333	0.463	-0.364	1.977	3.190	0.630	0.680	-2.698	-0.774	-0.843	1.854	2.048	0.242	-0.049	1.151	-0.413	0.170	1.728	-0.922	664.062
2.927	-0.125	1.017	1.138	1.237	-0.240	1.149	-0.370	1.402	0.127	0.127	-0.622	1.916	3.177	0.800	0.723	-2.630	-0.564	-0.656	1.942	2.059	0.337	0.102	1.103	-0.458	-0.069	1.587	-1.191	667.969
3.350	0.044	1.336	1.254	1.342	-0.116	0.986	-0.579	1.022	-0.151	-0.278	-0.955	1.815	3.165	1.079	0.872	-2.451	-0.295	-0.419	2.101	2.147	0.434	0.238	0.989	-0.589	-0.398	1.355	-1.538	671.875
3.844	0.297	1.664	1.431	1.474	0.008	0.792	-0.822	0.594	-0.489	-0.730	-1.345	1.687	3.159	1.457	1.123	-2.167	0.019	-0.145	2.324	2.316	0.535	0.355	0.815	-0.796	-0.795	1.049	-1.945	675.781
4.377	0.608	1.972	1.650	1.623	0.116	0.575	-1.091	0.135	-0.870	-1.206	-1.768	1.542	3.165	1.906	1.459	-1.800	0.356	0.149	2.596	2.553	0.644	0.459	0.596	-1.057	-1.228	0.691	-2.383	679.688
4.912	0.942	2.237	1.884	1.771	0.193	0.344	-1.370	-0.333	-1.272	-1.677	-2.196	1.396	3.184	2.388	1.848	-1.387	0.690	0.444	2.891	2.836	0.764	0.558	0.358	-1.337	-1.655	0.312	-2.816	683.594
5.409	1.260	2.443	2.104	1.901	0.230	0.110	-1.641	-0.783	-1.669	-2.118	-2.599	1.260	3.216	2.857	2.251	-0.968	0.997	0.718	3.179	3.136	0.898	0.662	0.125	-1.596	-2.035	-0.059	-3.208	687.500
5.833	1.520	2.581	2.278	1.996	0.224	-0.112	-1.886	-1.186	-2.034	-2.500	-2.950	1.142	3.261	3.268	2.625	-0.588	1.257	0.952	3.431	3.419	1.042	0.777	-0.073	-1.798	-2.329	-0.393	-3.526	691.406
6.159	1.690	2.655	2.383	2.045	0.177	-0.308	-2.085	-1.511	-2.344	-2.800	-3.227	1.049	3.312	3.581	2.930	-0.281	1.460	1.127	3.618	3.657	1.190	0.908	-0.217	-1.913	-2.511	-0.669	-3.751	695.312
6.372	1.750	2.673	2.403	2.041	0.096	-0.465	-2.220	-1.735	-2.578	-2.998	-3.416	0.981	3.365	3.771	3.137	-0.069	1.606	1.231	3.719	3.825	1.329	1.051	-0.294	-1.924	-2.568	-0.876	-3.873	699.219
6.472	1.694	2.646	2.335	1.986	-0.008	-0.572	-2.279	-1.840	-2.724	-3.083	-3.513	0.937	3.412	3.828	3.232	0.044	1.702	1.256	3.729	3.910	1.447	1.197	-0.300	-1.831	-2.506	-1.011	-3.899	703.125
6.468	1.534	2.586	2.186	1.886	-0.124	-0.625	-2.258	-1.820	-2.778	-3.055	-3.520	0.912	3.448	3.763	3.215	0.068	1.764	1.209	3.653	3.912	1.531	1.334	-0.244	-1.648	-2.342	-1.081	-3.845	707.031
6.374	1.294	2.502	1.977	1.756	-0.242	-0.627	-2.161	-1.686	-2.744	-2.925	-3.450	0.900	3.466	3.599	3.104	0.031	1.807	1.103	3.510	3.843	1.574	1.448	-0.141	-1.401	-2.106	-1.095	-3.737	710.938
6.208	1.007	2.399	1.731	1.610	-0.354	-0.586	-2.004	-1.459	-2.638	-2.712	-3.319	0.895	3.463	3.373	2.927	-0.038	1.845	0.962	3.331	3.721	1.575	1.530	-0.010	-1.120	-1.831	-1.067	-3.598	714.844
5.989	0.712	2.277	1.481	1.464	-0.456	-0.518	-1.809	-1.174	-2.479	-2.445	-3.145	0.891	3.436	3.125	2.721	-0.105	1.883	0.811	3.148	3.575	1.539	1.572	0.126	-0.841	-1.551	-1.009	-3.451	718.750
5.736	0.442	2.136	1.254	1.333	-0.546	-0.437	-1.604	-0.872	-2.291	-2.156	-2.950	0.886	3.387	2.892	2.522	-0.148	1.917	0.677	2.995	3.432	1.478	1.577	0.249	-0.593	-1.293	-0.931	-3.313	722.656
5.466	0.230	1.979	1.075	1.227	-0.624	-0.362	-1.419	-0.595	-2.100	-1.876	-2.750	0.880	3.320	2.701	2.361	-0.157	1.942	0.582	2.894	3.317	1.407	1.549	0.343	-0.400	-1.082	-0.840	-3.192	726.562
5.200	0.094	1.815	0.962	1.154	-0.689	-0.305	-1.278	-0.381	-1.926	-1.633	-2.562	0.875	3.243	2.569	2.259	-0.134	1.949	0.537	2.859	3.249	1.342	1.497	0.400	-0.277	-0.933	-0.743	-3.092	730.469
4.957	0.044	1.654	0.924	1.119	-0.739	-0.272	-1.200	-0.260	-1.786	-1.450	-2.396	0.876	3.169	2.497	2.225	-0.096	1.933	0.546	2.892	3.238	1.297	1.429	0.419	-0.228	-0.852	-0.645	-3.009	734.375
4.758	0.076	1.513	0.958	1.121	-0.773	-0.267	-1.195	-0.247	-1.688	-1.340	-2.258	0.891	3.111	2.479	2.252	-0.065	1.893	0.601	2.981	3.286	1.280	1.351	0.402	-0.250	-0.841	-0.547	-2.939	738.281
4.618	0.175	1.405	1.049	1.155	-0.790	-0.285	-1.262	-0.343	-1.632	-1.310	-2.152	0.925	3.083	2.497	2.325	-0.062	1.833	0.685	3.107	3.385	1.295	1.268	0.362	-0.328	-0.888	-0.449	-2.877	742.188
4.546	0.318	1.340	1.175	1.214	-0.791	-0.317	-1.394	-0.538	-1.615	-1.357	-2.072	0.986	3.096	2.535	2.421	-0.105	1.761	0.776	3.248	3.520	1.341	1.184	0.314	-0.443	-0.978	-0.350	-2.815	746.094
4.541	0.474	1.317	1.308	1.284	-0.782	-0.355	-1.575	-0.807	-1.628	-1.470	-2.013	1.075	3.155	2.578	2.515	-0.198	1.686	0.853	3.381	3.674	1.413	1.102	0.276	-0.569	-1.089	-0.244	-2.751	750.000
4.590	0.611	1.328	1.417	1.353	-0.772	-0.389	-1.787	-1.120	-1.661	-1.632	-1.967	1.194	3.259	2.614	2.586	-0.337	1.617	0.895	3.487	3.828	1.503	1.029	0.263	-0.681	-1.195	-0.128	-2.681	753.906
4.673	0.704	1.355	1.480	1.408	-0.772	-0.411	-2.011	-1.446	-1.706	-1.826	-1.924	1.338	3.400	2.639	2.623	-0.506	1.557	0.895	3.556	3.965	1.603	0.970	0.289	-0.756	-1.271	0.001	-2.606	757.812
4.762	0.735	1.381	1.484	1.441	-0.790	-0.419	-2.228	-1.752	-1.753	-2.031	-1.879	1.498	3.565	2.653	2.620	-0.684	1.508	0.851	3.586	4.073	1.708	0.934	0.357	-0.780	-1.299	0.140	-2.526	761.719
4.833	0.699	1.391	1.428	1.447	-0.831	-0.412	-2.422	-2.012	-1.797	-2.229	-1.828	1.663	3.734	2.656	2.583	-0.850	1.468	0.774	3.583	4.146	1.810	0.924	0.464	-0.748	-1.271	0.281	-2.447	765.625
4.865	0.607	1.378	1.325	1.429	-0.895	-0.392	-2.581	-2.206	-1.837	-2.404	-1.773	1.816	3.890	2.651	2.524	-0.986	1.433	0.678	3.558	4.182	1.905	0.940	0.594	-0.669	-1.192	0.410	-2.373	769.531
4.852	0.481	1.351	1.196	1.393	-0.973	-0.363	-2.695	-2.324	-1.872	-2.547	-1.721	1.940	4.011	2.637	2.459	-1.083	1.401	0.581	3.524	4.182	1.990	0.979	0.727	-0.560	-1.078	0.508	-2.311	773.438
4.795	0.348	1.323	1.066	1.346	-1.059	-0.331	-2.761	-2.365	-1.907	-2.651	-1.682	2.019	4.084	2.612	2.403	-1.139	1.372	0.501	3.493	4.151	2.062	1.030	0.841	-0.445	-0.951	0.557	-2.269	777.344
4.709	0.238	1.317	0.959	1.298	-1.140	-0.300	-2.780	-2.337	-1.948	-2.718	-1.663	2.041	4.098	2.573	2.369	-1.157	1.350	0.448	3.474	4.094	2.120	1.082	0.916	-0.347	-0.838	0.544	-2.252	781.250
4.609	0.172	1.349	0.889	1.256	-1.211	-0.275	-2.757	-2.253	-1.998	-2.753	-1.672	2.001	4.053	2.515	2.363	-1.147	1.338	0.427	3.473	4.017	2.167	1.124	0.940	-0.284	-0.759	0.462	-2.265	785.156
4.509	0.159	1.430	0.864	1.223	-1.268	-0.257	-2.703	-2.131	-2.062	-2.763	-1.710	1.904	3.957	2.438	2.386	-1.119	1.338	0.435	3.490	3.926	2.204	1.150	0.913	-0.264	-0.722	0.316	-2.305	789.062
4.420	0.196	1.556	0.876	1.201	-1.312	-0.247	-2.630	-1.989	-2.138	-2.761	-1.772	1.764	3.823	2.343	2.434	-1.083	1.349	0.465	3.522	3.829	2.235	1.159	0.843	-0.283	-0.725	0.122	-2.367	792.969
4.342	0.264	1.711	0.914	1.187	-1.347	-0.242	-2.553	-1.846	-2.222	-2.756	-1.848	1.603	3.672	2.239	2.496	-1.048	1.365	0.507	3.563	3.731	2.265	1.156	0.748	-0.327	-0.755	-0.097	-2.440	796.875
