FP1	F3	F7	FC3	C3	C5	P3	P7	PO7	PO3	O1	Oz	Pz	CPz	FP2	Fz	F4	F8	FC4	FCz	Cz	C4	C6	P4	P8	PO8	PO4	O2	time
-0.584	-0.573	0.201	0.080	0.068	0.446	0.169	0.339	0.443	0.054	0.301	-0.028	0.628	0.417	-0.647	-0.276	-0.745	-0.106	0.338	0.582	0.703	0.196	0.264	0.796	0.514	0.797	0.461	0.287	-199.219
-0.345	-0.343	0.199	0.180	0.011	0.332	-0.019	0.053	0.303	-0.027	0.177	-0.029	0.515	0.403	-0.585	-0.117	-0.590	-0.267	0.350	0.586	0.729	0.136	0.126	0.687	0.529	0.776	0.391	0.231	-195.312
-0.129	-0.130	0.192	0.271	-0.033	0.229	-0.190	-0.203	0.181	-0.102	0.063	-0.027	0.419	0.394	-0.518	0.023	-0.468	-0.415	0.346	0.586	0.748	0.088	0.004	0.595	0.539	0.750	0.340	0.187	-191.406
0.045	0.053	0.178	0.347	-0.056	0.147	-0.327	-0.402	0.093	-0.165	-0.034	-0.019	0.351	0.395	-0.445	0.128	-0.406	-0.543	0.313	0.577	0.756	0.059	-0.089	0.532	0.539	0.715	0.315	0.162	-187.500
0.168	0.197	0.159	0.406	-0.049	0.094	-0.417	-0.525	0.048	-0.215	-0.105	-0.008	0.317	0.407	-0.370	0.190	-0.417	-0.646	0.249	0.559	0.752	0.054	-0.144	0.502	0.524	0.666	0.321	0.156	-183.594
0.243	0.299	0.139	0.450	-0.012	0.074	-0.454	-0.568	0.047	-0.249	-0.151	0.002	0.319	0.428	-0.300	0.210	-0.499	-0.720	0.162	0.536	0.736	0.076	-0.161	0.500	0.493	0.600	0.351	0.166	-179.688
0.281	0.363	0.122	0.482	0.054	0.087	-0.436	-0.533	0.082	-0.270	-0.171	0.008	0.348	0.455	-0.242	0.194	-0.636	-0.767	0.068	0.512	0.714	0.123	-0.147	0.517	0.443	0.515	0.395	0.184	-175.781
0.294	0.394	0.112	0.507	0.142	0.129	-0.364	-0.436	0.142	-0.279	-0.169	0.002	0.394	0.483	-0.207	0.156	-0.800	-0.790	-0.015	0.496	0.689	0.189	-0.112	0.538	0.374	0.413	0.437	0.198	-171.875
0.293	0.400	0.113	0.530	0.242	0.195	-0.247	-0.295	0.210	-0.274	-0.148	-0.016	0.445	0.507	-0.198	0.112	-0.960	-0.798	-0.067	0.491	0.665	0.263	-0.070	0.546	0.288	0.297	0.463	0.197	-167.969
0.282	0.388	0.122	0.551	0.347	0.277	-0.095	-0.130	0.272	-0.256	-0.111	-0.048	0.489	0.523	-0.218	0.076	-1.083	-0.797	-0.079	0.498	0.645	0.336	-0.032	0.525	0.184	0.172	0.458	0.174	-164.062
0.262	0.365	0.136	0.571	0.447	0.369	0.080	0.038	0.315	-0.223	-0.066	-0.091	0.515	0.526	-0.259	0.059	-1.146	-0.797	-0.051	0.517	0.628	0.396	-0.008	0.468	0.065	0.044	0.415	0.123	-160.156
0.234	0.339	0.149	0.585	0.537	0.461	0.261	0.191	0.328	-0.179	-0.016	-0.142	0.518	0.515	-0.307	0.067	-1.138	-0.798	0.009	0.541	0.615	0.435	-0.001	0.374	-0.067	-0.082	0.333	0.047	-156.250
0.198	0.314	0.157	0.591	0.611	0.546	0.434	0.312	0.307	-0.125	0.029	-0.197	0.497	0.493	-0.345	0.102	-1.061	-0.800	0.084	0.566	0.604	0.449	-0.010	0.251	-0.205	-0.198	0.218	-0.050	-152.344
0.161	0.295	0.157	0.586	0.668	0.615	0.581	0.391	0.249	-0.070	0.060	-0.253	0.456	0.461	-0.357	0.163	-0.930	-0.793	0.157	0.586	0.593	0.440	-0.031	0.115	-0.344	-0.302	0.082	-0.156	-148.438
0.129	0.284	0.146	0.569	0.706	0.659	0.689	0.418	0.155	-0.023	0.071	-0.310	0.399	0.425	-0.332	0.242	-0.762	-0.770	0.214	0.598	0.583	0.413	-0.056	-0.015	-0.472	-0.386	-0.061	-0.260	-144.531
0.111	0.283	0.128	0.541	0.724	0.674	0.747	0.390	0.029	0.009	0.052	-0.366	0.336	0.390	-0.267	0.333	-0.581	-0.724	0.248	0.597	0.573	0.381	-0.081	-0.118	-0.578	-0.447	-0.194	-0.351	-140.625
0.111	0.290	0.105	0.507	0.723	0.658	0.751	0.311	-0.123	0.020	0.000	-0.421	0.271	0.359	-0.171	0.426	-0.404	-0.656	0.263	0.584	0.564	0.353	-0.098	-0.181	-0.649	-0.479	-0.299	-0.418	-136.719
0.128	0.304	0.083	0.472	0.702	0.614	0.703	0.191	-0.294	0.007	-0.083	-0.472	0.211	0.337	-0.061	0.510	-0.243	-0.573	0.264	0.558	0.556	0.341	-0.105	-0.195	-0.675	-0.477	-0.365	-0.457	-132.812
0.155	0.322	0.065	0.440	0.663	0.549	0.612	0.046	-0.471	-0.028	-0.192	-0.517	0.159	0.324	0.042	0.575	-0.105	-0.488	0.263	0.519	0.546	0.348	-0.098	-0.163	-0.648	-0.441	-0.385	-0.467	-128.906
0.179	0.341	0.056	0.415	0.609	0.474	0.490	-0.105	-0.641	-0.077	-0.313	-0.550	0.115	0.318	0.121	0.611	0.009	-0.415	0.268	0.465	0.534	0.374	-0.079	-0.095	-0.570	-0.373	-0.359	-0.452	-125.000
0.188	0.355	0.056	0.397	0.544	0.400	0.355	-0.239	-0.789	-0.133	-0.433	-0.569	0.077	0.316	0.163	0.608	0.101	-0.364	0.280	0.395	0.514	0.409	-0.047	-0.008	-0.448	-0.279	-0.293	-0.421	-121.094
0.175	0.363	0.066	0.383	0.474	0.339	0.222	-0.337	-0.901	-0.187	-0.533	-0.567	0.044	0.313	0.165	0.562	0.176	-0.337	0.296	0.308	0.483	0.441	-0.005	0.079	-0.299	-0.171	-0.197	-0.382	-117.188
0.135	0.358	0.084	0.369	0.407	0.297	0.108	-0.383	-0.965	-0.231	-0.597	-0.544	0.014	0.304	0.132	0.471	0.234	-0.331	0.307	0.204	0.434	0.458	0.042	0.149	-0.142	-0.060	-0.085	-0.342	-113.281
0.074	0.339	0.104	0.347	0.346	0.277	0.023	-0.369	-0.971	-0.258	-0.611	-0.497	-0.014	0.285	0.076	0.339	0.273	-0.334	0.302	0.082	0.364	0.446	0.088	0.188	0.002	0.041	0.031	-0.309	-109.375
-0.003	0.304	0.121	0.310	0.296	0.276	-0.023	-0.292	-0.914	-0.264	-0.565	-0.427	-0.039	0.254	0.009	0.174	0.287	-0.337	0.270	-0.054	0.270	0.399	0.127	0.192	0.118	0.121	0.138	-0.285	-105.469
-0.088	0.252	0.126	0.255	0.255	0.289	-0.030	-0.159	-0.794	-0.245	-0.456	-0.333	-0.061	0.210	-0.054	-0.010	0.268	-0.328	0.204	-0.200	0.153	0.318	0.151	0.165	0.196	0.173	0.227	-0.267	-101.562
-0.175	0.186	0.114	0.180	0.220	0.306	0.000	0.016	-0.616	-0.200	-0.289	-0.219	-0.077	0.153	-0.106	-0.200	0.213	-0.304	0.104	-0.352	0.014	0.208	0.155	0.115	0.235	0.197	0.295	-0.251	-97.656
-0.263	0.109	0.079	0.091	0.187	0.317	0.059	0.212	-0.389	-0.133	-0.077	-0.088	-0.086	0.086	-0.140	-0.379	0.122	-0.265	-0.023	-0.501	-0.142	0.082	0.139	0.056	0.238	0.195	0.338	-0.229	-93.750
-0.350	0.028	0.022	-0.004	0.149	0.311	0.133	0.407	-0.130	-0.048	0.160	0.057	-0.091	0.008	-0.160	-0.535	0.007	-0.212	-0.163	-0.642	-0.308	-0.045	0.107	-0.000	0.216	0.175	0.356	-0.196	-89.844
-0.440	-0.054	-0.053	-0.097	0.103	0.281	0.207	0.578	0.141	0.047	0.399	0.207	-0.094	-0.078	-0.171	-0.655	-0.111	-0.151	-0.301	-0.767	-0.478	-0.161	0.067	-0.046	0.181	0.145	0.352	-0.146	-85.938
-0.534	-0.130	-0.140	-0.179	0.048	0.224	0.269	0.707	0.403	0.143	0.614	0.355	-0.100	-0.172	-0.180	-0.735	-0.209	-0.083	-0.420	-0.870	-0.644	-0.255	0.028	-0.076	0.144	0.114	0.327	-0.078	-82.031
-0.630	-0.198	-0.228	-0.243	-0.016	0.139	0.307	0.783	0.635	0.230	0.786	0.493	-0.114	-0.273	-0.196	-0.773	-0.263	-0.012	-0.509	-0.947	-0.801	-0.324	0.000	-0.094	0.115	0.090	0.288	0.009	-78.125
-0.724	-0.255	-0.310	-0.291	-0.085	0.034	0.315	0.803	0.822	0.300	0.899	0.613	-0.141	-0.377	-0.223	-0.773	-0.256	0.059	-0.562	-0.994	-0.945	-0.367	-0.012	-0.103	0.097	0.080	0.238	0.108	-74.219
-0.809	-0.305	-0.376	-0.326	-0.156	-0.082	0.291	0.775	0.951	0.347	0.949	0.710	-0.180	-0.481	-0.260	-0.741	-0.181	0.130	-0.577	-1.013	-1.071	-0.388	-0.008	-0.112	0.093	0.085	0.183	0.212	-70.312
-0.875	-0.349	-0.423	-0.355	-0.229	-0.201	0.240	0.708	1.019	0.369	0.937	0.779	-0.231	-0.577	-0.303	-0.686	-0.043	0.201	-0.562	-1.006	-1.175	-0.394	0.008	-0.125	0.101	0.105	0.130	0.315	-66.406
-0.910	-0.392	-0.447	-0.387	-0.301	-0.315	0.165	0.616	1.026	0.364	0.869	0.817	-0.289	-0.659	-0.340	-0.617	0.145	0.276	-0.523	-0.974	-1.253	-0.390	0.028	-0.146	0.113	0.135	0.082	0.405	-62.500
-0.900	-0.436	-0.449	-0.428	-0.374	-0.417	0.075	0.510	0.975	0.336	0.756	0.821	-0.346	-0.720	-0.359	-0.542	0.364	0.362	-0.470	-0.923	-1.301	-0.384	0.045	-0.175	0.125	0.164	0.041	0.473	-58.594
-0.836	-0.481	-0.431	-0.481	-0.451	-0.507	-0.024	0.398	0.875	0.290	0.609	0.791	-0.396	-0.756	-0.345	-0.465	0.593	0.463	-0.410	-0.855	-1.312	-0.377	0.052	-0.212	0.127	0.182	0.004	0.513	-54.688
-0.712	-0.524	-0.395	-0.543	-0.531	-0.586	-0.126	0.286	0.733	0.234	0.440	0.725	-0.432	-0.765	-0.288	-0.388	0.811	0.585	-0.347	-0.771	-1.285	-0.372	0.047	-0.252	0.116	0.177	-0.032	0.519	-50.781
-0.532	-0.558	-0.343	-0.610	-0.613	-0.655	-0.225	0.174	0.560	0.177	0.262	0.626	-0.451	-0.747	-0.181	-0.312	0.996	0.726	-0.282	-0.676	-1.216	-0.369	0.031	-0.294	0.086	0.141	-0.072	0.489	-46.875
-0.308	-0.576	-0.277	-0.672	-0.690	-0.716	-0.315	0.062	0.366	0.129	0.087	0.501	-0.451	-0.705	-0.030	-0.236	1.132	0.880	-0.218	-0.568	-1.108	-0.367	0.009	-0.333	0.040	0.073	-0.119	0.428	-42.969
-0.059	-0.572	-0.203	-0.723	-0.755	-0.768	-0.392	-0.051	0.163	0.099	-0.074	0.360	-0.435	-0.646	0.156	-0.158	1.206	1.035	-0.155	-0.452	-0.965	-0.366	-0.012	-0.369	-0.018	-0.026	-0.177	0.343	-39.062
0.188	-0.542	-0.126	-0.756	-0.799	-0.810	-0.451	-0.163	-0.037	0.091	-0.212	0.214	-0.406	-0.575	0.358	-0.078	1.213	1.174	-0.096	-0.329	-0.793	-0.366	-0.028	-0.399	-0.080	-0.144	-0.244	0.245	-35.156
0.407	-0.485	-0.053	-0.769	-0.815	-0.837	-0.490	-0.270	-0.218	0.106	-0.317	0.078	-0.373	-0.499	0.558	0.002	1.156	1.281	-0.043	-0.206	-0.605	-0.366	-0.034	-0.425	-0.136	-0.268	-0.319	0.146	-31.250
0.577	-0.406	0.008	-0.764	-0.799	-0.845	-0.509	-0.369	-0.366	0.139	-0.385	-0.035	-0.344	-0.426	0.737	0.083	1.044	1.343	-0.002	-0.087	-0.414	-0.369	-0.033	-0.449	-0.180	-0.387	-0.396	0.056	-27.344
0.684	-0.313	0.052	-0.743	-0.752	-0.830	-0.508	-0.450	-0.468	0.180	-0.413	-0.117	-0.327	-0.363	0.883	0.160	0.896	1.352	0.026	0.021	-0.232	-0.377	-0.028	-0.472	-0.210	-0.488	-0.472	-0.016	-23.438
0.729	-0.213	0.078	-0.713	-0.679	-0.790	-0.494	-0.508	-0.516	0.217	-0.406	-0.163	-0.330	-0.315	0.991	0.232	0.736	1.311	0.039	0.113	-0.075	-0.393	-0.028	-0.500	-0.228	-0.567	-0.543	-0.067	-19.531
0.723	-0.117	0.089	-0.679	-0.590	-0.728	-0.470	-0.538	-0.506	0.237	-0.371	-0.174	-0.357	-0.287	1.060	0.295	0.589	1.230	0.037	0.182	0.047	-0.419	-0.041	-0.536	-0.242	-0.623	-0.606	-0.097	-15.625
0.683	-0.034	0.090	-0.649	-0.493	-0.647	-0.443	-0.538	-0.440	0.232	-0.319	-0.159	-0.409	-0.281	1.097	0.347	0.481	1.125	0.025	0.226	0.127	-0.456	-0.070	-0.581	-0.260	-0.659	-0.661	-0.108	-11.719
0.632	0.029	0.089	-0.626	-0.401	-0.558	-0.419	-0.508	-0.326	0.198	-0.261	-0.128	-0.482	-0.298	1.109	0.385	0.429	1.017	0.008	0.242	0.162	-0.503	-0.117	-0.633	-0.288	-0.680	-0.706	-0.103	-7.812
0.585	0.066	0.092	-0.616	-0.322	-0.469	-0.402	-0.454	-0.176	0.136	-0.206	-0.091	-0.571	-0.335	1.106	0.407	0.441	0.921	-0.008	0.229	0.154	-0.558	-0.177	-0.688	-0.330	-0.692	-0.742	-0.087	-3.906
0.555	0.073	0.104	-0.620	-0.265	-0.391	-0.392	-0.382	-0.006	0.057	-0.160	-0.057	-0.663	-0.388	1.096	0.411	0.514	0.849	-0.018	0.188	0.110	-0.618	-0.240	-0.739	-0.385	-0.695	-0.766	-0.061	0.000
0.540	0.049	0.123	-0.636	-0.232	-0.331	-0.387	-0.300	0.172	-0.024	-0.119	-0.030	-0.746	-0.447	1.080	0.398	0.633	0.800	-0.019	0.123	0.041	-0.679	-0.297	-0.777	-0.448	-0.693	-0.776	-0.028	3.906
0.534	-0.006	0.149	-0.663	-0.222	-0.293	-0.384	-0.213	0.346	-0.089	-0.080	-0.009	-0.809	-0.503	1.057	0.366	0.775	0.766	-0.011	0.040	-0.041	-0.738	-0.339	-0.796	-0.509	-0.681	-0.767	0.013	7.812
0.521	-0.086	0.175	-0.693	-0.230	-0.276	-0.376	-0.128	0.507	-0.120	-0.030	0.012	-0.840	-0.546	1.022	0.319	0.912	0.732	0.006	-0.053	-0.127	-0.793	-0.363	-0.790	-0.557	-0.660	-0.736	0.062	11.719
0.487	-0.187	0.196	-0.723	-0.251	-0.278	-0.359	-0.048	0.651	-0.106	0.040	0.044	-0.835	-0.569	0.966	0.259	1.019	0.682	0.027	-0.147	-0.208	-0.844	-0.373	-0.760	-0.585	-0.626	-0.677	0.122	15.625
0.416	-0.301	0.205	-0.748	-0.277	-0.292	-0.328	0.023	0.778	-0.043	0.138	0.096	-0.792	-0.571	0.882	0.188	1.074	0.603	0.047	-0.234	-0.279	-0.891	-0.377	-0.710	-0.583	-0.578	-0.589	0.196	19.531
0.303	-0.418	0.201	-0.768	-0.304	-0.314	-0.285	0.085	0.884	0.065	0.268	0.173	-0.720	-0.554	0.769	0.109	1.069	0.492	0.065	-0.306	-0.340	-0.936	-0.385	-0.647	-0.550	-0.520	-0.476	0.283	23.438
0.152	-0.529	0.184	-0.782	-0.326	-0.338	-0.232	0.137	0.968	0.203	0.423	0.273	-0.628	-0.526	0.631	0.027	1.003	0.356	0.077	-0.359	-0.394	-0.980	-0.407	-0.583	-0.488	-0.458	-0.345	0.382	27.344
-0.025	-0.624	0.162	-0.790	-0.345	-0.361	-0.176	0.176	1.024	0.348	0.588	0.387	-0.533	-0.495	0.484	-0.053	0.891	0.212	0.085	-0.389	-0.444	-1.022	-0.450	-0.530	-0.403	-0.401	-0.212	0.483	31.250
-0.205	-0.689	0.146	-0.794	-0.358	-0.380	-0.127	0.200	1.043	0.476	0.741	0.494	-0.450	-0.475	0.349	-0.122	0.753	0.085	0.092	-0.394	-0.494	-1.062	-0.512	-0.498	-0.309	-0.359	-0.095	0.573	35.156
-0.359	-0.716	0.148	-0.791	-0.367	-0.395	-0.096	0.205	1.013	0.563	0.856	0.570	-0.394	-0.472	0.252	-0.173	0.615	-0.002	0.100	-0.376	-0.545	-1.098	-0.589	-0.496	-0.220	-0.344	-0.014	0.633	39.062
-0.459	-0.694	0.180	-0.777	-0.368	-0.404	-0.091	0.189	0.925	0.588	0.905	0.591	-0.377	-0.492	0.216	-0.194	0.500	-0.030	0.114	-0.332	-0.598	-1.128	-0.670	-0.527	-0.153	-0.363	0.012	0.645	42.969
-0.483	-0.619	0.250	-0.746	-0.358	-0.406	-0.120	0.152	0.773	0.542	0.870	0.537	-0.406	-0.535	0.258	-0.177	0.427	0.007	0.137	-0.263	-0.649	-1.150	-0.742	-0.590	-0.118	-0.420	-0.030	0.596	46.875
-0.419	-0.493	0.356	-0.692	-0.333	-0.400	-0.184	0.093	0.558	0.425	0.743	0.403	-0.478	-0.597	0.383	-0.116	0.405	0.106	0.175	-0.170	-0.694	-1.160	-0.793	-0.679	-0.122	-0.511	-0.141	0.479	50.781
-0.271	-0.324	0.488	-0.615	-0.291	-0.385	-0.280	0.017	0.291	0.250	0.533	0.196	-0.589	-0.669	0.579	-0.011	0.437	0.249	0.231	-0.053	-0.727	-1.157	-0.811	-0.782	-0.163	-0.630	-0.313	0.300	54.688
-0.056	-0.127	0.629	-0.518	-0.233	-0.363	-0.399	-0.072	-0.008	0.040	0.264	-0.060	-0.726	-0.741	0.824	0.133	0.515	0.416	0.308	0.081	-0.744	-1.137	-0.790	-0.887	-0.234	-0.763	-0.526	0.079	58.594
0.194	0.073	0.755	-0.412	-0.166	-0.335	-0.530	-0.163	-0.310	-0.178	-0.022	-0.333	-0.873	-0.802	1.082	0.299	0.623	0.585	0.403	0.224	-0.745	-1.099	-0.727	-0.981	-0.318	-0.892	-0.752	-0.156	62.500
0.442	0.252	0.843	-0.313	-0.098	-0.306	-0.656	-0.243	-0.580	-0.372	-0.277	-0.581	-1.014	-0.848	1.315	0.468	0.744	0.737	0.511	0.361	-0.734	-1.045	-0.627	-1.049	-0.395	-0.998	-0.962	-0.373	66.406
0.644	0.383	0.874	-0.242	-0.042	-0.280	-0.761	-0.297	-0.780	-0.519	-0.454	-0.773	-1.136	-0.878	1.488	0.611	0.857	0.861	0.618	0.474	-0.719	-0.980	-0.499	-1.083	-0.443	-1.061	-1.125	-0.541	70.312
0.768	0.445	0.840	-0.218	-0.011	-0.261	-0.830	-0.307	-0.879	-0.600	-0.516	-0.885	-1.229	-0.897	1.573	0.702	0.942	0.954	0.710	0.544	-0.713	-0.912	-0.356	-1.077	-0.439	-1.058	-1.223	-0.640	74.219
0.788	0.424	0.743	-0.257	-0.016	-0.252	-0.857	-0.256	-0.856	-0.612	-0.444	-0.913	-1.293	-0.916	1.555	0.718	0.984	1.013	0.771	0.551	-0.730	-0.852	-0.212	-1.033	-0.366	-0.971	-1.245	-0.662	78.125
0.695	0.317	0.596	-0.371	-0.063	-0.254	-0.838	-0.135	-0.700	-0.561	-0.241	-0.871	-1.333	-0.951	1.432	0.642	0.971	1.041	0.792	0.481	-0.787	-0.810	-0.077	-0.956	-0.206	-0.783	-1.194	-0.611	82.031
0.492	0.129	0.417	-0.560	-0.156	-0.265	-0.781	0.062	-0.417	-0.462	0.070	-0.781	-1.362	-1.018	1.208	0.464	0.898	1.037	0.764	0.324	-0.899	-0.798	0.037	-0.854	0.051	-0.479	-1.081	-0.502	85.938
0.191	-0.129	0.226	-0.818	-0.293	-0.283	-0.696	0.333	-0.022	-0.334	0.454	-0.671	-1.395	-1.132	0.897	0.186	0.759	0.999	0.686	0.078	-1.079	-0.824	0.127	-0.740	0.410	-0.054	-0.924	-0.350	89.844
-0.189	-0.440	0.040	-1.133	-0.469	-0.307	-0.597	0.669	0.461	-0.196	0.870	-0.564	-1.445	-1.302	0.512	-0.186	0.554	0.921	0.563	-0.251	-1.332	-0.893	0.187	-0.623	0.867	0.493	-0.740	-0.169	93.750
-0.627	-0.785	-0.131	-1.488	-0.672	-0.333	-0.496	1.060	1.007	-0.057	1.282	-0.473	-1.519	-1.527	0.068	-0.637	0.282	0.796	0.400	-0.653	-1.658	-1.006	0.213	-0.513	1.409	1.147	-0.546	0.033	97.656
-1.103	-1.146	-0.283	-1.863	-0.889	-0.357	-0.401	1.491	1.589	0.079	1.664	-0.400	-1.618	-1.795	-0.418	-1.146	-0.057	0.619	0.200	-1.108	-2.043	-1.159	0.201	-0.419	2.011	1.881	-0.354	0.251	101.562
-1.593	-1.501	-0.421	-2.236	-1.103	-0.376	-0.311	1.947	2.183	0.215	2.002	-0.338	-1.730	-2.083	-0.923	-1.685	-0.455	0.390	-0.030	-1.590	-2.463	-1.347	0.147	-0.346	2.639	2.651	-0.174	0.480	105.469
-2.073	-1.834	-0.550	-2.586	-1.294	-0.384	-0.222	2.411	2.768	0.361	2.290	-0.275	-1.841	-2.360	-1.418	-2.224	-0.901	0.119	-0.287	-2.072	-2.888	-1.558	0.048	-0.296	3.245	3.401	-0.014	0.714	109.375
-2.514	-2.125	-0.673	-2.892	-1.448	-0.377	-0.128	2.865	3.321	0.525	2.532	-0.203	-1.931	-2.592	-1.870	-2.727	-1.375	-0.176	-0.566	-2.522	-3.279	-1.778	-0.095	-0.272	3.781	4.069	0.119	0.939	113.281
-2.886	-2.360	-0.788	-3.138	-1.550	-0.353	-0.020	3.288	3.822	0.712	2.731	-0.119	-1.981	-2.749	-2.247	-3.161	-1.853	-0.468	-0.856	-2.910	-3.600	-1.990	-0.276	-0.270	4.200	4.595	0.220	1.138	117.188
-3.162	-2.526	-0.888	-3.311	-1.594	-0.313	0.105	3.658	4.250	0.922	2.889	-0.026	-1.976	-2.811	-2.519	-3.497	-2.306	-0.728	-1.147	-3.212	-3.821	-2.178	-0.480	-0.288	4.467	4.931	0.283	1.290	121.094
-3.320	-2.619	-0.963	-3.406	-1.583	-0.260	0.245	3.951	4.583	1.144	3.006	0.064	-1.911	-2.767	-2.669	-3.716	-2.704	-0.929	-1.421	-3.413	-3.922	-2.325	-0.688	-0.318	4.564	5.049	0.306	1.377	125.000
-3.352	-2.642	-1.001	-3.425	-1.523	-0.201	0.396	4.146	4.804	1.363	3.079	0.138	-1.784	-2.624	-2.697	-3.812	-3.018	-1.051	-1.657	-3.506	-3.897	-2.419	-0.875	-0.350	4.495	4.952	0.292	1.387	128.906
-3.266	-2.608	-0.998	-3.380	-1.432	-0.146	0.544	4.225	4.902	1.560	3.106	0.186	-1.607	-2.399	-2.616	-3.792	-3.224	-1.088	-1.831	-3.497	-3.756	-2.448	-1.013	-0.372	4.289	4.667	0.249	1.319	132.812
-3.090	-2.537	-0.961	-3.289	-1.331	-0.104	0.676	4.179	4.872	1.716	3.087	0.206	-1.393	-2.122	-2.458	-3.679	-3.305	-1.044	-1.920	-3.403	-3.522	-2.408	-1.076	-0.373	3.994	4.250	0.189	1.188	136.719
-2.867	-2.459	-0.906	-3.179	-1.244	-0.089	0.775	4.013	4.723	1.820	3.030	0.204	-1.164	-1.826	-2.260	-3.504	-3.256	-0.934	-1.905	-3.252	-3.232	-2.300	-1.046	-0.341	3.670	3.772	0.131	1.020	140.625
-2.653	-2.404	-0.861	-3.080	-1.195	-0.110	0.829	3.744	4.479	1.864	2.953	0.199	-0.940	-1.545	-2.069	-3.310	-3.085	-0.776	-1.782	-3.077	-2.930	-2.130	-0.913	-0.268	3.381	3.313	0.094	0.856	144.531
-2.504	-2.403	-0.858	-3.022	-1.204	-0.175	0.831	3.402	4.176	1.854	2.881	0.218	-0.741	-1.312	-1.930	-3.139	-2.816	-0.594	-1.558	-2.916	-2.660	-1.916	-0.682	-0.152	3.186	2.947	0.098	0.741	148.438
-2.470	-2.479	-0.924	-3.035	-1.288	-0.286	0.781	3.030	3.860	1.803	2.847	0.290	-0.582	-1.152	-1.882	-3.029	-2.488	-0.411	-1.259	-2.807	-2.463	-1.679	-0.373	0.007	3.129	2.736	0.160	0.719	152.344
-2.587	-2.647	-1.081	-3.136	-1.452	-0.441	0.689	2.677	3.584	1.732	2.888	0.443	-0.472	-1.079	-1.952	-3.013	-2.153	-0.247	-0.928	-2.780	-2.371	-1.448	-0.018	0.202	3.233	2.719	0.289	0.825	156.250
-2.870	-2.908	-1.334	-3.337	-1.693	-0.633	0.568	2.390	3.399	1.663	3.035	0.694	-0.416	-1.099	-2.154	-3.109	-1.864	-0.122	-0.616	-2.857	-2.402	-1.255	0.344	0.421	3.502	2.910	0.489	1.079	160.156
-3.311	-3.251	-1.674	-3.634	-1.998	-0.852	0.437	2.206	3.347	1.617	3.309	1.048	-0.413	-1.208	-2.484	-3.319	-1.673	-0.047	-0.376	-3.046	-2.555	-1.125	0.673	0.653	3.918	3.299	0.753	1.482	164.062
-3.884	-3.657	-2.077	-4.015	-2.352	-1.089	0.314	2.153	3.455	1.608	3.715	1.493	-0.461	-1.396	-2.922	-3.632	-1.617	-0.031	-0.252	-3.342	-2.820	-1.078	0.936	0.884	4.449	3.853	1.068	2.015	167.969
-4.546	-4.100	-2.512	-4.457	-2.734	-1.335	0.212	2.236	3.730	1.643	4.241	2.003	-0.557	-1.647	-3.437	-4.025	-1.711	-0.075	-0.269	-3.731	-3.173	-1.123	1.113	1.101	5.054	4.526	1.412	2.641	171.875
-5.243	-4.554	-2.945	-4.935	-3.127	-1.585	0.139	2.448	4.156	1.721	4.857	2.540	-0.696	-1.946	-3.993	-4.468	-1.948	-0.172	-0.427	-4.188	-3.587	-1.252	1.201	1.294	5.689	5.266	1.762	3.316	175.781
-5.924	-4.996	-3.345	-5.421	-3.515	-1.832	0.093	2.765	4.701	1.833	5.522	3.066	-0.874	-2.276	-4.552	-4.927	-2.297	-0.311	-0.708	-4.685	-4.032	-1.449	1.213	1.457	6.314	6.021	2.095	3.987	179.688
-6.541	-5.409	-3.692	-5.894	-3.890	-2.073	0.069	3.153	5.321	1.969	6.190	3.542	-1.085	-2.625	-5.081	-5.376	-2.717	-0.471	-1.071	-5.196	-4.485	-1.687	1.173	1.587	6.897	6.746	2.389	4.611	183.594
-7.065	-5.787	-3.977	-6.338	-4.247	-2.302	0.059	3.579	5.967	2.116	6.818	3.941	-1.322	-2.981	-5.552	-5.797	-3.156	-0.633	-1.470	-5.701	-4.928	-1.938	1.108	1.683	7.417	7.409	2.630	5.151	187.500
-7.479	-6.130	-4.201	-6.744	-4.585	-2.512	0.053	4.008	6.594	2.263	7.373	4.248	-1.573	-3.336	-5.946	-6.182	-3.569	-0.777	-1.862	-6.184	-5.354	-2.179	1.044	1.748	7.862	7.990	2.812	5.585	191.406
-7.787	-6.447	-4.374	-7.112	-4.905	-2.694	0.046	4.418	7.168	2.404	7.836	4.463	-1.828	-3.682	-6.253	-6.535	-3.925	-0.885	-2.213	-6.640	-5.759	-2.392	0.999	1.786	8.235	8.480	2.937	5.905	195.312
-8.006	-6.748	-4.510	-7.449	-5.207	-2.843	0.037	4.793	7.667	2.537	8.201	4.596	-2.076	-4.015	-6.468	-6.866	-4.207	-0.949	-2.503	-7.067	-6.149	-2.572	0.981	1.802	8.544	8.881	3.011	6.116	199.219
-8.161	-7.041	-4.622	-7.762	-5.494	-2.956	0.028	5.130	8.087	2.661	8.479	4.668	-2.303	-4.330	-6.596	-7.187	-4.420	-0.966	-2.732	-7.469	-6.529	-2.723	0.990	1.801	8.803	9.200	3.046	6.233	203.125
-8.279	-7.332	-4.721	-8.059	-5.764	-3.034	0.025	5.433	8.432	2.778	8.686	4.702	-2.503	-4.623	-6.647	-7.507	-4.582	-0.943	-2.909	-7.851	-6.906	-2.856	1.020	1.789	9.030	9.449	3.054	6.277	207.031
-8.387	-7.619	-4.811	-8.343	-6.018	-3.084	0.035	5.708	8.717	2.889	8.844	4.720	-2.667	-4.893	-6.636	-7.831	-4.721	-0.892	-3.056	-8.216	-7.282	-2.987	1.063	1.770	9.239	9.638	3.047	6.268	210.938
-8.501	-7.896	-4.889	-8.615	-6.253	-3.113	0.062	5.962	8.957	2.997	8.974	4.740	-2.795	-5.137	-6.586	-8.158	-4.868	-0.831	-3.193	-8.566	-7.656	-3.128	1.112	1.747	9.444	9.778	3.036	6.227	214.844
-8.627	-8.154	-4.949	-8.871	-6.469	-3.130	0.110	6.201	9.163	3.099	9.089	4.773	-2.885	-5.356	-6.524	-8.480	-5.048	-0.779	-3.337	-8.901	-8.023	-3.288	1.159	1.723	9.652	9.876	3.027	6.172	218.750
-8.760	-8.383	-4.981	-9.103	-6.666	-3.142	0.176	6.422	9.343	3.193	9.195	4.824	-2.941	-5.547	-6.478	-8.788	-5.274	-0.754	-3.496	-9.218	-8.373	-3.468	1.201	1.701	9.868	9.942	3.027	6.115	222.656
-8.887	-8.574	-4.978	-9.307	-6.844	-3.156	0.255	6.617	9.492	3.274	9.289	4.890	-2.966	-5.709	-6.476	-9.074	-5.548	-0.772	-3.671	-9.513	-8.695	-3.663	1.237	1.685	10.096	9.985	3.041	6.065	226.562
-8.989	-8.723	-4.938	-9.477	-7.006	-3.174	0.336	6.773	9.603	3.334	9.363	4.962	-2.966	-5.840	-6.535	-9.332	-5.858	-0.843	-3.854	-9.781	-8.980	-3.860	1.265	1.683	10.337	10.018	3.074	6.028	230.469
-9.050	-8.831	-4.867	-9.615	-7.152	-3.201	0.407	6.877	9.661	3.367	9.401	5.029	-2.943	-5.936	-6.660	-9.563	-6.184	-0.970	-4.032	-10.019	-9.219	-4.043	1.287	1.702	10.597	10.057	3.132	6.009	234.375
-9.062	-8.907	-4.778	-9.723	-7.284	-3.240	0.456	6.917	9.656	3.366	9.392	5.079	-2.902	-5.996	-6.842	-9.769	-6.502	-1.145	-4.196	-10.222	-9.408	-4.196	1.305	1.750	10.882	10.120	3.218	6.010	238.281
-9.024	-8.960	-4.690	-9.810	-7.405	-3.293	0.474	6.889	9.581	3.327	9.325	5.103	-2.843	-6.016	-7.056	-9.956	-6.793	-1.353	-4.338	-10.390	-9.547	-4.308	1.320	1.834	11.195	10.225	3.337	6.036	242.188
-8.948	-9.003	-4.623	-9.888	-7.516	-3.365	0.459	6.796	9.438	3.250	9.203	5.095	-2.769	-5.994	-7.269	-10.128	-7.043	-1.570	-4.457	-10.526	-9.637	-4.372	1.333	1.958	11.539	10.386	3.486	6.090	246.094
-8.853	-9.046	-4.596	-9.967	-7.618	-3.458	0.416	6.651	9.240	3.140	9.033	5.054	-2.682	-5.931	-7.447	-10.288	-7.248	-1.775	-4.559	-10.631	-9.681	-4.386	1.341	2.120	11.909	10.609	3.665	6.174	250.000
-8.759	-9.097	-4.622	-10.057	-7.712	-3.573	0.357	6.473	9.012	3.009	8.834	4.982	-2.580	-5.825	-7.562	-10.433	-7.410	-1.949	-4.650	-10.709	-9.679	-4.357	1.343	2.318	12.295	10.892	3.866	6.285	253.906
-8.686	-9.157	-4.707	-10.160	-7.795	-3.704	0.299	6.285	8.785	2.876	8.630	4.888	-2.462	-5.680	-7.602	-10.556	-7.540	-2.085	-4.736	-10.762	-9.632	-4.292	1.336	2.546	12.676	11.222	4.081	6.419	257.812
-8.646	-9.220	-4.849	-10.275	-7.862	-3.845	0.265	6.108	8.591	2.763	8.447	4.782	-2.325	-5.496	-7.569	-10.649	-7.646	-2.188	-4.821	-10.788	-9.535	-4.200	1.318	2.794	13.028	11.576	4.302	6.566	261.719
-8.641	-9.277	-5.039	-10.391	-7.909	-3.983	0.273	5.960	8.460	2.692	8.307	4.675	-2.164	-5.275	-7.485	-10.701	-7.737	-2.275	-4.903	-10.785	-9.384	-4.091	1.287	3.055	13.325	11.930	4.523	6.717	265.625
-8.668	-9.315	-5.259	-10.497	-7.927	-4.106	0.338	5.851	8.410	2.684	8.226	4.579	-1.973	-5.021	-7.378	-10.706	-7.815	-2.365	-4.978	-10.749	-9.179	-3.970	1.243	3.323	13.546	12.256	4.740	6.862	269.531
-8.720	-9.326	-5.491	-10.580	-7.912	-4.203	0.470	5.786	8.446	2.749	8.211	4.506	-1.748	-4.737	-7.284	-10.664	-7.882	-2.480	-5.041	-10.678	-8.920	-3.839	1.188	3.593	13.677	12.533	4.953	6.996	273.438
-8.791	-9.304	-5.717	-10.629	-7.859	-4.267	0.668	5.758	8.558	2.892	8.261	4.467	-1.485	-4.426	-7.234	-10.582	-7.939	-2.635	-5.084	-10.575	-8.618	-3.699	1.124	3.862	13.714	12.749	5.166	7.119	277.344
-8.878	-9.252	-5.924	-10.639	-7.768	-4.295	0.920	5.759	8.722	3.104	8.369	4.474	-1.185	-4.094	-7.251	-10.474	-7.985	-2.834	-5.106	-10.444	-8.285	-3.549	1.053	4.127	13.668	12.900	5.385	7.238	281.250
-8.982	-9.182	-6.106	-10.611	-7.642	-4.291	1.211	5.773	8.906	3.368	8.520	4.535	-0.850	-3.748	-7.344	-10.362	-8.024	-3.070	-5.107	-10.296	-7.939	-3.388	0.979	4.388	13.557	12.992	5.617	7.363	285.156
-9.110	-9.107	-6.265	-10.553	-7.490	-4.261	1.519	5.787	9.073	3.664	8.697	4.657	-0.490	-3.392	-7.507	-10.265	-8.059	-3.324	-5.088	-10.144	-7.597	-3.216	0.907	4.643	13.404	13.035	5.865	7.506	289.062
-9.265	-9.048	-6.406	-10.478	-7.321	-4.214	1.823	5.786	9.190	3.967	8.883	4.839	-0.113	-3.035	-7.722	-10.202	-8.093	-3.575	-5.054	-10.001	-7.271	-3.034	0.844	4.891	13.233	13.043	6.130	7.673	292.969
-9.452	-9.019	-6.538	-10.400	-7.146	-4.162	2.105	5.760	9.237	4.257	9.060	5.077	0.270	-2.680	-7.964	-10.184	-8.128	-3.800	-5.011	-9.876	-6.969	-2.843	0.793	5.127	13.061	13.027	6.410	7.866	296.875
-9.670	-9.034	-6.671	-10.334	-6.973	-4.112	2.354	5.707	9.205	4.521	9.215	5.356	0.650	-2.332	-8.203	-10.212	-8.164	-3.982	-4.963	-9.773	-6.690	-2.648	0.757	5.347	12.899	12.991	6.695	8.077	300.781
-9.911	-9.095	-6.810	-10.291	-6.809	-4.069	2.568	5.627	9.100	4.752	9.339	5.660	1.021	-1.991	-8.411	-10.276	-8.200	-4.113	-4.911	-9.688	-6.426	-2.451	0.735	5.548	12.746	12.935	6.974	8.291	304.688
-10.163	-9.196	-6.953	-10.271	-6.655	-4.032	2.751	5.528	8.941	4.952	9.427	5.965	1.381	-1.656	-8.571	-10.360	-8.230	-4.194	-4.853	-9.609	-6.165	-2.253	0.723	5.724	12.589	12.852	7.235	8.486	308.594
-10.407	-9.319	-7.093	-10.269	-6.506	-3.995	2.915	5.421	8.754	5.129	9.476	6.246	1.730	-1.326	-8.673	-10.437	-8.248	-4.238	-4.787	-9.519	-5.892	-2.055	0.714	5.874	12.414	12.730	7.463	8.637	312.500
-10.624	-9.443	-7.219	-10.265	-6.351	-3.947	3.071	5.315	8.562	5.291	9.486	6.479	2.071	-0.996	-8.719	-10.481	-8.242	-4.262	-4.706	-9.397	-5.593	-1.856	0.702	5.994	12.204	12.560	7.648	8.723	316.406
-10.795	-9.537	-7.318	-10.238	-6.179	-3.875	3.231	5.218	8.387	5.443	9.459	6.644	2.406	-0.664	-8.720	-10.465	-8.204	-4.285	-4.603	-9.220	-5.259	-1.654	0.681	6.085	11.945	12.333	7.781	8.729	320.312
-10.908	-9.575	-7.377	-10.159	-5.973	-3.767	3.399	5.135	8.238	5.588	9.396	6.725	2.735	-0.329	-8.690	-10.370	-8.124	-4.322	-4.470	-8.971	-4.883	-1.448	0.646	6.148	11.633	12.050	7.858	8.647	324.219
-10.955	-9.532	-7.389	-10.005	-5.723	-3.617	3.578	5.064	8.118	5.721	9.298	6.716	3.054	0.011	-8.644	-10.183	-7.994	-4.387	-4.306	-8.635	-4.466	-1.237	0.598	6.186	11.272	11.719	7.882	8.485	328.125
-10.938	-9.393	-7.353	-9.760	-5.418	-3.420	3.762	5.002	8.021	5.837	9.171	6.621	3.359	0.355	-8.596	-9.902	-7.812	-4.485	-4.109	-8.210	-4.013	-1.022	0.536	6.205	10.875	11.357	7.860	8.259	332.031
-10.867	-9.154	-7.279	-9.419	-5.060	-3.182	3.945	4.941	7.937	5.931	9.022	6.455	3.643	0.699	-8.556	-9.534	-7.583	-4.617	-3.885	-7.698	-3.533	-0.808	0.463	6.209	10.458	10.986	7.803	7.996	335.938
-10.762	-8.827	-7.183	-8.992	-4.655	-2.914	4.122	4.879	7.863	6.002	8.868	6.248	3.901	1.039	-8.534	-9.099	-7.320	-4.781	-3.644	-7.116	-3.042	-0.601	0.381	6.207	10.041	10.633	7.729	7.729	339.844
-10.653	-8.435	-7.093	-8.503	-4.222	-2.634	4.289	4.816	7.799	6.056	8.730	6.041	4.132	1.369	-8.540	-8.621	-7.045	-4.975	-3.402	-6.487	-2.554	-0.408	0.291	6.207	9.646	10.324	7.662	7.499	343.750
-10.574	-8.012	-7.036	-7.989	-3.784	-2.364	4.448	4.757	7.754	6.106	8.640	5.884	4.337	1.684	-8.589	-8.133	-6.782	-5.197	-3.177	-5.841	-2.088	-0.238	0.191	6.219	9.291	10.085	7.625	7.347	347.656
-10.563	-7.600	-7.044	-7.493	-3.369	-2.125	4.605	4.709	7.747	6.171	8.630	5.825	4.523	1.978	-8.697	-7.669	-6.561	-5.449	-2.990	-5.211	-1.659	-0.098	0.081	6.253	8.993	9.938	7.643	7.313	351.562
-10.653	-7.240	-7.139	-7.059	-3.005	-1.935	4.770	4.685	7.797	6.269	8.728	5.909	4.701	2.248	-8.883	-7.262	-6.405	-5.730	-2.861	-4.629	-1.281	0.009	-0.041	6.316	8.764	9.897	7.738	7.427	355.469
-10.866	-6.966	-7.330	-6.721	-2.712	-1.804	4.953	4.696	7.919	6.419	8.953	6.159	4.880	2.492	-9.161	-6.938	-6.332	-6.040	-2.803	-4.120	-0.965	0.083	-0.174	6.415	8.609	9.964	7.918	7.704	359.375
-11.203	-6.801	-7.609	-6.500	-2.498	-1.734	5.160	4.748	8.121	6.628	9.304	6.572	5.071	2.716	-9.532	-6.712	-6.352	-6.372	-2.823	-3.700	-0.713	0.129	-0.315	6.551	8.528	10.131	8.181	8.135	363.281
-11.638	-6.746	-7.951	-6.396	-2.358	-1.713	5.393	4.843	8.398	6.892	9.757	7.110	5.279	2.925	-9.982	-6.582	-6.460	-6.713	-2.912	-3.368	-0.520	0.158	-0.458	6.721	8.512	10.372	8.506	8.683	367.188
-12.123	-6.785	-8.314	-6.389	-2.274	-1.723	5.646	4.972	8.725	7.195	10.264	7.705	5.502	3.128	-10.472	-6.534	-6.637	-7.045	-3.048	-3.110	-0.371	0.185	-0.593	6.913	8.541	10.646	8.855	9.280	371.094
-12.590	-6.881	-8.648	-6.441	-2.218	-1.738	5.907	5.120	9.064	7.506	10.754	8.266	5.735	3.334	-10.948	-6.536	-6.854	-7.349	-3.196	-2.897	-0.247	0.230	-0.710	7.112	8.591	10.902	9.178	9.840	375.000
-12.960	-6.989	-8.905	-6.506	-2.155	-1.733	6.156	5.265	9.367	7.789	11.149	8.695	5.966	3.550	-11.345	-6.546	-7.072	-7.603	-3.311	-2.694	-0.122	0.309	-0.797	7.300	8.634	11.088	9.422	10.270	378.906
-13.168	-7.059	-9.048	-6.532	-2.055	-1.687	6.375	5.379	9.582	8.008	11.377	8.906	6.183	3.782	-11.604	-6.521	-7.253	-7.793	-3.349	-2.464	0.032	0.436	-0.844	7.458	8.645	11.156	9.540	10.489	382.812
-13.166	-7.049	-9.056	-6.480	-1.892	-1.586	6.546	5.438	9.666	8.135	11.386	8.849	6.376	4.030	-11.684	-6.423	-7.362	-7.914	-3.277	-2.175	0.236	0.619	-0.843	7.572	8.602	11.077	9.504	10.446	386.719
-12.941	-6.930	-8.935	-6.321	-1.656	-1.429	6.657	5.424	9.591	8.155	11.158	8.519	6.540	4.292	-11.573	-6.228	-7.381	-7.968	-3.079	-1.808	0.507	0.855	-0.792	7.635	8.494	10.843	9.311	10.134	390.625
-12.517	-6.697	-8.711	-6.052	-1.349	-1.226	6.707	5.325	9.352	8.072	10.711	7.959	6.676	4.563	-11.290	-5.930	-7.307	-7.968	-2.762	-1.361	0.850	1.134	-0.697	7.649	8.321	10.470	8.986	9.593	394.531
-11.948	-6.365	-8.426	-5.686	-0.987	-0.997	6.704	5.145	8.967	7.909	10.102	7.256	6.794	4.838	-10.888	-5.542	-7.159	-7.934	-2.355	-0.848	1.258	1.434	-0.566	7.625	8.091	9.999	8.576	8.903	398.438
-11.315	-5.967	-8.133	-5.258	-0.598	-0.768	6.663	4.896	8.481	7.703	9.411	6.524	6.905	5.111	-10.440	-5.095	-6.971	-7.888	-1.906	-0.298	1.714	1.733	-0.415	7.580	7.819	9.482	8.146	8.170	402.344
-10.703	-5.548	-7.878	-4.811	-0.213	-0.568	6.601	4.600	7.949	7.497	8.730	5.879	7.023	5.377	-10.027	-4.630	-6.783	-7.851	-1.465	0.252	2.195	2.005	-0.262	7.535	7.525	8.975	7.760	7.508	406.250
-10.187	-5.154	-7.696	-4.393	0.139	-0.415	6.539	4.282	7.430	7.332	8.141	5.412	7.159	5.631	-9.716	-4.192	-6.631	-7.838	-1.085	0.764	2.673	2.229	-0.125	7.504	7.225	8.528	7.473	7.005	410.156
-9.818	-4.821	-7.602	-4.040	0.435	-0.322	6.490	3.970	6.975	7.237	7.701	5.175	7.316	5.869	-9.549	-3.817	-6.535	-7.853	-0.801	1.208	3.125	2.392	-0.021	7.499	6.932	8.168	7.312	6.713	414.062
-9.610	-4.571	-7.587	-3.776	0.666	-0.285	6.463	3.685	6.615	7.223	7.432	5.167	7.489	6.088	-9.530	-3.524	-6.498	-7.891	-0.630	1.568	3.531	2.489	0.039	7.517	6.648	7.900	7.276	6.636	417.969
-9.542	-4.403	-7.625	-3.604	0.834	-0.289	6.461	3.442	6.357	7.281	7.321	5.338	7.666	6.286	-9.626	-3.319	-6.500	-7.937	-0.568	1.844	3.884	2.525	0.050	7.548	6.371	7.705	7.336	6.729	421.875
-9.567	-4.302	-7.677	-3.510	0.952	-0.311	6.478	3.248	6.186	7.387	7.327	5.605	7.831	6.463	-9.776	-3.186	-6.510	-7.972	-0.593	2.051	4.183	2.514	0.014	7.576	6.089	7.546	7.443	6.914	425.781
-9.620	-4.240	-7.704	-3.465	1.038	-0.326	6.507	3.103	6.071	7.509	7.391	5.873	7.965	6.619	-9.909	-3.100	-6.491	-7.979	-0.670	2.212	4.435	2.475	-0.059	7.578	5.789	7.380	7.541	7.101	429.688
-9.637	-4.185	-7.673	-3.435	1.114	-0.312	6.539	3.002	5.976	7.614	7.456	6.056	8.054	6.755	-9.960	-3.031	-6.415	-7.943	-0.761	2.355	4.651	2.425	-0.158	7.538	5.457	7.171	7.581	7.208	433.594
-9.569	-4.107	-7.565	-3.387	1.196	-0.254	6.564	2.939	5.868	7.679	7.476	6.095	8.089	6.873	-9.887	-2.952	-6.272	-7.861	-0.834	2.504	4.842	2.381	-0.268	7.445	5.085	6.894	7.529	7.179	437.500
-9.389	-3.988	-7.379	-3.298	1.297	-0.148	6.578	2.906	5.729	7.691	7.426	5.967	8.069	6.972	-9.676	-2.843	-6.068	-7.736	-0.866	2.672	5.015	2.354	-0.377	7.297	4.673	6.543	7.372	6.995	441.406
-9.096	-3.822	-7.127	-3.154	1.421	0.003	6.577	2.898	5.556	7.652	7.303	5.686	7.999	7.049	-9.346	-2.699	-5.823	-7.579	-0.851	2.863	5.173	2.344	-0.476	7.099	4.227	6.132	7.119	6.671	445.312
-8.715	-3.613	-6.833	-2.959	1.564	0.184	6.562	2.913	5.364	7.572	7.126	5.295	7.890	7.101	-8.937	-2.524	-5.569	-7.407	-0.793	3.070	5.312	2.349	-0.562	6.865	3.761	5.687	6.794	6.250	449.219
-8.287	-3.377	-6.528	-2.727	1.715	0.378	6.536	2.948	5.177	7.469	6.925	4.855	7.754	7.122	-8.502	-2.332	-5.334	-7.238	-0.707	3.276	5.426	2.358	-0.636	6.610	3.295	5.239	6.428	5.791	453.125
-7.856	-3.137	-6.243	-2.481	1.860	0.566	6.501	2.999	5.023	7.359	6.736	4.427	7.603	7.106	-8.095	-2.144	-5.141	-7.088	-0.612	3.461	5.507	2.361	-0.700	6.350	2.850	4.820	6.057	5.354	457.031
-7.466	-2.914	-6.001	-2.249	1.983	0.731	6.460	3.060	4.925	7.257	6.591	4.063	7.446	7.050	-7.755	-1.978	-4.999	-6.967	-0.523	3.606	5.548	2.349	-0.758	6.100	2.446	4.454	5.710	4.989	460.938
-7.146	-2.728	-5.817	-2.054	2.071	0.859	6.413	3.125	4.899	7.170	6.510	3.796	7.289	6.950	-7.504	-1.851	-4.904	-6.879	-0.453	3.696	5.544	2.314	-0.811	5.867	2.099	4.153	5.407	4.724	464.844
-6.912	-2.590	-5.693	-1.915	2.114	0.945	6.359	3.182	4.945	7.099	6.498	3.638	7.134	6.807	-7.346	-1.772	-4.843	-6.819	-0.406	3.722	5.497	2.256	-0.857	5.657	1.819	3.918	5.158	4.569	468.750
-6.763	-2.505	-5.622	-1.843	2.108	0.987	6.296	3.221	5.053	7.041	6.547	3.583	6.980	6.622	-7.264	-1.743	-4.801	-6.774	-0.382	3.683	5.409	2.174	-0.890	5.469	1.611	3.744	4.961	4.513	472.656
-6.684	-2.473	-5.590	-1.840	2.054	0.989	6.220	3.235	5.205	6.990	6.639	3.610	6.826	6.400	-7.233	-1.763	-4.763	-6.728	-0.376	3.584	5.286	2.070	-0.904	5.301	1.477	3.619	4.811	4.533	476.562
-6.655	-2.486	-5.584	-1.901	1.955	0.954	6.129	3.216	5.374	6.937	6.749	3.692	6.667	6.151	-7.224	-1.824	-4.721	-6.659	-0.381	3.433	5.133	1.950	-0.891	5.150	1.415	3.534	4.698	4.605	480.469
-6.652	-2.535	-5.593	-2.018	1.819	0.885	6.022	3.162	5.537	6.876	6.850	3.801	6.503	5.881	-7.209	-1.918	-4.674	-6.549	-0.390	3.241	4.953	1.817	-0.845	5.011	1.422	3.481	4.612	4.702	484.375
-6.655	-2.609	-5.612	-2.179	1.653	0.783	5.899	3.075	5.670	6.800	6.921	3.915	6.332	5.600	-7.171	-2.033	-4.625	-6.386	-0.396	3.022	4.748	1.675	-0.764	4.885	1.494	3.455	4.549	4.808	488.281
-6.649	-2.697	-5.642	-2.375	1.463	0.646	5.760	2.959	5.756	6.707	6.947	4.020	6.155	5.317	-7.101	-2.162	-4.579	-6.164	-0.396	2.784	4.519	1.530	-0.650	4.773	1.628	3.457	4.507	4.916	492.188
-6.624	-2.790	-5.686	-2.598	1.252	0.474	5.608	2.819	5.781	6.594	6.922	4.107	5.975	5.039	-6.997	-2.296	-4.537	-5.888	-0.388	2.539	4.264	1.388	-0.508	4.682	1.814	3.488	4.489	5.023	496.094
-6.575	-2.880	-5.747	-2.840	1.025	0.267	5.442	2.661	5.737	6.457	6.847	4.178	5.792	4.770	-6.862	-2.427	-4.496	-5.572	-0.374	2.294	3.985	1.253	-0.349	4.616	2.040	3.549	4.498	5.133	500.000
-6.503	-2.959	-5.825	-3.094	0.782	0.032	5.261	2.488	5.620	6.294	6.726	4.232	5.607	4.514	-6.702	-2.549	-4.448	-5.237	-0.360	2.054	3.682	1.130	-0.186	4.579	2.293	3.640	4.534	5.250	503.906
-6.407	-3.022	-5.910	-3.349	0.527	-0.219	5.061	2.305	5.431	6.101	6.568	4.274	5.419	4.271	-6.521	-2.655	-4.385	-4.902	-0.350	1.827	3.360	1.021	-0.029	4.571	2.553	3.754	4.595	5.375	507.812
-6.288	-3.064	-5.986	-3.591	0.263	-0.472	4.837	2.115	5.178	5.874	6.380	4.304	5.225	4.040	-6.318	-2.741	-4.298	-4.586	-0.348	1.619	3.026	0.925	0.110	4.589	2.802	3.882	4.670	5.500	511.719
-6.144	-3.079	-6.031	-3.802	-0.004	-0.706	4.584	1.920	4.871	5.606	6.167	4.316	5.020	3.819	-6.089	-2.799	-4.181	-4.301	-0.352	1.436	2.687	0.838	0.224	4.619	3.017	4.009	4.742	5.614	515.625
-5.967	-3.062	-6.020	-3.965	-0.264	-0.902	4.299	1.723	4.525	5.293	5.929	4.303	4.797	3.602	-5.826	-2.825	-4.031	-4.050	-0.359	1.287	2.353	0.758	0.312	4.644	3.179	4.116	4.790	5.696	519.531
-5.745	-3.007	-5.929	-4.062	-0.504	-1.046	3.982	1.529	4.153	4.932	5.662	4.251	4.551	3.385	-5.519	-2.814	-3.850	-3.826	-0.361	1.177	2.035	0.679	0.374	4.644	3.270	4.182	4.789	5.722	523.438
-5.463	-2.907	-5.741	-4.080	-0.710	-1.127	3.636	1.341	3.771	4.522	5.362	4.146	4.277	3.164	-5.159	-2.761	-3.643	-3.619	-0.345	1.115	1.746	0.598	0.415	4.599	3.275	4.188	4.717	5.670	527.344
-5.108	-2.754	-5.446	-4.013	-0.867	-1.138	3.273	1.164	3.387	4.069	5.021	3.975	3.970	2.935	-4.739	-2.663	-3.416	-3.412	-0.303	1.103	1.495	0.512	0.439	4.494	3.190	4.118	4.561	5.522	531.250
-4.674	-2.544	-5.048	-3.862	-0.962	-1.083	2.905	1.004	3.011	3.581	4.637	3.728	3.633	2.698	-4.258	-2.519	-3.174	-3.191	-0.225	1.142	1.292	0.423	0.450	4.321	3.016	3.964	4.312	5.269	535.156
-4.161	-2.275	-4.562	-3.636	-0.988	-0.966	2.550	0.862	2.648	3.074	4.211	3.402	3.272	2.453	-3.724	-2.330	-2.919	-2.946	-0.111	1.227	1.145	0.333	0.452	4.083	2.765	3.725	3.976	4.915	539.062
-3.583	-1.954	-4.012	-3.352	-0.941	-0.799	2.223	0.741	2.303	2.570	3.753	3.004	2.896	2.208	-3.149	-2.100	-2.652	-2.670	0.036	1.347	1.055	0.248	0.446	3.793	2.454	3.409	3.567	4.473	542.969
-2.960	-1.591	-3.431	-3.031	-0.826	-0.597	1.940	0.641	1.987	2.090	3.278	2.546	2.521	1.967	-2.554	-1.838	-2.374	-2.368	0.209	1.491	1.021	0.175	0.435	3.473	2.107	3.030	3.110	3.968	546.875
-2.322	-1.206	-2.858	-2.697	-0.656	-0.375	1.715	0.562	1.708	1.659	2.811	2.051	2.165	1.743	-1.964	-1.555	-2.086	-2.050	0.398	1.644	1.037	0.120	0.423	3.148	1.748	2.609	2.634	3.431	550.781
-1.705	-0.822	-2.330	-2.377	-0.446	-0.153	1.556	0.503	1.483	1.299	2.380	1.547	1.848	1.546	-1.406	-1.266	-1.791	-1.738	0.590	1.793	1.090	0.091	0.413	2.847	1.400	2.168	2.171	2.894	554.688
-1.145	-0.468	-1.881	-2.092	-0.219	0.056	1.467	0.466	1.325	1.026	2.014	1.064	1.588	1.387	-0.907	-0.987	-1.496	-1.453	0.775	1.925	1.168	0.091	0.410	2.592	1.081	1.733	1.752	2.393	558.594
-0.675	-0.169	-1.536	-1.863	0.004	0.235	1.448	0.453	1.247	0.853	1.740	0.638	1.398	1.275	-0.492	-0.733	-1.210	-1.221	0.942	2.036	1.254	0.120	0.415	2.400	0.806	1.327	1.400	1.957	562.500
-0.327	0.051	-1.315	-1.703	0.199	0.375	1.493	0.467	1.258	0.785	1.582	0.298	1.286	1.211	-0.179	-0.520	-0.949	-1.060	1.082	2.120	1.334	0.170	0.429	2.278	0.586	0.973	1.134	1.609	566.406
-0.121	0.179	-1.224	-1.621	0.348	0.470	1.592	0.511	1.359	0.819	1.551	0.071	1.253	1.195	0.020	-0.361	-0.729	-0.977	1.188	2.176	1.393	0.232	0.445	2.225	0.426	0.690	0.963	1.366	570.312
-0.067	0.206	-1.259	-1.619	0.434	0.515	1.730	0.584	1.539	0.943	1.649	-0.025	1.292	1.219	0.101	-0.264	-0.569	-0.973	1.256	2.204	1.422	0.289	0.459	2.231	0.332	0.493	0.888	1.235	574.219
-0.162	0.138	-1.404	-1.696	0.450	0.512	1.889	0.682	1.781	1.143	1.862	0.016	1.390	1.271	0.070	-0.236	-0.488	-1.034	1.282	2.201	1.414	0.328	0.466	2.285	0.303	0.388	0.904	1.219	578.125
-0.390	-0.014	-1.635	-1.842	0.393	0.465	2.049	0.797	2.058	1.394	2.164	0.187	1.529	1.338	-0.059	-0.274	-0.499	-1.142	1.270	2.167	1.368	0.339	0.462	2.373	0.341	0.376	1.001	1.311	582.031
-0.719	-0.231	-1.920	-2.045	0.269	0.382	2.192	0.913	2.336	1.670	2.520	0.468	1.691	1.406	-0.264	-0.375	-0.608	-1.275	1.224	2.099	1.289	0.317	0.450	2.482	0.442	0.451	1.160	1.497	585.938
-1.110	-0.489	-2.223	-2.288	0.090	0.272	2.299	1.014	2.583	1.944	2.886	0.825	1.858	1.467	-0.516	-0.529	-0.807	-1.413	1.152	1.997	1.185	0.265	0.434	2.601	0.600	0.597	1.364	1.755	589.844
-1.513	-0.760	-2.507	-2.549	-0.129	0.145	2.359	1.083	2.766	2.187	3.216	1.213	2.015	1.517	-0.780	-0.719	-1.077	-1.536	1.062	1.866	1.069	0.192	0.424	2.722	0.804	0.792	1.589	2.055	593.750
-1.873	-1.019	-2.739	-2.808	-0.366	0.014	2.362	1.104	2.857	2.375	3.468	1.585	2.152	1.555	-1.021	-0.929	-1.389	-1.627	0.965	1.717	0.957	0.114	0.427	2.838	1.040	1.008	1.811	2.361	597.656
-2.137	-1.237	-2.892	-3.041	-0.600	-0.109	2.305	1.067	2.838	2.485	3.604	1.891	2.259	1.585	-1.201	-1.136	-1.709	-1.674	0.870	1.566	0.864	0.048	0.454	2.942	1.286	1.212	2.003	2.631	601.562
-2.255	-1.390	-2.948	-3.225	-0.808	-0.215	2.190	0.967	2.697	2.504	3.599	2.086	2.329	1.612	-1.285	-1.315	-1.997	-1.665	0.791	1.434	0.806	0.013	0.511	3.025	1.518	1.371	2.140	2.823	605.469
-2.186	-1.459	-2.895	-3.340	-0.969	-0.291	2.020	0.802	2.432	2.421	3.434	2.134	2.357	1.641	-1.245	-1.440	-2.216	-1.588	0.739	1.344	0.794	0.023	0.603	3.076	1.710	1.452	2.197	2.895	609.375
-1.905	-1.428	-2.733	-3.370	-1.067	-0.331	1.800	0.579	2.053	2.233	3.105	2.012	2.336	1.671	-1.059	-1.486	-2.329	-1.432	0.730	1.319	0.838	0.088	0.731	3.085	1.833	1.431	2.154	2.816	613.281
-1.407	-1.289	-2.472	-3.307	-1.093	-0.329	1.538	0.308	1.576	1.943	2.620	1.712	2.259	1.703	-0.719	-1.433	-2.309	-1.189	0.779	1.372	0.939	0.210	0.894	3.041	1.867	1.291	1.997	2.565	617.188
-0.707	-1.045	-2.127	-3.150	-1.045	-0.284	1.242	0.002	1.024	1.561	1.999	1.241	2.123	1.731	-0.226	-1.268	-2.138	-0.860	0.896	1.512	1.094	0.387	1.084	2.937	1.801	1.030	1.721	2.138	621.094
0.158	-0.704	-1.723	-2.908	-0.930	-0.199	0.920	-0.322	0.428	1.103	1.272	0.618	1.926	1.751	0.401	-0.989	-1.816	-0.453	1.090	1.734	1.293	0.608	1.294	2.775	1.634	0.660	1.332	1.548	625.000
1.136	-0.289	-1.284	-2.597	-0.761	-0.080	0.583	-0.645	-0.180	0.593	0.479	-0.121	1.672	1.757	1.132	-0.607	-1.358	0.014	1.357	2.025	1.522	0.855	1.508	2.558	1.381	0.209	0.849	0.828	628.906
2.162	0.175	-0.835	-2.243	-0.556	0.067	0.247	-0.945	-0.769	0.060	-0.334	-0.935	1.370	1.744	1.923	-0.145	-0.802	0.510	1.682	2.361	1.759	1.109	1.712	2.299	1.066	-0.287	0.298	0.025	632.812
3.172	0.654	-0.398	-1.873	-0.333	0.234	-0.072	-1.203	-1.306	-0.463	-1.120	-1.774	1.033	1.710	2.723	0.363	-0.198	1.002	2.038	2.715	1.983	1.347	1.889	2.016	0.724	-0.787	-0.284	-0.802	636.719
4.105	1.114	0.012	-1.516	-0.108	0.414	-0.353	-1.395	-1.762	-0.941	-1.829	-2.591	0.682	1.656	3.476	0.873	0.396	1.450	2.388	3.053	2.172	1.548	2.026	1.729	0.387	-1.251	-0.859	-1.593	640.625
4.912	1.524	0.384	-1.197	0.108	0.601	-0.575	-1.504	-2.111	-1.340	-2.419	-3.338	0.339	1.583	4.126	1.344	0.924	1.821	2.692	3.343	2.309	1.693	2.111	1.457	0.088	-1.646	-1.388	-2.293	644.531
5.559	1.858	0.715	-0.934	0.306	0.790	-0.717	-1.517	-2.335	-1.634	-2.857	-3.977	0.026	1.495	4.626	1.736	1.338	2.087	2.915	3.559	2.384	1.771	2.139	1.219	-0.152	-1.950	-1.840	-2.859	648.438
6.030	2.098	1.000	-0.738	0.485	0.977	-0.764	-1.429	-2.421	-1.802	-3.120	-4.479	-0.235	1.397	4.941	2.020	1.606	2.231	3.032	3.682	2.392	1.782	2.113	1.031	-0.321	-2.157	-2.194	-3.270	652.344
6.322	2.239	1.239	-0.610	0.643	1.154	-0.707	-1.242	-2.369	-1.839	-3.203	-4.828	-0.428	1.296	5.058	2.180	1.717	2.251	3.039	3.704	2.339	1.733	2.041	0.898	-0.419	-2.271	-2.439	-3.523	656.250
6.449	2.284	1.428	-0.547	0.780	1.316	-0.552	-0.974	-2.188	-1.750	-3.114	-5.020	-0.543	1.197	4.987	2.216	1.677	2.156	2.947	3.629	2.238	1.640	1.940	0.825	-0.455	-2.307	-2.577	-3.634	660.156
6.434	2.244	1.564	-0.538	0.896	1.454	-0.313	-0.649	-1.904	-1.555	-2.880	-5.066	-0.579	1.109	4.757	2.142	1.513	1.969	2.787	3.471	2.106	1.524	1.827	0.804	-0.444	-2.287	-2.620	-3.635	664.062
6.311	2.136	1.644	-0.571	0.990	1.561	-0.019	-0.302	-1.551	-1.284	-2.540	-4.990	-0.544	1.038	4.415	1.986	1.262	1.723	2.596	3.254	1.963	1.406	1.721	0.825	-0.403	-2.235	-2.587	-3.561	667.969
6.119	1.983	1.667	-0.634	1.057	1.631	0.297	0.031	-1.175	-0.976	-2.143	-4.821	-0.452	0.988	4.017	1.780	0.968	1.452	2.413	3.008	1.827	1.305	1.636	0.872	-0.349	-2.172	-2.500	-3.449	671.875
5.896	1.806	1.637	-0.715	1.096	1.659	0.594	0.311	-0.824	-0.672	-1.742	-4.596	-0.323	0.964	3.621	1.561	0.676	1.192	2.271	2.766	1.715	1.232	1.584	0.930	-0.291	-2.118	-2.382	-3.327	675.781
5.678	1.626	1.564	-0.803	1.108	1.644	0.839	0.506	-0.544	-0.408	-1.387	-4.352	-0.176	0.968	3.279	1.364	0.423	0.969	2.190	2.560	1.641	1.193	1.569	0.983	-0.240	-2.080	-2.253	-3.214	679.688
5.496	1.465	1.458	-0.888	1.094	1.589	1.003	0.593	-0.372	-0.215	-1.119	-4.120	-0.026	1.002	3.031	1.219	0.235	0.805	2.175	2.419	1.616	1.186	1.592	1.021	-0.198	-2.063	-2.126	-3.120	683.594
5.373	1.338	1.335	-0.961	1.064	1.500	1.074	0.561	-0.334	-0.111	-0.965	-3.926	0.115	1.069	2.899	1.147	0.125	0.710	2.218	2.363	1.648	1.206	1.645	1.038	-0.169	-2.065	-2.013	-3.045	687.500
5.320	1.258	1.210	-1.014	1.027	1.384	1.049	0.416	-0.440	-0.098	-0.939	-3.786	0.245	1.170	2.891	1.158	0.095	0.682	2.304	2.403	1.740	1.246	1.721	1.035	-0.155	-2.080	-1.919	-2.988	691.406
5.341	1.230	1.094	-1.039	0.995	1.253	0.942	0.174	-0.685	-0.169	-1.034	-3.705	0.365	1.306	2.995	1.255	0.136	0.711	2.414	2.538	1.892	1.302	1.807	1.020	-0.159	-2.102	-1.845	-2.945	695.312
5.428	1.256	0.997	-1.031	0.979	1.117	0.772	-0.139	-1.050	-0.303	-1.233	-3.681	0.482	1.475	3.184	1.427	0.236	0.782	2.532	2.756	2.098	1.367	1.891	1.003	-0.181	-2.125	-1.788	-2.912	699.219
5.566	1.330	0.922	-0.989	0.987	0.989	0.565	-0.491	-1.507	-0.476	-1.507	-3.705	0.600	1.671	3.423	1.656	0.377	0.874	2.646	3.036	2.348	1.442	1.964	0.995	-0.219	-2.144	-1.745	-2.889	703.125
5.732	1.440	0.869	-0.914	1.020	0.877	0.346	-0.852	-2.017	-0.666	-1.823	-3.764	0.724	1.885	3.673	1.921	0.544	0.964	2.751	3.350	2.625	1.526	2.018	1.007	-0.267	-2.153	-1.710	-2.875	707.031
5.901	1.571	0.833	-0.810	1.076	0.790	0.138	-1.193	-2.543	-0.851	-2.150	-3.844	0.854	2.104	3.898	2.197	0.726	1.036	2.848	3.670	2.908	1.622	2.049	1.046	-0.318	-2.150	-1.679	-2.870	710.938
6.052	1.707	0.808	-0.687	1.148	0.729	-0.046	-1.496	-3.047	-1.022	-2.460	-3.933	0.986	2.311	4.069	2.463	0.915	1.077	2.941	3.970	3.178	1.730	2.056	1.114	-0.360	-2.131	-1.648	-2.872	714.844
6.164	1.829	0.787	-0.554	1.225	0.694	-0.196	-1.746	-3.495	-1.172	-2.733	-4.024	1.110	2.491	4.170	2.704	1.105	1.085	3.032	4.231	3.415	1.850	2.043	1.206	-0.384	-2.093	-1.616	-2.881	718.750
6.226	1.924	0.762	-0.427	1.297	0.682	-0.308	-1.939	-3.859	-1.302	-2.954	-4.111	1.217	2.630	4.200	2.909	1.294	1.066	3.122	4.444	3.607	1.980	2.015	1.311	-0.382	-2.039	-1.583	-2.894	722.656
6.235	1.980	0.726	-0.317	1.353	0.683	-0.384	-2.074	-4.123	-1.418	-3.118	-4.189	1.297	2.719	4.171	3.076	1.478	1.030	3.206	4.603	3.745	2.113	1.979	1.416	-0.352	-1.971	-1.551	-2.911	726.562
6.193	1.990	0.675	-0.236	1.389	0.689	-0.425	-2.152	-4.277	-1.523	-3.221	-4.255	1.343	2.755	4.103	3.204	1.649	0.990	3.277	4.709	3.828	2.239	1.943	1.503	-0.296	-1.895	-1.525	-2.927	730.469
6.105	1.948	0.605	-0.195	1.401	0.690	-0.436	-2.176	-4.320	-1.617	-3.261	-4.301	1.350	2.736	4.015	3.293	1.798	0.955	3.324	4.767	3.859	2.348	1.914	1.560	-0.218	-1.817	-1.506	-2.940	734.375
5.977	1.855	0.516	-0.197	1.390	0.677	-0.422	-2.147	-4.260	-1.698	-3.240	-4.319	1.320	2.668	3.920	3.342	1.913	0.928	3.333	4.777	3.843	2.425	1.894	1.575	-0.124	-1.742	-1.497	-2.942	738.281
5.813	1.711	0.409	-0.243	1.360	0.644	-0.386	-2.066	-4.111	-1.761	-3.156	-4.296	1.256	2.557	3.819	3.346	1.981	0.905	3.295	4.741	3.789	2.458	1.885	1.545	-0.018	-1.668	-1.495	-2.927	742.188
5.618	1.522	0.287	-0.328	1.313	0.588	-0.336	-1.932	-3.891	-1.797	-3.011	-4.220	1.164	2.413	3.703	3.300	1.992	0.878	3.200	4.656	3.702	2.439	1.881	1.476	0.098	-1.595	-1.495	-2.886	746.094
5.393	1.293	0.153	-0.445	1.254	0.509	-0.279	-1.750	-3.623	-1.804	-2.813	-4.085	1.053	2.246	3.559	3.201	1.941	0.837	3.047	4.521	3.586	2.364	1.878	1.377	0.224	-1.516	-1.493	-2.810	750.000
5.143	1.036	0.011	-0.582	1.186	0.411	-0.224	-1.527	-3.329	-1.780	-2.573	-3.889	0.931	2.065	3.377	3.047	1.829	0.772	2.842	4.338	3.447	2.239	1.868	1.263	0.360	-1.426	-1.483	-2.694	753.906
4.874	0.765	-0.135	-0.726	1.111	0.301	-0.180	-1.278	-3.033	-1.733	-2.307	-3.639	0.805	1.883	3.153	2.848	1.668	0.682	2.596	4.111	3.289	2.076	1.845	1.149	0.504	-1.320	-1.460	-2.535	757.812
4.595	0.494	-0.283	-0.863	1.034	0.186	-0.155	-1.027	-2.758	-1.672	-2.036	-3.350	0.685	1.710	2.895	2.616	1.474	0.566	2.329	3.856	3.120	1.894	1.807	1.053	0.651	-1.200	-1.421	-2.337	761.719
4.319	0.242	-0.430	-0.983	0.958	0.074	-0.152	-0.804	-2.523	-1.608	-1.780	-3.041	0.581	1.558	2.622	2.375	1.269	0.432	2.068	3.592	2.956	1.717	1.755	0.984	0.793	-1.071	-1.364	-2.105	765.625
4.056	0.025	-0.575	-1.079	0.887	-0.031	-0.172	-0.641	-2.347	-1.551	-1.559	-2.733	0.502	1.438	2.356	2.149	1.075	0.288	1.837	3.345	2.812	1.571	1.698	0.953	0.917	-0.941	-1.287	-1.851	769.531
3.817	-0.146	-0.719	-1.147	0.827	-0.124	-0.208	-0.567	-2.244	-1.505	-1.384	-2.444	0.462	1.361	2.125	1.964	0.909	0.142	1.662	3.142	2.708	1.478	1.646	0.964	1.010	-0.824	-1.190	-1.584	773.438
3.609	-0.265	-0.864	-1.191	0.779	-0.206	-0.254	-0.604	-2.224	-1.472	-1.259	-2.187	0.471	1.335	1.953	1.838	0.782	0.002	1.558	3.006	2.660	1.454	1.611	1.017	1.057	-0.728	-1.071	-1.316	777.344
3.435	-0.333	-1.011	-1.216	0.746	-0.277	-0.297	-0.761	-2.291	-1.446	-1.182	-1.967	0.536	1.362	1.855	1.779	0.694	-0.129	1.530	2.948	2.679	1.504	1.604	1.110	1.052	-0.663	-0.929	-1.051	781.250
3.293	-0.358	-1.166	-1.231	0.727	-0.341	-0.332	-1.033	-2.440	-1.424	-1.142	-1.780	0.657	1.440	1.833	1.786	0.637	-0.250	1.571	2.972	2.766	1.626	1.632	1.236	0.993	-0.630	-0.763	-0.792	785.156
3.175	-0.350	-1.329	-1.243	0.718	-0.402	-0.351	-1.403	-2.657	-1.400	-1.129	-1.619	0.830	1.561	1.879	1.847	0.600	-0.362	1.668	3.067	2.913	1.805	1.694	1.387	0.885	-0.625	-0.576	-0.538	789.062
3.072	-0.325	-1.503	-1.258	0.715	-0.463	-0.356	-1.841	-2.920	-1.371	-1.127	-1.472	1.041	1.710	1.974	1.945	0.571	-0.470	1.799	3.213	3.105	2.025	1.785	1.555	0.743	-0.641	-0.371	-0.287	792.969
2.974	-0.296	-1.684	-1.279	0.715	-0.527	-0.350	-2.310	-3.203	-1.336	-1.125	-1.328	1.270	1.872	2.093	2.060	0.542	-0.576	1.944	3.382	3.317	2.261	1.891	1.727	0.584	-0.666	-0.158	-0.034	796.875
