FP1	F3	F7	FC3	C3	C5	P3	P7	PO7	PO3	O1	Oz	Pz	CPz	FP2	Fz	F4	F8	FC4	FCz	Cz	C4	C6	P4	P8	PO8	PO4	O2	time
0.080	-0.077	0.081	-0.193	-0.192	-0.001	0.246	0.397	0.630	0.123	0.229	-0.322	0.327	0.419	0.397	-0.201	-1.439	-0.773	-1.571	-0.053	0.390	-1.863	-1.546	-0.907	-0.746	-0.416	-0.965	-0.316	-199.219
-0.087	-0.141	-0.039	-0.216	-0.215	-0.036	0.185	0.440	0.552	0.156	0.139	-0.331	0.327	0.397	0.374	-0.007	-0.759	-0.398	-0.828	0.163	0.439	-1.039	-0.939	-0.776	-0.650	-0.442	-0.725	-0.352	-195.312
-0.226	-0.179	-0.138	-0.213	-0.220	-0.065	0.107	0.439	0.449	0.164	0.041	-0.341	0.323	0.378	0.353	0.190	-0.134	-0.057	-0.147	0.374	0.497	-0.295	-0.389	-0.657	-0.572	-0.474	-0.509	-0.381	-191.406
-0.316	-0.177	-0.203	-0.173	-0.198	-0.086	0.007	0.373	0.307	0.132	-0.069	-0.351	0.313	0.365	0.328	0.379	0.383	0.218	0.413	0.569	0.562	0.310	0.057	-0.557	-0.520	-0.508	-0.335	-0.398	-187.500
-0.348	-0.127	-0.226	-0.090	-0.145	-0.094	-0.112	0.234	0.122	0.057	-0.187	-0.360	0.295	0.359	0.294	0.550	0.759	0.408	0.821	0.737	0.634	0.740	0.374	-0.481	-0.500	-0.546	-0.214	-0.400	-183.594
-0.327	-0.030	-0.205	0.038	-0.060	-0.084	-0.237	0.033	-0.093	-0.055	-0.306	-0.364	0.273	0.358	0.248	0.692	0.986	0.509	1.072	0.868	0.706	0.993	0.559	-0.432	-0.511	-0.589	-0.146	-0.392	-179.688
-0.273	0.105	-0.149	0.198	0.050	-0.054	-0.348	-0.202	-0.316	-0.184	-0.413	-0.362	0.250	0.360	0.191	0.793	1.078	0.532	1.179	0.953	0.768	1.090	0.628	-0.406	-0.547	-0.634	-0.122	-0.378	-175.781
-0.207	0.260	-0.068	0.373	0.173	-0.005	-0.423	-0.436	-0.518	-0.306	-0.492	-0.348	0.231	0.359	0.126	0.844	1.058	0.495	1.171	0.984	0.812	1.070	0.610	-0.394	-0.597	-0.672	-0.125	-0.360	-171.875
-0.150	0.409	0.020	0.536	0.292	0.059	-0.442	-0.630	-0.669	-0.394	-0.526	-0.313	0.223	0.353	0.058	0.836	0.954	0.420	1.079	0.958	0.825	0.969	0.536	-0.385	-0.642	-0.688	-0.132	-0.335	-167.969
-0.118	0.525	0.100	0.658	0.388	0.129	-0.394	-0.751	-0.744	-0.424	-0.502	-0.249	0.228	0.336	-0.014	0.763	0.790	0.325	0.929	0.870	0.800	0.822	0.436	-0.363	-0.660	-0.661	-0.118	-0.295	-164.062
-0.112	0.584	0.162	0.712	0.446	0.195	-0.278	-0.779	-0.731	-0.384	-0.416	-0.147	0.249	0.308	-0.091	0.628	0.584	0.221	0.740	0.724	0.731	0.647	0.327	-0.317	-0.635	-0.574	-0.067	-0.229	-160.156
-0.127	0.570	0.199	0.682	0.456	0.247	-0.108	-0.711	-0.631	-0.274	-0.271	-0.007	0.283	0.267	-0.175	0.438	0.354	0.116	0.524	0.529	0.620	0.455	0.220	-0.239	-0.555	-0.419	0.028	-0.128	-156.250
-0.149	0.480	0.209	0.568	0.414	0.276	0.095	-0.557	-0.460	-0.107	-0.080	0.167	0.328	0.216	-0.267	0.213	0.112	0.012	0.292	0.302	0.476	0.251	0.117	-0.129	-0.423	-0.204	0.161	0.012	-152.344
-0.165	0.328	0.199	0.385	0.330	0.281	0.301	-0.344	-0.243	0.093	0.132	0.359	0.376	0.160	-0.365	-0.021	-0.123	-0.089	0.056	0.066	0.314	0.039	0.020	0.006	-0.254	0.046	0.315	0.182	-148.438
-0.163	0.140	0.175	0.165	0.219	0.263	0.481	-0.108	-0.015	0.295	0.337	0.546	0.421	0.105	-0.461	-0.233	-0.335	-0.184	-0.168	-0.152	0.153	-0.169	-0.071	0.153	-0.071	0.297	0.467	0.364	-144.531
-0.138	-0.048	0.148	-0.056	0.102	0.231	0.608	0.115	0.191	0.467	0.506	0.702	0.454	0.058	-0.546	-0.398	-0.507	-0.267	-0.360	-0.326	0.016	-0.356	-0.152	0.294	0.099	0.510	0.593	0.532	-140.625
-0.095	-0.202	0.126	-0.238	0.002	0.192	0.667	0.290	0.346	0.582	0.611	0.801	0.467	0.025	-0.606	-0.496	-0.629	-0.332	-0.504	-0.437	-0.081	-0.502	-0.217	0.410	0.232	0.650	0.674	0.659	-136.719
-0.040	-0.298	0.114	-0.355	-0.064	0.156	0.651	0.398	0.432	0.622	0.637	0.826	0.455	0.012	-0.635	-0.524	-0.699	-0.377	-0.590	-0.481	-0.130	-0.590	-0.260	0.483	0.313	0.696	0.702	0.724	-132.812
0.016	-0.325	0.113	-0.394	-0.086	0.131	0.568	0.433	0.445	0.586	0.582	0.771	0.414	0.018	-0.627	-0.496	-0.725	-0.401	-0.619	-0.463	-0.131	-0.611	-0.281	0.500	0.336	0.645	0.677	0.716	-128.906
0.065	-0.292	0.121	-0.358	-0.058	0.123	0.435	0.409	0.398	0.484	0.459	0.645	0.345	0.041	-0.584	-0.436	-0.724	-0.408	-0.603	-0.404	-0.097	-0.571	-0.283	0.454	0.309	0.511	0.612	0.639	-125.000
0.098	-0.222	0.134	-0.268	0.014	0.134	0.279	0.352	0.313	0.341	0.294	0.469	0.255	0.074	-0.512	-0.376	-0.717	-0.406	-0.564	-0.330	-0.045	-0.486	-0.275	0.350	0.247	0.321	0.524	0.511	-121.094
0.114	-0.149	0.145	-0.152	0.118	0.163	0.126	0.293	0.223	0.187	0.123	0.277	0.150	0.106	-0.420	-0.347	-0.723	-0.402	-0.528	-0.272	-0.001	-0.385	-0.268	0.200	0.175	0.115	0.433	0.361	-117.188
0.116	-0.103	0.149	-0.044	0.234	0.203	0.000	0.263	0.159	0.056	-0.017	0.105	0.043	0.125	-0.319	-0.371	-0.754	-0.402	-0.517	-0.255	0.015	-0.299	-0.273	0.027	0.117	-0.068	0.358	0.223	-113.281
0.108	-0.108	0.141	0.027	0.341	0.244	-0.082	0.281	0.145	-0.028	-0.093	-0.015	-0.057	0.123	-0.220	-0.457	-0.815	-0.410	-0.548	-0.292	-0.012	-0.255	-0.297	-0.145	0.094	-0.195	0.310	0.127	-109.375
0.101	-0.171	0.121	0.041	0.416	0.275	-0.117	0.351	0.193	-0.048	-0.086	-0.059	-0.142	0.091	-0.136	-0.595	-0.895	-0.426	-0.622	-0.382	-0.088	-0.268	-0.342	-0.291	0.115	-0.247	0.294	0.090	-105.469
0.101	-0.281	0.092	-0.007	0.440	0.285	-0.108	0.464	0.297	-0.002	0.006	-0.021	-0.207	0.029	-0.074	-0.763	-0.977	-0.445	-0.727	-0.513	-0.206	-0.339	-0.403	-0.389	0.177	-0.221	0.302	0.115	-101.562
0.114	-0.413	0.059	-0.108	0.405	0.267	-0.071	0.597	0.438	0.095	0.166	0.088	-0.253	-0.059	-0.039	-0.926	-1.036	-0.463	-0.842	-0.657	-0.349	-0.453	-0.470	-0.426	0.264	-0.134	0.320	0.190	-97.656
0.143	-0.534	0.028	-0.241	0.307	0.218	-0.023	0.721	0.587	0.219	0.364	0.243	-0.282	-0.161	-0.032	-1.049	-1.049	-0.472	-0.937	-0.785	-0.494	-0.584	-0.528	-0.395	0.350	-0.011	0.331	0.289	-93.750
0.185	-0.612	0.007	-0.378	0.159	0.142	0.015	0.804	0.710	0.341	0.559	0.407	-0.301	-0.265	-0.048	-1.099	-0.998	-0.466	-0.984	-0.868	-0.615	-0.700	-0.563	-0.300	0.410	0.114	0.317	0.382	-89.844
0.236	-0.622	0.000	-0.488	-0.021	0.048	0.030	0.823	0.775	0.431	0.711	0.545	-0.317	-0.357	-0.081	-1.059	-0.878	-0.441	-0.964	-0.883	-0.692	-0.770	-0.565	-0.150	0.419	0.211	0.266	0.439	-85.938
0.286	-0.554	0.008	-0.550	-0.206	-0.051	0.014	0.767	0.764	0.467	0.786	0.625	-0.333	-0.423	-0.119	-0.925	-0.697	-0.396	-0.868	-0.823	-0.710	-0.773	-0.525	0.041	0.366	0.258	0.176	0.438	-82.031
0.328	-0.417	0.028	-0.551	-0.369	-0.143	-0.030	0.635	0.672	0.438	0.765	0.626	-0.351	-0.455	-0.155	-0.712	-0.472	-0.332	-0.702	-0.691	-0.667	-0.698	-0.444	0.252	0.254	0.247	0.053	0.372	-78.125
0.350	-0.236	0.051	-0.497	-0.489	-0.219	-0.093	0.441	0.508	0.346	0.648	0.544	-0.368	-0.452	-0.179	-0.446	-0.226	-0.253	-0.480	-0.504	-0.571	-0.549	-0.325	0.461	0.099	0.184	-0.086	0.245	-74.219
0.344	-0.046	0.066	-0.403	-0.555	-0.273	-0.160	0.209	0.293	0.205	0.446	0.388	-0.379	-0.416	-0.188	-0.165	0.016	-0.163	-0.226	-0.287	-0.440	-0.338	-0.176	0.649	-0.068	0.088	-0.219	0.078	-70.312
0.305	0.119	0.062	-0.292	-0.566	-0.306	-0.218	-0.037	0.055	0.036	0.186	0.178	-0.380	-0.353	-0.182	0.097	0.233	-0.064	0.038	-0.069	-0.294	-0.086	-0.003	0.799	-0.208	-0.014	-0.321	-0.103	-66.406
0.232	0.231	0.033	-0.187	-0.529	-0.323	-0.255	-0.271	-0.180	-0.137	-0.097	-0.058	-0.365	-0.275	-0.161	0.309	0.409	0.041	0.288	0.126	-0.154	0.184	0.184	0.899	-0.287	-0.094	-0.373	-0.270	-62.500
0.128	0.279	-0.025	-0.104	-0.458	-0.328	-0.264	-0.473	-0.388	-0.288	-0.369	-0.288	-0.333	-0.190	-0.129	0.454	0.538	0.148	0.505	0.277	-0.039	0.446	0.374	0.941	-0.280	-0.128	-0.367	-0.395	-58.594
0.007	0.263	-0.103	-0.050	-0.368	-0.327	-0.245	-0.629	-0.548	-0.400	-0.596	-0.485	-0.287	-0.109	-0.090	0.528	0.616	0.250	0.673	0.374	0.040	0.674	0.551	0.926	-0.184	-0.101	-0.305	-0.461	-54.688
-0.117	0.200	-0.190	-0.023	-0.274	-0.321	-0.203	-0.732	-0.653	-0.462	-0.755	-0.626	-0.233	-0.042	-0.042	0.537	0.648	0.343	0.780	0.412	0.075	0.843	0.697	0.855	-0.014	-0.013	-0.203	-0.461	-50.781
-0.223	0.112	-0.272	-0.017	-0.186	-0.311	-0.146	-0.782	-0.698	-0.473	-0.831	-0.698	-0.180	0.005	0.016	0.500	0.641	0.419	0.819	0.399	0.068	0.928	0.792	0.734	0.199	0.125	-0.085	-0.399	-46.875
-0.293	0.023	-0.332	-0.020	-0.113	-0.298	-0.086	-0.781	-0.688	-0.441	-0.824	-0.699	-0.139	0.027	0.088	0.438	0.606	0.471	0.787	0.344	0.024	0.914	0.818	0.573	0.414	0.289	0.024	-0.293	-42.969
-0.311	-0.046	-0.360	-0.020	-0.058	-0.280	-0.034	-0.739	-0.636	-0.382	-0.744	-0.638	-0.117	0.021	0.174	0.371	0.553	0.494	0.689	0.264	-0.047	0.799	0.767	0.385	0.591	0.454	0.098	-0.162	-39.062
-0.272	-0.079	-0.349	-0.010	-0.022	-0.258	0.001	-0.666	-0.555	-0.315	-0.609	-0.534	-0.118	-0.009	0.271	0.317	0.490	0.486	0.537	0.170	-0.134	0.593	0.640	0.187	0.705	0.591	0.122	-0.034	-35.156
-0.178	-0.072	-0.301	0.013	-0.003	-0.231	0.014	-0.574	-0.461	-0.255	-0.445	-0.409	-0.139	-0.057	0.371	0.280	0.422	0.447	0.349	0.077	-0.224	0.327	0.456	-0.003	0.743	0.679	0.091	0.070	-31.250
-0.046	-0.029	-0.225	0.047	0.001	-0.204	0.003	-0.476	-0.367	-0.216	-0.275	-0.282	-0.174	-0.115	0.461	0.261	0.350	0.383	0.149	-0.008	-0.306	0.041	0.242	-0.165	0.714	0.706	0.011	0.134	-27.344
0.102	0.039	-0.135	0.084	-0.010	-0.178	-0.025	-0.380	-0.282	-0.199	-0.117	-0.169	-0.211	-0.173	0.533	0.252	0.275	0.304	-0.042	-0.081	-0.373	-0.223	0.031	-0.285	0.637	0.672	-0.099	0.154	-23.438
0.240	0.116	-0.045	0.117	-0.034	-0.158	-0.065	-0.290	-0.209	-0.202	0.015	-0.079	-0.239	-0.224	0.580	0.240	0.194	0.219	-0.204	-0.141	-0.422	-0.430	-0.149	-0.353	0.536	0.588	-0.218	0.132	-19.531
0.343	0.187	0.028	0.139	-0.069	-0.145	-0.105	-0.207	-0.146	-0.214	0.119	-0.010	-0.251	-0.263	0.607	0.217	0.105	0.140	-0.329	-0.191	-0.457	-0.562	-0.281	-0.370	0.433	0.473	-0.324	0.082	-15.625
0.394	0.240	0.076	0.147	-0.113	-0.140	-0.137	-0.129	-0.087	-0.222	0.196	0.041	-0.242	-0.292	0.623	0.177	0.006	0.074	-0.418	-0.234	-0.482	-0.620	-0.359	-0.343	0.346	0.350	-0.403	0.019	-11.719
0.384	0.269	0.093	0.141	-0.161	-0.141	-0.158	-0.053	-0.025	-0.218	0.252	0.083	-0.217	-0.315	0.642	0.117	-0.102	0.029	-0.479	-0.273	-0.502	-0.622	-0.391	-0.286	0.286	0.240	-0.448	-0.043	-7.812
0.315	0.269	0.077	0.123	-0.213	-0.150	-0.168	0.023	0.042	-0.197	0.291	0.119	-0.185	-0.339	0.683	0.043	-0.211	0.009	-0.523	-0.310	-0.523	-0.593	-0.391	-0.216	0.258	0.158	-0.464	-0.095	-3.906
0.198	0.238	0.026	0.091	-0.267	-0.172	-0.172	0.095	0.112	-0.162	0.316	0.151	-0.160	-0.372	0.760	-0.039	-0.310	0.018	-0.558	-0.344	-0.546	-0.559	-0.372	-0.145	0.269	0.111	-0.463	-0.134	0.000
0.049	0.176	-0.061	0.040	-0.327	-0.213	-0.178	0.155	0.178	-0.123	0.327	0.176	-0.154	-0.421	0.884	-0.122	-0.383	0.059	-0.588	-0.374	-0.572	-0.536	-0.343	-0.083	0.321	0.095	-0.461	-0.163	3.906
-0.113	0.081	-0.181	-0.036	-0.399	-0.282	-0.194	0.194	0.229	-0.091	0.323	0.188	-0.176	-0.487	1.054	-0.200	-0.416	0.134	-0.609	-0.400	-0.600	-0.531	-0.307	-0.032	0.415	0.103	-0.473	-0.191	7.812
-0.269	-0.043	-0.331	-0.143	-0.486	-0.385	-0.225	0.204	0.254	-0.075	0.302	0.180	-0.228	-0.569	1.264	-0.271	-0.400	0.240	-0.615	-0.419	-0.627	-0.536	-0.261	0.011	0.548	0.120	-0.508	-0.226	11.719
-0.406	-0.187	-0.502	-0.278	-0.587	-0.518	-0.269	0.176	0.246	-0.082	0.265	0.151	-0.304	-0.659	1.492	-0.334	-0.335	0.371	-0.598	-0.433	-0.652	-0.536	-0.199	0.051	0.710	0.136	-0.567	-0.270	15.625
-0.512	-0.337	-0.677	-0.434	-0.695	-0.671	-0.321	0.110	0.200	-0.108	0.218	0.103	-0.390	-0.745	1.713	-0.395	-0.231	0.515	-0.552	-0.444	-0.674	-0.513	-0.116	0.096	0.885	0.141	-0.640	-0.322	19.531
-0.585	-0.478	-0.840	-0.598	-0.801	-0.828	-0.369	0.011	0.122	-0.145	0.171	0.048	-0.465	-0.814	1.896	-0.457	-0.108	0.655	-0.479	-0.456	-0.693	-0.451	-0.012	0.152	1.049	0.137	-0.708	-0.371	23.438
-0.626	-0.600	-0.975	-0.756	-0.890	-0.969	-0.402	-0.112	0.022	-0.182	0.139	0.000	-0.512	-0.854	2.019	-0.527	0.010	0.778	-0.382	-0.474	-0.710	-0.342	0.112	0.222	1.185	0.132	-0.751	-0.398	27.344
-0.642	-0.697	-1.074	-0.897	-0.955	-1.081	-0.413	-0.242	-0.079	-0.205	0.135	-0.023	-0.517	-0.859	2.067	-0.609	0.100	0.872	-0.273	-0.504	-0.731	-0.189	0.248	0.306	1.284	0.147	-0.746	-0.381	31.250
-0.648	-0.771	-1.133	-1.018	-0.990	-1.155	-0.399	-0.359	-0.163	-0.206	0.169	-0.008	-0.478	-0.831	2.040	-0.707	0.145	0.930	-0.167	-0.552	-0.759	-0.008	0.388	0.401	1.353	0.212	-0.678	-0.300	35.156
-0.658	-0.829	-1.161	-1.118	-0.994	-1.188	-0.363	-0.443	-0.208	-0.182	0.246	0.050	-0.402	-0.779	1.948	-0.822	0.132	0.952	-0.083	-0.620	-0.802	0.178	0.521	0.502	1.417	0.360	-0.539	-0.140	39.062
-0.686	-0.883	-1.168	-1.203	-0.975	-1.186	-0.312	-0.476	-0.197	-0.136	0.361	0.148	-0.308	-0.722	1.809	-0.955	0.054	0.942	-0.042	-0.715	-0.867	0.337	0.636	0.606	1.515	0.629	-0.331	0.104	42.969
-0.744	-0.948	-1.174	-1.280	-0.942	-1.163	-0.258	-0.444	-0.121	-0.077	0.500	0.267	-0.222	-0.680	1.645	-1.107	-0.087	0.907	-0.062	-0.840	-0.961	0.441	0.729	0.710	1.700	1.052	-0.060	0.427	46.875
-0.843	-1.039	-1.196	-1.358	-0.915	-1.134	-0.211	-0.343	0.021	-0.016	0.647	0.384	-0.167	-0.671	1.473	-1.280	-0.287	0.856	-0.153	-0.999	-1.089	0.468	0.799	0.820	2.020	1.656	0.260	0.812	50.781
-0.988	-1.170	-1.251	-1.450	-0.913	-1.119	-0.178	-0.180	0.220	0.038	0.780	0.472	-0.155	-0.704	1.301	-1.476	-0.537	0.798	-0.318	-1.193	-1.251	0.409	0.854	0.943	2.518	2.455	0.617	1.236	54.688
-1.183	-1.352	-1.352	-1.564	-0.954	-1.134	-0.160	0.028	0.460	0.083	0.880	0.507	-0.189	-0.777	1.132	-1.699	-0.827	0.741	-0.547	-1.422	-1.444	0.273	0.908	1.095	3.214	3.445	1.003	1.674	58.594
-1.429	-1.588	-1.507	-1.707	-1.049	-1.192	-0.152	0.258	0.719	0.121	0.936	0.473	-0.254	-0.876	0.957	-1.949	-1.145	0.693	-0.820	-1.682	-1.656	0.085	0.981	1.290	4.104	4.601	1.410	2.096	62.500
-1.722	-1.873	-1.712	-1.883	-1.200	-1.293	-0.141	0.479	0.974	0.162	0.942	0.371	-0.322	-0.977	0.767	-2.226	-1.476	0.660	-1.108	-1.965	-1.873	-0.119	1.092	1.543	5.154	5.873	1.835	2.481	66.406
-2.056	-2.195	-1.958	-2.086	-1.394	-1.432	-0.112	0.662	1.203	0.221	0.903	0.215	-0.358	-1.053	0.553	-2.524	-1.807	0.647	-1.379	-2.258	-2.076	-0.297	1.259	1.863	6.308	7.197	2.280	2.812	70.312
-2.422	-2.534	-2.229	-2.309	-1.612	-1.594	-0.052	0.782	1.392	0.314	0.832	0.034	-0.328	-1.078	0.311	-2.834	-2.123	0.660	-1.600	-2.547	-2.246	-0.412	1.491	2.250	7.493	8.496	2.747	3.083	74.219
-2.804	-2.868	-2.505	-2.544	-1.830	-1.763	0.052	0.826	1.532	0.454	0.748	-0.135	-0.204	-1.035	0.047	-3.145	-2.410	0.701	-1.751	-2.817	-2.372	-0.440	1.789	2.697	8.635	9.697	3.237	3.302	78.125
-3.185	-3.180	-2.766	-2.780	-2.029	-1.924	0.203	0.789	1.625	0.651	0.677	-0.250	0.027	-0.919	-0.227	-3.443	-2.659	0.770	-1.820	-3.056	-2.447	-0.375	2.138	3.190	9.662	10.736	3.751	3.481	82.031
-3.545	-3.457	-2.996	-3.011	-2.191	-2.062	0.398	0.682	1.678	0.905	0.638	-0.275	0.362	-0.737	-0.490	-3.716	-2.865	0.864	-1.813	-3.255	-2.474	-0.227	2.515	3.705	10.518	11.570	4.282	3.642	85.938
-3.864	-3.689	-3.182	-3.229	-2.306	-2.167	0.630	0.523	1.703	1.212	0.649	-0.191	0.783	-0.504	-0.718	-3.952	-3.026	0.975	-1.742	-3.406	-2.459	-0.021	2.890	4.217	11.160	12.172	4.815	3.799	89.844
-4.128	-3.872	-3.316	-3.424	-2.365	-2.232	0.887	0.334	1.708	1.555	0.712	0.005	1.260	-0.239	-0.888	-4.138	-3.146	1.097	-1.628	-3.502	-2.411	0.211	3.231	4.696	11.560	12.532	5.324	3.958	93.750
-4.326	-3.996	-3.391	-3.581	-2.361	-2.250	1.153	0.134	1.695	1.910	0.815	0.289	1.757	0.040	-0.984	-4.259	-3.224	1.219	-1.487	-3.535	-2.333	0.444	3.511	5.117	11.703	12.645	5.777	4.106	97.656
-4.454	-4.048	-3.404	-3.674	-2.288	-2.214	1.412	-0.066	1.655	2.245	0.930	0.617	2.236	0.321	-0.994	-4.295	-3.254	1.336	-1.328	-3.489	-2.219	0.657	3.711	5.452	11.583	12.512	6.130	4.216	101.562
-4.512	-4.008	-3.352	-3.675	-2.136	-2.118	1.647	-0.262	1.572	2.527	1.021	0.931	2.665	0.602	-0.918	-4.226	-3.224	1.442	-1.152	-3.348	-2.055	0.844	3.822	5.679	11.205	12.133	6.342	4.246	105.469
-4.502	-3.854	-3.232	-3.550	-1.897	-1.955	1.844	-0.461	1.423	2.719	1.048	1.172	3.016	0.884	-0.765	-4.032	-3.120	1.534	-0.950	-3.093	-1.821	1.005	3.848	5.783	10.581	11.511	6.375	4.153	109.375
-4.426	-3.565	-3.040	-3.273	-1.568	-1.724	1.987	-0.674	1.185	2.791	0.974	1.288	3.272	1.173	-0.555	-3.698	-2.925	1.612	-0.710	-2.711	-1.499	1.148	3.798	5.752	9.738	10.660	6.207	3.901	113.281
-4.286	-3.132	-2.781	-2.832	-1.154	-1.430	2.064	-0.910	0.848	2.723	0.779	1.245	3.420	1.469	-0.310	-3.223	-2.630	1.673	-0.425	-2.200	-1.080	1.280	3.685	5.583	8.718	9.608	5.829	3.476	117.188
-4.083	-2.566	-2.462	-2.241	-0.674	-1.089	2.065	-1.176	0.410	2.507	0.461	1.038	3.455	1.766	-0.055	-2.623	-2.240	1.715	-0.099	-1.573	-0.569	1.403	3.520	5.280	7.573	8.403	5.254	2.888	121.094
-3.819	-1.898	-2.101	-1.540	-0.159	-0.727	1.984	-1.465	-0.109	2.151	0.038	0.687	3.376	2.045	0.191	-1.934	-1.773	1.735	0.252	-0.863	0.007	1.508	3.312	4.851	6.365	7.113	4.514	2.178	125.000
-3.495	-1.181	-1.723	-0.795	0.343	-0.380	1.819	-1.760	-0.671	1.681	-0.447	0.236	3.184	2.278	0.415	-1.205	-1.262	1.728	0.598	-0.124	0.600	1.580	3.063	4.309	5.165	5.823	3.655	1.410	128.906
-3.122	-0.481	-1.359	-0.088	0.781	-0.084	1.577	-2.033	-1.224	1.135	-0.938	-0.250	2.886	2.431	0.615	-0.502	-0.750	1.689	0.896	0.580	1.148	1.594	2.771	3.676	4.043	4.624	2.736	0.665	132.812
-2.714	0.132	-1.039	0.501	1.104	0.124	1.270	-2.248	-1.704	0.562	-1.369	-0.702	2.493	2.469	0.794	0.109	-0.288	1.615	1.103	1.179	1.587	1.527	2.434	2.977	3.070	3.609	1.826	0.028	136.719
-2.293	0.600	-0.790	0.906	1.276	0.221	0.921	-2.371	-2.049	0.017	-1.675	-1.051	2.024	2.370	0.957	0.564	0.073	1.507	1.178	1.606	1.856	1.356	2.054	2.248	2.311	2.857	0.993	-0.423	140.625
-1.884	0.880	-0.629	1.089	1.278	0.199	0.555	-2.374	-2.209	-0.450	-1.803	-1.243	1.502	2.125	1.107	0.815	0.290	1.368	1.093	1.814	1.916	1.075	1.641	1.528	1.820	2.428	0.299	-0.631	144.531
-1.515	0.957	-0.562	1.043	1.116	0.065	0.202	-2.243	-2.151	-0.798	-1.718	-1.242	0.958	1.744	1.243	0.836	0.334	1.203	0.839	1.779	1.753	0.692	1.214	0.863	1.630	2.353	-0.203	-0.563	148.438
-1.212	0.835	-0.587	0.791	0.812	-0.158	-0.110	-1.983	-1.869	-1.000	-1.413	-1.040	0.424	1.256	1.362	0.627	0.192	1.023	0.430	1.507	1.382	0.232	0.799	0.292	1.753	2.632	-0.482	-0.222	152.344
-0.996	0.542	-0.690	0.377	0.405	-0.444	-0.360	-1.615	-1.382	-1.043	-0.904	-0.652	-0.068	0.705	1.460	0.210	-0.122	0.841	-0.098	1.031	0.847	-0.261	0.428	-0.150	2.169	3.233	-0.532	0.362	156.250
-0.877	0.114	-0.857	-0.143	-0.061	-0.761	-0.533	-1.174	-0.734	-0.934	-0.233	-0.116	-0.491	0.141	1.533	-0.368	-0.576	0.674	-0.693	0.407	0.211	-0.737	0.131	-0.446	2.828	4.095	-0.372	1.130	160.156
-0.859	-0.400	-1.068	-0.710	-0.544	-1.080	-0.622	-0.696	0.019	-0.691	0.544	0.515	-0.823	-0.384	1.582	-1.046	-1.118	0.537	-1.291	-0.296	-0.456	-1.143	-0.067	-0.594	3.658	5.136	-0.045	2.005	164.062
-0.932	-0.952	-1.303	-1.267	-1.002	-1.373	-0.629	-0.218	0.811	-0.343	1.363	1.181	-1.051	-0.828	1.610	-1.758	-1.685	0.443	-1.832	-1.006	-1.085	-1.435	-0.154	-0.610	4.566	6.260	0.390	2.901	167.969
-1.081	-1.490	-1.538	-1.766	-1.404	-1.619	-0.562	0.233	1.585	0.075	2.162	1.822	-1.173	-1.161	1.619	-2.438	-2.217	0.400	-2.264	-1.657	-1.622	-1.587	-0.132	-0.523	5.457	7.371	0.864	3.735	171.875
-1.285	-1.973	-1.753	-2.170	-1.723	-1.798	-0.430	0.642	2.293	0.528	2.887	2.388	-1.196	-1.370	1.613	-3.037	-2.660	0.406	-2.556	-2.203	-2.033	-1.593	-0.014	-0.371	6.246	8.376	1.313	4.439	175.781
-1.520	-2.369	-1.931	-2.460	-1.949	-1.901	-0.248	1.005	2.906	0.983	3.505	2.843	-1.133	-1.462	1.592	-3.521	-2.980	0.454	-2.699	-2.618	-2.309	-1.468	0.172	-0.190	6.870	9.205	1.687	4.964	179.688
-1.763	-2.662	-2.060	-2.635	-2.082	-1.927	-0.030	1.329	3.414	1.416	3.997	3.169	-1.006	-1.456	1.553	-3.879	-3.164	0.529	-2.705	-2.903	-2.466	-1.245	0.397	-0.014	7.297	9.812	1.954	5.288	183.594
-1.997	-2.852	-2.140	-2.709	-2.136	-1.884	0.210	1.623	3.822	1.808	4.365	3.366	-0.836	-1.384	1.493	-4.122	-3.224	0.613	-2.607	-3.080	-2.536	-0.966	0.629	0.139	7.530	10.181	2.108	5.415	187.500
-2.211	-2.952	-2.175	-2.710	-2.134	-1.789	0.459	1.901	4.151	2.148	4.620	3.447	-0.648	-1.281	1.408	-4.274	-3.191	0.688	-2.451	-3.188	-2.562	-0.680	0.838	0.257	7.599	10.327	2.159	5.372	191.406
-2.401	-2.984	-2.175	-2.669	-2.103	-1.662	0.703	2.173	4.425	2.432	4.783	3.433	-0.461	-1.181	1.295	-4.367	-3.109	0.735	-2.287	-3.267	-2.588	-0.429	1.005	0.344	7.556	10.284	2.130	5.200	195.312
-2.564	-2.974	-2.153	-2.617	-2.069	-1.525	0.934	2.449	4.668	2.660	4.873	3.348	-0.296	-1.111	1.159	-4.434	-3.025	0.744	-2.159	-3.358	-2.647	-0.248	1.114	0.404	7.459	10.102	2.050	4.947	199.219
-2.704	-2.944	-2.124	-2.576	-2.052	-1.395	1.142	2.737	4.899	2.834	4.909	3.215	-0.165	-1.091	1.007	-4.501	-2.978	0.708	-2.101	-3.486	-2.760	-0.155	1.161	0.446	7.361	9.835	1.942	4.658	203.125
-2.823	-2.913	-2.097	-2.561	-2.063	-1.284	1.322	3.039	5.128	2.957	4.900	3.050	-0.080	-1.129	0.852	-4.581	-2.992	0.629	-2.126	-3.663	-2.932	-0.152	1.148	0.475	7.297	9.530	1.822	4.368	207.031
-2.924	-2.893	-2.078	-2.577	-2.102	-1.197	1.468	3.358	5.358	3.034	4.855	2.865	-0.046	-1.227	0.706	-4.681	-3.070	0.515	-2.232	-3.883	-3.156	-0.226	1.086	0.491	7.283	9.225	1.697	4.099	210.938
-3.008	-2.892	-2.071	-2.618	-2.159	-1.130	1.579	3.691	5.581	3.070	4.775	2.669	-0.063	-1.375	0.583	-4.797	-3.203	0.378	-2.398	-4.131	-3.410	-0.353	0.987	0.492	7.316	8.940	1.567	3.861	214.844
-3.074	-2.914	-2.075	-2.674	-2.222	-1.078	1.655	4.033	5.787	3.073	4.666	2.467	-0.125	-1.559	0.488	-4.921	-3.368	0.231	-2.600	-4.388	-3.674	-0.504	0.868	0.476	7.376	8.688	1.432	3.654	218.750
-3.123	-2.960	-2.085	-2.731	-2.274	-1.031	1.701	4.375	5.968	3.055	4.534	2.266	-0.219	-1.757	0.422	-5.050	-3.542	0.086	-2.807	-4.632	-3.921	-0.651	0.742	0.447	7.438	8.470	1.294	3.475	222.656
-3.154	-3.030	-2.095	-2.779	-2.302	-0.980	1.724	4.705	6.115	3.028	4.391	2.075	-0.327	-1.947	0.379	-5.179	-3.706	-0.048	-2.996	-4.848	-4.132	-0.773	0.623	0.414	7.481	8.283	1.164	3.323	226.562
-3.169	-3.119	-2.100	-2.812	-2.295	-0.917	1.733	5.010	6.228	3.006	4.250	1.905	-0.425	-2.102	0.349	-5.311	-3.848	-0.164	-3.148	-5.028	-4.289	-0.853	0.525	0.394	7.487	8.123	1.057	3.193	230.469
-3.173	-3.224	-2.096	-2.826	-2.250	-0.839	1.740	5.278	6.307	3.003	4.127	1.768	-0.487	-2.198	0.318	-5.445	-3.966	-0.259	-3.253	-5.166	-4.379	-0.882	0.458	0.409	7.452	7.984	0.993	3.087	234.375
-3.173	-3.334	-2.079	-2.822	-2.164	-0.742	1.757	5.496	6.358	3.032	4.034	1.671	-0.491	-2.215	0.279	-5.581	-4.058	-0.329	-3.305	-5.260	-4.393	-0.857	0.431	0.480	7.376	7.861	0.990	3.002	238.281
-3.176	-3.437	-2.048	-2.803	-2.040	-0.628	1.793	5.656	6.387	3.097	3.980	1.621	-0.417	-2.139	0.228	-5.712	-4.129	-0.373	-3.304	-5.307	-4.324	-0.781	0.447	0.618	7.266	7.747	1.057	2.936	242.188
-3.190	-3.519	-2.003	-2.768	-1.883	-0.499	1.857	5.751	6.401	3.201	3.966	1.614	-0.256	-1.964	0.168	-5.824	-4.179	-0.388	-3.252	-5.302	-4.168	-0.662	0.505	0.825	7.126	7.633	1.190	2.882	246.094
-3.219	-3.569	-1.945	-2.717	-1.700	-0.358	1.951	5.779	6.401	3.338	3.989	1.642	-0.010	-1.693	0.108	-5.898	-4.205	-0.372	-3.151	-5.237	-3.924	-0.509	0.600	1.088	6.954	7.510	1.375	2.834	250.000
-3.262	-3.579	-1.878	-2.652	-1.500	-0.214	2.072	5.739	6.387	3.499	4.040	1.691	0.309	-1.338	0.058	-5.915	-4.202	-0.326	-3.002	-5.104	-3.594	-0.327	0.726	1.385	6.751	7.369	1.586	2.779	253.906
-3.317	-3.547	-1.806	-2.571	-1.295	-0.072	2.213	5.634	6.358	3.670	4.105	1.743	0.680	-0.918	0.027	-5.860	-4.162	-0.249	-2.806	-4.899	-3.188	-0.121	0.874	1.690	6.516	7.208	1.796	2.707	257.812
-3.380	-3.477	-1.736	-2.474	-1.094	0.057	2.365	5.472	6.307	3.836	4.170	1.780	1.077	-0.456	0.016	-5.727	-4.082	-0.146	-2.564	-4.623	-2.720	0.111	1.043	1.977	6.252	7.025	1.978	2.610	261.719
-3.448	-3.381	-1.673	-2.362	-0.904	0.171	2.518	5.260	6.233	3.982	4.222	1.790	1.474	0.020	0.021	-5.524	-3.963	-0.022	-2.280	-4.287	-2.213	0.372	1.227	2.222	5.972	6.824	2.115	2.478	265.625
-3.514	-3.267	-1.618	-2.232	-0.728	0.269	2.661	5.011	6.133	4.098	4.250	1.766	1.845	0.486	0.033	-5.268	-3.814	0.113	-1.965	-3.909	-1.694	0.661	1.422	2.408	5.686	6.607	2.197	2.310	269.531
-3.575	-3.147	-1.572	-2.083	-0.561	0.353	2.790	4.743	6.011	4.179	4.247	1.710	2.171	0.919	0.041	-4.986	-3.646	0.247	-1.633	-3.515	-1.195	0.973	1.624	2.526	5.412	6.378	2.224	2.109	273.438
-3.625	-3.026	-1.532	-1.916	-0.401	0.432	2.902	4.474	5.874	4.223	4.216	1.631	2.440	1.301	0.034	-4.711	-3.476	0.368	-1.305	-3.133	-0.746	1.295	1.821	2.571	5.161	6.143	2.206	1.884	277.344
-3.662	-2.907	-1.491	-1.734	-0.240	0.510	2.996	4.222	5.732	4.234	4.160	1.547	2.647	1.618	0.010	-4.470	-3.320	0.468	-1.002	-2.793	-0.372	1.607	2.002	2.545	4.948	5.911	2.160	1.653	281.250
-3.680	-2.791	-1.446	-1.541	-0.074	0.595	3.075	4.001	5.596	4.219	4.092	1.475	2.794	1.865	-0.031	-4.285	-3.191	0.541	-0.748	-2.513	-0.089	1.884	2.154	2.458	4.781	5.696	2.104	1.437	285.156
-3.679	-2.674	-1.390	-1.345	0.099	0.690	3.137	3.823	5.475	4.184	4.021	1.431	2.885	2.040	-0.081	-4.166	-3.097	0.586	-0.558	-2.306	0.097	2.103	2.267	2.326	4.671	5.515	2.058	1.260	289.062
-3.661	-2.553	-1.324	-1.151	0.282	0.795	3.183	3.690	5.374	4.132	3.956	1.421	2.929	2.148	-0.131	-4.113	-3.040	0.605	-0.438	-2.169	0.195	2.251	2.337	2.170	4.622	5.384	2.033	1.139	292.969
-3.630	-2.425	-1.249	-0.966	0.473	0.907	3.210	3.596	5.292	4.064	3.900	1.443	2.934	2.199	-0.175	-4.110	-3.015	0.608	-0.382	-2.090	0.224	2.329	2.371	2.014	4.636	5.319	2.039	1.085	296.875
-3.593	-2.290	-1.171	-0.799	0.667	1.019	3.213	3.532	5.221	3.978	3.849	1.487	2.908	2.202	-0.207	-4.138	-3.008	0.603	-0.371	-2.046	0.210	2.352	2.382	1.883	4.708	5.329	2.076	1.097	300.781
-3.555	-2.152	-1.096	-0.653	0.858	1.124	3.189	3.486	5.154	3.874	3.795	1.535	2.859	2.174	-0.227	-4.171	-3.004	0.601	-0.380	-2.012	0.183	2.350	2.392	1.796	4.827	5.410	2.141	1.164	304.688
-3.523	-2.019	-1.032	-0.532	1.037	1.216	3.141	3.448	5.078	3.755	3.728	1.570	2.798	2.127	-0.238	-4.183	-2.984	0.613	-0.377	-1.961	0.170	2.353	2.418	1.763	4.975	5.552	2.223	1.265	308.594
-3.502	-1.897	-0.981	-0.431	1.203	1.293	3.076	3.410	4.988	3.625	3.638	1.578	2.735	2.079	-0.244	-4.155	-2.935	0.643	-0.337	-1.869	0.194	2.391	2.475	1.788	5.128	5.731	2.309	1.375	312.500
-3.494	-1.786	-0.942	-0.334	1.358	1.364	3.006	3.372	4.880	3.497	3.518	1.549	2.685	2.044	-0.251	-4.071	-2.846	0.694	-0.242	-1.721	0.273	2.478	2.569	1.864	5.259	5.916	2.384	1.465	316.406
-3.503	-1.680	-0.907	-0.221	1.510	1.440	2.949	3.333	4.754	3.384	3.368	1.476	2.660	2.036	-0.261	-3.923	-2.709	0.766	-0.088	-1.508	0.414	2.617	2.698	1.978	5.344	6.069	2.431	1.511	320.312
-3.531	-1.569	-0.869	-0.069	1.671	1.535	2.920	3.294	4.614	3.295	3.192	1.361	2.670	2.069	-0.275	-3.709	-2.525	0.854	0.123	-1.229	0.620	2.797	2.849	2.115	5.365	6.159	2.436	1.492	324.219
-3.580	-1.437	-0.818	0.141	1.853	1.661	2.933	3.252	4.465	3.239	3.001	1.207	2.723	2.150	-0.293	-3.435	-2.301	0.954	0.381	-0.887	0.886	3.003	3.013	2.261	5.309	6.157	2.388	1.397	328.125
-3.649	-1.272	-0.748	0.418	2.065	1.825	2.993	3.203	4.311	3.215	2.806	1.024	2.820	2.283	-0.316	-3.109	-2.044	1.061	0.672	-0.492	1.203	3.218	3.178	2.402	5.178	6.049	2.285	1.224	332.031
-3.733	-1.067	-0.657	0.753	2.309	2.024	3.098	3.141	4.160	3.218	2.623	0.824	2.957	2.468	-0.343	-2.743	-1.769	1.167	0.982	-0.055	1.560	3.430	3.333	2.525	4.975	5.833	2.131	0.982	335.938
-3.820	-0.824	-0.544	1.126	2.579	2.250	3.240	3.063	4.017	3.243	2.467	0.621	3.123	2.697	-0.377	-2.351	-1.489	1.267	1.296	0.409	1.940	3.629	3.469	2.618	4.708	5.514	1.936	0.688	339.844
-3.894	-0.550	-0.411	1.508	2.866	2.490	3.406	2.973	3.891	3.281	2.350	0.432	3.303	2.957	-0.414	-1.945	-1.214	1.354	1.602	0.887	2.326	3.805	3.578	2.668	4.385	5.108	1.715	0.364	343.750
-3.939	-0.260	-0.264	1.867	3.155	2.729	3.582	2.879	3.790	3.326	2.281	0.272	3.483	3.232	-0.450	-1.537	-0.951	1.425	1.887	1.362	2.701	3.953	3.651	2.665	4.017	4.636	1.484	0.030	347.656
-3.943	0.030	-0.109	2.176	3.429	2.954	3.755	2.791	3.719	3.376	2.262	0.153	3.649	3.505	-0.476	-1.136	-0.703	1.479	2.144	1.822	3.049	4.067	3.685	2.606	3.619	4.119	1.259	-0.292	351.562
-3.903	0.304	0.048	2.420	3.676	3.152	3.914	2.719	3.680	3.430	2.285	0.078	3.794	3.762	-0.486	-0.753	-0.468	1.522	2.371	2.249	3.357	4.149	3.687	2.497	3.212	3.585	1.058	-0.587	355.469
-3.827	0.548	0.195	2.593	3.884	3.317	4.054	2.668	3.668	3.489	2.337	0.043	3.916	3.995	-0.478	-0.398	-0.246	1.562	2.571	2.631	3.618	4.211	3.670	2.357	2.826	3.065	0.895	-0.845	359.375
-3.735	0.753	0.324	2.707	4.051	3.449	4.172	2.638	3.673	3.553	2.398	0.037	4.023	4.202	-0.455	-0.082	-0.037	1.606	2.750	2.954	3.829	4.267	3.656	2.218	2.496	2.592	0.784	-1.059	363.281
-3.653	0.914	0.429	2.781	4.181	3.552	4.271	2.625	3.684	3.622	2.447	0.042	4.124	4.386	-0.431	0.182	0.151	1.658	2.915	3.209	3.993	4.334	3.667	2.110	2.253	2.199	0.734	-1.224	367.188
-3.607	1.030	0.504	2.841	4.282	3.637	4.359	2.626	3.688	3.695	2.467	0.040	4.231	4.552	-0.421	0.380	0.305	1.717	3.066	3.389	4.117	4.426	3.719	2.062	2.115	1.915	0.749	-1.338	371.094
-3.616	1.104	0.551	2.907	4.367	3.714	4.445	2.637	3.679	3.770	2.450	0.023	4.352	4.704	-0.442	0.499	0.408	1.774	3.197	3.487	4.206	4.543	3.812	2.090	2.088	1.758	0.826	-1.401	375.000
-3.688	1.134	0.572	2.988	4.442	3.794	4.536	2.660	3.661	3.847	2.402	-0.007	4.487	4.840	-0.503	0.527	0.443	1.818	3.294	3.500	4.259	4.670	3.934	2.190	2.159	1.729	0.954	-1.408	378.906
-3.810	1.117	0.572	3.074	4.508	3.876	4.638	2.704	3.649	3.926	2.346	-0.032	4.625	4.951	-0.601	0.456	0.392	1.834	3.333	3.424	4.270	4.780	4.056	2.341	2.299	1.812	1.117	-1.355	382.812
-3.961	1.047	0.554	3.143	4.558	3.954	4.750	2.778	3.665	4.005	2.314	-0.024	4.750	5.020	-0.723	0.283	0.245	1.807	3.289	3.253	4.226	4.838	4.142	2.509	2.474	1.974	1.293	-1.239	386.719
-4.105	0.917	0.522	3.160	4.579	4.014	4.866	2.894	3.736	4.087	2.342	0.049	4.838	5.025	-0.845	0.013	0.003	1.730	3.140	2.987	4.110	4.809	4.153	2.650	2.647	2.167	1.455	-1.061	390.625
-4.208	0.727	0.479	3.094	4.557	4.043	4.976	3.061	3.880	4.170	2.455	0.208	4.871	4.951	-0.940	-0.338	-0.323	1.601	2.880	2.629	3.912	4.673	4.064	2.726	2.783	2.337	1.579	-0.829	394.531
-4.244	0.485	0.428	2.930	4.485	4.031	5.065	3.280	4.101	4.248	2.660	0.452	4.834	4.793	-0.984	-0.744	-0.707	1.427	2.519	2.197	3.632	4.432	3.868	2.707	2.857	2.431	1.641	-0.567	398.438
-4.202	0.213	0.374	2.675	4.367	3.976	5.120	3.540	4.383	4.313	2.936	0.756	4.727	4.561	-0.965	-1.170	-1.112	1.224	2.092	1.720	3.287	4.113	3.580	2.583	2.856	2.404	1.627	-0.308	402.344
-4.092	-0.059	0.322	2.363	4.223	3.889	5.132	3.815	4.686	4.351	3.236	1.068	4.563	4.285	-0.886	-1.573	-1.493	1.015	1.650	1.240	2.909	3.769	3.240	2.364	2.772	2.231	1.532	-0.096	406.250
-3.938	-0.296	0.277	2.046	4.079	3.789	5.098	4.075	4.960	4.350	3.496	1.324	4.365	4.004	-0.764	-1.914	-1.808	0.821	1.256	0.803	2.543	3.462	2.898	2.076	2.612	1.909	1.361	0.027	410.156
-3.775	-0.466	0.246	1.785	3.971	3.702	5.025	4.284	5.151	4.301	3.652	1.459	4.165	3.763	-0.626	-2.157	-2.022	0.664	0.964	0.455	2.236	3.248	2.605	1.754	2.387	1.461	1.132	0.026	414.062
-3.637	-0.544	0.231	1.631	3.928	3.652	4.924	4.413	5.216	4.200	3.655	1.427	3.994	3.602	-0.501	-2.282	-2.116	0.556	0.812	0.230	2.029	3.161	2.399	1.433	2.118	0.931	0.868	-0.114	417.969
-3.551	-0.520	0.236	1.617	3.967	3.653	4.812	4.445	5.136	4.053	3.485	1.214	3.874	3.543	-0.410	-2.283	-2.093	0.500	0.805	0.142	1.943	3.203	2.295	1.142	1.827	0.371	0.593	-0.383	421.875
-3.526	-0.402	0.262	1.747	4.087	3.710	4.706	4.379	4.917	3.872	3.158	0.842	3.813	3.587	-0.363	-2.170	-1.973	0.491	0.922	0.185	1.978	3.344	2.283	0.894	1.534	-0.167	0.325	-0.751	425.781
-3.550	-0.209	0.305	1.994	4.269	3.810	4.619	4.229	4.594	3.677	2.722	0.365	3.806	3.716	-0.354	-1.967	-1.792	0.512	1.117	0.336	2.111	3.531	2.327	0.683	1.253	-0.645	0.071	-1.170	429.688
-3.599	0.027	0.362	2.310	4.478	3.934	4.560	4.021	4.215	3.488	2.246	-0.143	3.834	3.894	-0.367	-1.704	-1.589	0.546	1.333	0.555	2.305	3.703	2.384	0.491	0.985	-1.045	-0.171	-1.588	433.594
-3.641	0.272	0.427	2.637	4.676	4.054	4.525	3.788	3.832	3.323	1.803	-0.605	3.874	4.080	-0.378	-1.416	-1.398	0.575	1.519	0.800	2.516	3.809	2.407	0.294	0.722	-1.368	-0.409	-1.958	437.500
-3.645	0.494	0.494	2.919	4.826	4.144	4.508	3.557	3.490	3.193	1.449	-0.961	3.900	4.238	-0.365	-1.133	-1.242	0.588	1.641	1.031	2.705	3.821	2.368	0.069	0.454	-1.630	-0.652	-2.242	441.406
-3.596	0.670	0.552	3.112	4.901	4.180	4.492	3.347	3.213	3.099	1.217	-1.173	3.895	4.344	-0.308	-0.879	-1.130	0.584	1.686	1.218	2.841	3.740	2.257	-0.193	0.182	-1.843	-0.900	-2.423	445.312
-3.494	0.784	0.590	3.194	4.891	4.150	4.463	3.165	3.006	3.033	1.110	-1.238	3.853	4.388	-0.200	-0.673	-1.060	0.570	1.663	1.340	2.910	3.593	2.094	-0.479	-0.079	-2.011	-1.141	-2.495	449.219
-3.360	0.832	0.596	3.161	4.795	4.051	4.404	3.012	2.859	2.983	1.102	-1.176	3.775	4.375	-0.047	-0.529	-1.020	0.561	1.598	1.386	2.910	3.424	1.916	-0.764	-0.295	-2.123	-1.354	-2.468	453.125
-3.222	0.815	0.561	3.028	4.630	3.888	4.308	2.881	2.754	2.933	1.159	-1.027	3.671	4.317	0.135	-0.456	-1.004	0.568	1.517	1.355	2.844	3.280	1.767	-1.009	-0.421	-2.157	-1.512	-2.359	457.031
-3.115	0.740	0.481	2.823	4.417	3.679	4.173	2.773	2.676	2.872	1.242	-0.831	3.550	4.229	0.320	-0.461	-1.007	0.599	1.442	1.247	2.723	3.198	1.684	-1.181	-0.415	-2.093	-1.591	-2.190	460.938
-3.059	0.612	0.357	2.576	4.181	3.443	4.006	2.690	2.619	2.794	1.325	-0.626	3.422	4.118	0.485	-0.547	-1.034	0.652	1.381	1.067	2.552	3.192	1.685	-1.259	-0.250	-1.920	-1.581	-1.980	464.844
-3.061	0.441	0.198	2.312	3.941	3.201	3.818	2.640	2.586	2.700	1.397	-0.433	3.286	3.986	0.613	-0.711	-1.091	0.715	1.327	0.824	2.337	3.248	1.761	-1.246	0.065	-1.647	-1.487	-1.750	468.750
-3.105	0.234	0.021	2.051	3.714	2.970	3.620	2.629	2.581	2.590	1.456	-0.262	3.139	3.828	0.699	-0.942	-1.187	0.771	1.261	0.529	2.084	3.337	1.880	-1.169	0.490	-1.309	-1.331	-1.517	472.656
-3.162	0.006	-0.154	1.808	3.507	2.760	3.420	2.654	2.607	2.467	1.504	-0.114	2.972	3.639	0.750	-1.219	-1.322	0.803	1.168	0.203	1.803	3.419	1.999	-1.069	0.953	-0.955	-1.147	-1.298	476.562
-3.195	-0.223	-0.309	1.593	3.328	2.578	3.220	2.703	2.655	2.328	1.539	0.008	2.777	3.417	0.777	-1.513	-1.487	0.798	1.039	-0.130	1.509	3.461	2.073	-0.995	1.375	-0.643	-0.971	-1.112	480.469
-3.174	-0.430	-0.425	1.414	3.181	2.426	3.018	2.753	2.706	2.166	1.550	0.096	2.549	3.166	0.795	-1.789	-1.664	0.750	0.877	-0.439	1.225	3.446	2.074	-0.988	1.680	-0.424	-0.837	-0.975	484.375
-3.083	-0.594	-0.493	1.281	3.074	2.304	2.810	2.777	2.733	1.974	1.515	0.137	2.290	2.901	0.814	-2.012	-1.825	0.665	0.700	-0.692	0.979	3.374	1.994	-1.071	1.824	-0.328	-0.766	-0.903	488.281
-2.921	-0.694	-0.512	1.201	3.013	2.213	2.594	2.751	2.709	1.743	1.411	0.110	2.010	2.643	0.842	-2.152	-1.943	0.557	0.536	-0.861	0.798	3.263	1.845	-1.249	1.794	-0.362	-0.764	-0.907	492.188
-2.710	-0.721	-0.489	1.181	3.004	2.151	2.370	2.659	2.616	1.473	1.221	-0.001	1.725	2.416	0.879	-2.192	-1.996	0.447	0.412	-0.928	0.702	3.138	1.658	-1.506	1.616	-0.503	-0.825	-0.989	496.094
-2.481	-0.677	-0.437	1.218	3.049	2.117	2.143	2.502	2.449	1.172	0.942	-0.201	1.452	2.238	0.924	-2.132	-1.972	0.353	0.349	-0.891	0.698	3.027	1.467	-1.812	1.344	-0.711	-0.931	-1.142	500.000
-2.270	-0.577	-0.377	1.304	3.141	2.106	1.924	2.296	2.221	0.855	0.590	-0.480	1.208	2.118	0.975	-1.987	-1.875	0.293	0.353	-0.764	0.776	2.950	1.306	-2.130	1.044	-0.936	-1.060	-1.346	503.906
-2.108	-0.444	-0.324	1.422	3.264	2.113	1.724	2.071	1.961	0.546	0.201	-0.812	1.001	2.053	1.032	-1.788	-1.722	0.272	0.418	-0.577	0.910	2.916	1.197	-2.429	0.778	-1.136	-1.192	-1.574	507.812
-2.015	-0.307	-0.291	1.553	3.397	2.131	1.555	1.866	1.708	0.273	-0.172	-1.156	0.833	2.029	1.092	-1.573	-1.544	0.289	0.519	-0.369	1.063	2.919	1.143	-2.686	0.590	-1.280	-1.311	-1.796	511.719
-1.994	-0.190	-0.282	1.677	3.517	2.156	1.426	1.721	1.504	0.060	-0.474	-1.462	0.699	2.019	1.156	-1.380	-1.371	0.331	0.628	-0.183	1.193	2.943	1.131	-2.893	0.490	-1.363	-1.409	-1.983	515.625
-2.031	-0.106	-0.292	1.780	3.609	2.186	1.345	1.668	1.385	-0.070	-0.653	-1.685	0.587	1.998	1.223	-1.240	-1.232	0.382	0.713	-0.052	1.265	2.967	1.139	-3.056	0.463	-1.399	-1.485	-2.113	519.531
-2.106	-0.055	-0.307	1.861	3.663	2.223	1.310	1.720	1.371	-0.110	-0.678	-1.795	0.486	1.942	1.294	-1.170	-1.148	0.422	0.752	0.003	1.259	2.972	1.137	-3.189	0.467	-1.420	-1.543	-2.179	523.438
-2.195	-0.027	-0.312	1.925	3.682	2.272	1.315	1.872	1.461	-0.062	-0.547	-1.777	0.385	1.840	1.369	-1.167	-1.122	0.441	0.736	-0.020	1.173	2.945	1.105	-3.304	0.455	-1.465	-1.583	-2.184	527.344
-2.282	-0.001	-0.295	1.986	3.676	2.335	1.349	2.094	1.634	0.057	-0.288	-1.647	0.280	1.689	1.447	-1.219	-1.145	0.434	0.673	-0.106	1.023	2.885	1.034	-3.408	0.389	-1.564	-1.605	-2.144	531.250
-2.356	0.042	-0.253	2.058	3.655	2.411	1.395	2.338	1.846	0.217	0.043	-1.438	0.173	1.501	1.528	-1.297	-1.193	0.411	0.585	-0.227	0.841	2.804	0.933	-3.500	0.251	-1.734	-1.604	-2.080	535.156
-2.418	0.118	-0.191	2.147	3.631	2.490	1.432	2.550	2.044	0.383	0.374	-1.200	0.067	1.299	1.609	-1.370	-1.232	0.386	0.504	-0.350	0.663	2.721	0.825	-3.573	0.050	-1.971	-1.571	-2.019	539.062
-2.470	0.229	-0.124	2.248	3.607	2.555	1.442	2.675	2.175	0.517	0.628	-0.990	-0.027	1.108	1.687	-1.409	-1.230	0.380	0.462	-0.445	0.524	2.659	0.738	-3.614	-0.182	-2.251	-1.497	-1.981	542.969
-2.519	0.364	-0.071	2.348	3.579	2.586	1.410	2.674	2.194	0.589	0.746	-0.854	-0.103	0.953	1.762	-1.392	-1.161	0.410	0.482	-0.490	0.449	2.631	0.699	-3.614	-0.401	-2.536	-1.379	-1.980	546.875
-2.568	0.505	-0.052	2.424	3.540	2.565	1.328	2.530	2.077	0.581	0.690	-0.826	-0.152	0.852	1.832	-1.312	-1.012	0.487	0.576	-0.474	0.449	2.643	0.724	-3.566	-0.558	-2.782	-1.219	-2.020	550.781
-2.618	0.629	-0.080	2.460	3.482	2.482	1.199	2.249	1.826	0.488	0.458	-0.917	-0.174	0.817	1.895	-1.171	-0.787	0.612	0.736	-0.403	0.519	2.692	0.818	-3.472	-0.616	-2.950	-1.028	-2.099	554.688
-2.669	0.719	-0.156	2.447	3.401	2.340	1.031	1.867	1.466	0.321	0.075	-1.117	-0.169	0.844	1.947	-0.985	-0.505	0.775	0.942	-0.287	0.641	2.763	0.969	-3.336	-0.558	-3.015	-0.823	-2.208	558.594
-2.714	0.770	-0.270	2.389	3.302	2.156	0.843	1.433	1.043	0.101	-0.408	-1.398	-0.145	0.924	1.984	-0.775	-0.197	0.956	1.167	-0.146	0.791	2.840	1.157	-3.172	-0.392	-2.976	-0.628	-2.336	562.500
-2.745	0.787	-0.397	2.305	3.196	1.959	0.655	1.010	0.615	-0.141	-0.927	-1.723	-0.114	1.034	2.000	-0.563	0.103	1.129	1.380	-0.001	0.939	2.905	1.350	-2.997	-0.153	-2.855	-0.464	-2.474	566.406
-2.753	0.789	-0.511	2.223	3.099	1.782	0.487	0.654	0.240	-0.376	-1.414	-2.048	-0.089	1.153	1.990	-0.370	0.364	1.269	1.555	0.131	1.060	2.946	1.517	-2.834	0.107	-2.692	-0.352	-2.615	570.312
-2.730	0.796	-0.583	2.173	3.032	1.658	0.356	0.412	-0.036	-0.578	-1.817	-2.339	-0.085	1.253	1.954	-0.207	0.564	1.355	1.672	0.234	1.136	2.953	1.631	-2.703	0.330	-2.538	-0.303	-2.756	574.219
-2.672	0.823	-0.596	2.176	3.007	1.609	0.268	0.308	-0.184	-0.731	-2.099	-2.569	-0.115	1.316	1.895	-0.082	0.695	1.379	1.727	0.302	1.157	2.926	1.676	-2.624	0.471	-2.441	-0.322	-2.895	578.125
-2.581	0.879	-0.546	2.238	3.032	1.640	0.221	0.342	-0.201	-0.832	-2.252	-2.725	-0.187	1.326	1.822	0.008	0.761	1.340	1.722	0.333	1.123	2.870	1.648	-2.606	0.504	-2.435	-0.402	-3.032	582.031
-2.461	0.960	-0.442	2.350	3.100	1.737	0.205	0.491	-0.110	-0.892	-2.288	-2.809	-0.305	1.277	1.749	0.068	0.775	1.252	1.671	0.331	1.039	2.792	1.555	-2.651	0.427	-2.536	-0.532	-3.164	585.938
-2.319	1.059	-0.306	2.492	3.191	1.873	0.199	0.713	0.049	-0.932	-2.242	-2.834	-0.468	1.171	1.692	0.112	0.760	1.135	1.589	0.303	0.917	2.702	1.414	-2.756	0.258	-2.738	-0.699	-3.289	589.844
-2.162	1.165	-0.162	2.634	3.281	2.011	0.181	0.956	0.222	-0.981	-2.156	-2.823	-0.667	1.017	1.672	0.154	0.744	1.013	1.499	0.265	0.773	2.608	1.245	-2.908	0.023	-3.022	-0.891	-3.405	593.750
-1.995	1.274	-0.034	2.752	3.342	2.115	0.130	1.165	0.355	-1.064	-2.080	-2.800	-0.891	0.832	1.706	0.210	0.755	0.909	1.418	0.232	0.626	2.516	1.065	-3.096	-0.250	-3.361	-1.103	-3.512	597.656
-1.823	1.381	0.061	2.831	3.358	2.159	0.032	1.294	0.398	-1.203	-2.054	-2.788	-1.124	0.636	1.809	0.296	0.814	0.842	1.364	0.222	0.494	2.430	0.892	-3.304	-0.541	-3.727	-1.333	-3.612	601.562
-1.651	1.487	0.115	2.867	3.323	2.130	-0.117	1.311	0.321	-1.403	-2.104	-2.806	-1.345	0.455	1.984	0.422	0.934	0.825	1.348	0.250	0.397	2.351	0.735	-3.518	-0.838	-4.095	-1.580	-3.709	605.469
-1.487	1.595	0.128	2.867	3.247	2.035	-0.307	1.203	0.113	-1.654	-2.237	-2.861	-1.533	0.313	2.227	0.592	1.115	0.861	1.376	0.328	0.350	2.283	0.602	-3.725	-1.137	-4.450	-1.838	-3.807	609.375
-1.340	1.705	0.109	2.846	3.151	1.895	-0.515	0.980	-0.209	-1.931	-2.439	-2.948	-1.669	0.230	2.518	0.799	1.344	0.945	1.448	0.460	0.364	2.231	0.498	-3.913	-1.441	-4.780	-2.097	-3.906	613.281
-1.219	1.812	0.071	2.821	3.061	1.737	-0.711	0.669	-0.603	-2.195	-2.679	-3.050	-1.736	0.219	2.828	1.032	1.598	1.064	1.559	0.642	0.444	2.204	0.428	-4.072	-1.746	-5.079	-2.335	-4.001	617.188
-1.131	1.908	0.027	2.800	2.998	1.592	-0.863	0.315	-1.012	-2.403	-2.914	-3.143	-1.724	0.284	3.126	1.268	1.846	1.204	1.701	0.860	0.581	2.209	0.395	-4.192	-2.046	-5.337	-2.525	-4.081	621.094
-1.082	1.979	-0.012	2.785	2.972	1.481	-0.944	-0.034	-1.371	-2.515	-3.096	-3.196	-1.631	0.415	3.377	1.481	2.055	1.346	1.858	1.092	0.760	2.253	0.401	-4.265	-2.324	-5.544	-2.636	-4.127	625.000
-1.072	2.011	-0.041	2.767	2.982	1.417	-0.934	-0.330	-1.620	-2.503	-3.187	-3.183	-1.467	0.595	3.554	1.646	2.193	1.472	2.012	1.310	0.955	2.334	0.444	-4.289	-2.556	-5.683	-2.644	-4.120	628.906
-1.096	1.994	-0.057	2.734	3.017	1.401	-0.831	-0.534	-1.715	-2.361	-3.160	-3.086	-1.247	0.797	3.638	1.742	2.234	1.566	2.138	1.485	1.139	2.441	0.515	-4.262	-2.715	-5.739	-2.535	-4.046	632.812
-1.145	1.926	-0.058	2.675	3.060	1.426	-0.646	-0.624	-1.640	-2.100	-3.008	-2.901	-0.995	0.994	3.626	1.754	2.167	1.617	2.217	1.594	1.286	2.560	0.604	-4.191	-2.784	-5.698	-2.316	-3.897	636.719
-1.208	1.814	-0.046	2.589	3.097	1.480	-0.403	-0.598	-1.409	-1.752	-2.749	-2.643	-0.739	1.162	3.525	1.682	1.996	1.617	2.235	1.625	1.379	2.671	0.695	-4.085	-2.759	-5.560	-2.011	-3.682	640.625
-1.276	1.677	-0.023	2.485	3.123	1.555	-0.132	-0.470	-1.061	-1.363	-2.418	-2.340	-0.504	1.284	3.358	1.539	1.741	1.570	2.192	1.579	1.412	2.759	0.773	-3.961	-2.660	-5.340	-1.664	-3.424	644.531
-1.341	1.537	0.011	2.385	3.142	1.645	0.132	-0.268	-0.655	-0.982	-2.061	-2.034	-0.312	1.357	3.153	1.348	1.439	1.483	2.096	1.471	1.394	2.816	0.824	-3.837	-2.522	-5.071	-1.328	-3.159	648.438
-1.395	1.418	0.057	2.317	3.164	1.746	0.362	-0.032	-0.259	-0.655	-1.729	-1.766	-0.173	1.385	2.944	1.139	1.131	1.370	1.967	1.328	1.341	2.837	0.840	-3.731	-2.396	-4.798	-1.056	-2.929	652.344
-1.433	1.339	0.115	2.304	3.202	1.856	0.538	0.200	0.069	-0.416	-1.467	-1.573	-0.090	1.382	2.762	0.947	0.857	1.246	1.830	1.182	1.281	2.829	0.816	-3.658	-2.329	-4.569	-0.887	-2.774	656.250
-1.453	1.311	0.183	2.360	3.262	1.973	0.651	0.395	0.283	-0.281	-1.304	-1.478	-0.054	1.369	2.628	0.799	0.651	1.127	1.711	1.066	1.238	2.804	0.760	-3.627	-2.357	-4.426	-0.845	-2.724	660.156
-1.453	1.333	0.256	2.482	3.341	2.089	0.704	0.532	0.367	-0.249	-1.253	-1.488	-0.049	1.363	2.549	0.714	0.531	1.026	1.633	1.002	1.230	2.782	0.683	-3.640	-2.491	-4.395	-0.930	-2.791	664.062
-1.436	1.393	0.328	2.649	3.425	2.194	0.708	0.605	0.328	-0.299	-1.303	-1.590	-0.055	1.378	2.519	0.696	0.500	0.952	1.612	1.000	1.268	2.782	0.606	-3.688	-2.714	-4.476	-1.120	-2.968	667.969
-1.410	1.471	0.389	2.830	3.494	2.276	0.682	0.624	0.196	-0.402	-1.428	-1.758	-0.054	1.422	2.517	0.735	0.542	0.905	1.649	1.057	1.347	2.821	0.547	-3.760	-2.987	-4.644	-1.377	-3.229	671.875
-1.380	1.545	0.432	2.991	3.526	2.325	0.644	0.608	0.018	-0.523	-1.591	-1.956	-0.031	1.492	2.516	0.809	0.630	0.881	1.735	1.153	1.452	2.902	0.522	-3.838	-3.255	-4.854	-1.654	-3.532	675.781
-1.354	1.593	0.452	3.100	3.504	2.334	0.613	0.581	-0.156	-0.629	-1.750	-2.145	0.018	1.580	2.492	0.890	0.728	0.870	1.846	1.264	1.563	3.017	0.535	-3.907	-3.462	-5.047	-1.903	-3.829	679.688
-1.333	1.603	0.448	3.136	3.417	2.298	0.597	0.564	-0.282	-0.696	-1.867	-2.291	0.089	1.672	2.424	0.954	0.802	0.859	1.953	1.362	1.657	3.143	0.580	-3.954	-3.562	-5.166	-2.085	-4.072	683.594
-1.313	1.568	0.423	3.091	3.262	2.221	0.599	0.570	-0.334	-0.713	-1.916	-2.374	0.171	1.751	2.309	0.984	0.829	0.839	2.029	1.426	1.718	3.251	0.643	-3.974	-3.533	-5.168	-2.177	-4.226	687.500
-1.289	1.495	0.385	2.974	3.050	2.108	0.614	0.602	-0.304	-0.680	-1.889	-2.384	0.248	1.804	2.159	0.976	0.805	0.808	2.054	1.448	1.738	3.312	0.705	-3.968	-3.381	-5.033	-2.174	-4.270	691.406
-1.252	1.398	0.341	2.806	2.801	1.970	0.633	0.647	-0.209	-0.610	-1.792	-2.329	0.301	1.820	2.001	0.941	0.741	0.769	2.025	1.429	1.718	3.305	0.747	-3.944	-3.140	-4.771	-2.090	-4.203	695.312
-1.197	1.294	0.300	2.617	2.544	1.819	0.644	0.687	-0.076	-0.520	-1.648	-2.227	0.317	1.798	1.869	0.901	0.664	0.732	1.951	1.385	1.670	3.227	0.756	-3.913	-2.863	-4.424	-1.952	-4.047	699.219
-1.124	1.204	0.266	2.440	2.308	1.672	0.639	0.701	0.054	-0.430	-1.488	-2.103	0.290	1.743	1.796	0.882	0.608	0.712	1.856	1.338	1.614	3.090	0.730	-3.884	-2.613	-4.051	-1.796	-3.836	703.125
-1.037	1.144	0.244	2.306	2.124	1.543	0.613	0.669	0.148	-0.356	-1.344	-1.986	0.223	1.668	1.804	0.909	0.604	0.721	1.771	1.314	1.571	2.921	0.678	-3.866	-2.441	-3.721	-1.657	-3.613	707.031
-0.946	1.127	0.235	2.237	2.014	1.444	0.566	0.579	0.177	-0.307	-1.244	-1.899	0.128	1.592	1.899	1.001	0.671	0.770	1.726	1.336	1.563	2.755	0.614	-3.863	-2.386	-3.499	-1.562	-3.420	710.938
-0.861	1.161	0.242	2.246	1.990	1.387	0.503	0.430	0.130	-0.288	-1.203	-1.858	0.026	1.537	2.070	1.167	0.817	0.858	1.746	1.423	1.610	2.629	0.556	-3.875	-2.462	-3.436	-1.527	-3.293	714.844
-0.791	1.251	0.265	2.334	2.054	1.378	0.435	0.233	0.011	-0.297	-1.227	-1.873	-0.059	1.524	2.293	1.405	1.035	0.981	1.843	1.584	1.721	2.570	0.522	-3.900	-2.665	-3.560	-1.556	-3.258	718.750
-0.739	1.398	0.309	2.497	2.200	1.419	0.371	0.006	-0.165	-0.328	-1.310	-1.945	-0.109	1.566	2.537	1.702	1.306	1.128	2.017	1.819	1.903	2.591	0.521	-3.936	-2.971	-3.875	-1.640	-3.326	722.656
-0.707	1.598	0.373	2.715	2.409	1.506	0.319	-0.230	-0.373	-0.377	-1.436	-2.067	-0.109	1.668	2.769	2.039	1.605	1.282	2.254	2.118	2.146	2.693	0.557	-3.980	-3.345	-4.359	-1.767	-3.496	726.562
-0.692	1.837	0.455	2.963	2.656	1.626	0.284	-0.451	-0.587	-0.438	-1.588	-2.230	-0.057	1.824	2.965	2.388	1.906	1.429	2.532	2.457	2.435	2.861	0.625	-4.028	-3.743	-4.966	-1.916	-3.757	730.469
-0.689	2.091	0.543	3.208	2.908	1.762	0.265	-0.639	-0.784	-0.509	-1.747	-2.421	0.038	2.015	3.111	2.718	2.182	1.557	2.820	2.807	2.741	3.071	0.718	-4.073	-4.117	-5.633	-2.068	-4.082	734.375
-0.696	2.329	0.624	3.417	3.135	1.891	0.259	-0.780	-0.945	-0.587	-1.896	-2.624	0.159	2.216	3.202	3.001	2.410	1.657	3.087	3.130	3.031	3.290	0.821	-4.107	-4.424	-6.285	-2.206	-4.438	738.281
-0.711	2.517	0.684	3.559	3.307	1.991	0.259	-0.868	-1.059	-0.667	-2.021	-2.819	0.283	2.395	3.246	3.211	2.574	1.726	3.300	3.392	3.271	3.485	0.922	-4.121	-4.628	-6.851	-2.314	-4.784	742.188
-0.729	2.628	0.710	3.617	3.403	2.046	0.265	-0.897	-1.116	-0.741	-2.110	-2.986	0.390	2.526	3.253	3.329	2.662	1.763	3.434	3.563	3.429	3.622	1.003	-4.108	-4.711	-7.269	-2.383	-5.079	746.094
-0.749	2.644	0.698	3.585	3.413	2.048	0.274	-0.870	-1.113	-0.799	-2.153	-3.104	0.464	2.586	3.237	3.346	2.670	1.767	3.471	3.626	3.484	3.676	1.053	-4.061	-4.668	-7.497	-2.404	-5.287	750.000
-0.765	2.564	0.650	3.470	3.336	2.000	0.291	-0.788	-1.050	-0.826	-2.144	-3.154	0.499	2.568	3.205	3.267	2.597	1.741	3.407	3.576	3.427	3.638	1.062	-3.977	-4.513	-7.519	-2.377	-5.379	753.906
-0.775	2.397	0.577	3.287	3.180	1.909	0.320	-0.660	-0.930	-0.812	-2.078	-3.122	0.497	2.474	3.160	3.101	2.449	1.685	3.248	3.422	3.267	3.512	1.029	-3.857	-4.271	-7.345	-2.301	-5.345	757.812
-0.777	2.166	0.489	3.057	2.961	1.788	0.364	-0.497	-0.761	-0.748	-1.957	-3.007	0.472	2.322	3.102	2.869	2.235	1.605	3.012	3.187	3.024	3.316	0.962	-3.708	-3.972	-7.008	-2.180	-5.188	761.719
-0.774	1.895	0.397	2.800	2.693	1.649	0.426	-0.312	-0.557	-0.632	-1.786	-2.815	0.440	2.138	3.029	2.594	1.967	1.506	2.729	2.899	2.731	3.083	0.875	-3.533	-3.642	-6.561	-2.016	-4.929	765.625
-0.774	1.611	0.305	2.527	2.391	1.496	0.503	-0.123	-0.334	-0.473	-1.573	-2.563	0.422	1.954	2.940	2.301	1.662	1.399	2.430	2.592	2.427	2.851	0.792	-3.339	-3.297	-6.062	-1.815	-4.601	769.531
-0.790	1.332	0.209	2.243	2.064	1.329	0.587	0.049	-0.113	-0.286	-1.331	-2.276	0.438	1.801	2.839	2.009	1.337	1.299	2.148	2.293	2.147	2.661	0.738	-3.130	-2.936	-5.570	-1.579	-4.239	773.438
-0.835	1.069	0.099	1.943	1.712	1.140	0.665	0.188	0.086	-0.091	-1.074	-1.980	0.498	1.704	2.733	1.733	1.007	1.219	1.912	2.022	1.921	2.548	0.742	-2.906	-2.547	-5.129	-1.313	-3.880	777.344
-0.923	0.825	-0.039	1.616	1.333	0.917	0.726	0.277	0.245	0.092	-0.815	-1.700	0.610	1.680	2.630	1.481	0.686	1.174	1.741	1.792	1.769	2.535	0.824	-2.665	-2.111	-4.770	-1.019	-3.549	781.250
-1.063	0.600	-0.215	1.253	0.923	0.650	0.758	0.310	0.352	0.245	-0.567	-1.452	0.771	1.732	2.540	1.252	0.383	1.173	1.643	1.603	1.694	2.632	0.995	-2.408	-1.612	-4.501	-0.701	-3.261	785.156
-1.254	0.386	-0.435	0.848	0.480	0.334	0.757	0.286	0.408	0.360	-0.334	-1.244	0.973	1.851	2.469	1.042	0.101	1.217	1.613	1.447	1.687	2.831	1.253	-2.133	-1.039	-4.314	-0.363	-3.018	789.062
-1.489	0.178	-0.694	0.404	0.007	-0.024	0.726	0.218	0.421	0.442	-0.116	-1.070	1.203	2.017	2.416	0.843	-0.165	1.298	1.634	1.313	1.730	3.108	1.578	-1.842	-0.400	-4.183	-0.008	-2.813	792.969
-1.749	-0.033	-0.978	-0.065	-0.486	-0.409	0.677	0.127	0.412	0.502	0.093	-0.918	1.447	2.208	2.375	0.647	-0.422	1.401	1.680	1.187	1.796	3.424	1.942	-1.541	0.282	-4.080	0.355	-2.628	796.875
