FP1	F3	F7	FC3	C3	C5	P3	P7	PO7	PO3	O1	Oz	Pz	CPz	FP2	Fz	F4	F8	FC4	FCz	Cz	C4	C6	P4	P8	PO8	PO4	O2	time
0.167	0.509	-0.336	-0.334	0.917	1.151	0.668	0.234	-0.446	0.243	-0.492	-0.147	1.077	1.331	-1.217	0.494	0.431	0.029	0.460	1.047	0.910	0.724	0.881	0.679	-0.316	-0.369	0.606	-0.447	-199.219
-0.339	0.302	-0.473	-0.570	0.620	0.837	0.741	0.438	0.096	0.638	0.038	0.229	1.058	1.228	-1.136	0.396	0.399	-0.283	0.426	0.760	0.649	0.608	0.635	0.672	-0.306	-0.038	0.794	-0.108	-195.312
-0.776	0.119	-0.590	-0.750	0.363	0.548	0.824	0.624	0.596	1.003	0.520	0.584	1.046	1.135	-1.069	0.309	0.363	-0.583	0.380	0.499	0.413	0.514	0.405	0.663	-0.308	0.247	0.952	0.191	-191.406
-1.095	-0.018	-0.671	-0.835	0.174	0.309	0.927	0.774	1.013	1.309	0.912	0.895	1.049	1.069	-1.024	0.242	0.320	-0.859	0.312	0.288	0.229	0.459	0.203	0.651	-0.332	0.444	1.055	0.415	-187.500
-1.272	-0.098	-0.705	-0.801	0.074	0.140	1.053	0.878	1.317	1.535	1.180	1.139	1.070	1.038	-1.001	0.198	0.269	-1.097	0.223	0.138	0.114	0.454	0.037	0.636	-0.379	0.528	1.081	0.533	-183.594
-1.313	-0.117	-0.689	-0.650	0.069	0.055	1.198	0.935	1.489	1.667	1.309	1.299	1.107	1.041	-0.992	0.175	0.213	-1.284	0.118	0.051	0.070	0.498	-0.084	0.619	-0.446	0.492	1.023	0.530	-179.688
-1.244	-0.083	-0.626	-0.408	0.149	0.056	1.352	0.950	1.526	1.700	1.297	1.361	1.152	1.074	-0.983	0.167	0.158	-1.408	0.015	0.016	0.091	0.585	-0.153	0.600	-0.519	0.347	0.882	0.405	-175.781
-1.108	-0.011	-0.524	-0.117	0.287	0.136	1.497	0.932	1.436	1.637	1.161	1.318	1.196	1.125	-0.961	0.164	0.112	-1.461	-0.066	0.018	0.164	0.700	-0.168	0.581	-0.584	0.122	0.673	0.174	-171.875
-0.949	0.077	-0.392	0.171	0.449	0.277	1.613	0.892	1.234	1.489	0.922	1.173	1.230	1.185	-0.917	0.156	0.080	-1.435	-0.106	0.038	0.272	0.824	-0.132	0.563	-0.624	-0.145	0.419	-0.136	-167.969
-0.804	0.161	-0.242	0.408	0.595	0.454	1.678	0.837	0.941	1.270	0.612	0.937	1.247	1.247	-0.847	0.138	0.068	-1.331	-0.090	0.061	0.405	0.939	-0.054	0.548	-0.627	-0.415	0.150	-0.489	-164.062
-0.694	0.225	-0.084	0.558	0.690	0.636	1.675	0.772	0.581	0.998	0.259	0.629	1.242	1.303	-0.752	0.110	0.080	-1.153	-0.012	0.079	0.550	1.029	0.053	0.534	-0.586	-0.655	-0.102	-0.847	-160.156
-0.623	0.262	0.076	0.606	0.710	0.792	1.588	0.695	0.180	0.688	-0.110	0.275	1.211	1.349	-0.636	0.078	0.115	-0.913	0.123	0.090	0.700	1.081	0.169	0.517	-0.503	-0.843	-0.314	-1.171	-156.250
-0.580	0.271	0.232	0.557	0.650	0.894	1.413	0.604	-0.235	0.356	-0.470	-0.094	1.150	1.373	-0.505	0.048	0.170	-0.631	0.300	0.096	0.843	1.087	0.274	0.489	-0.384	-0.967	-0.467	-1.430	-152.344
-0.545	0.259	0.382	0.435	0.519	0.928	1.152	0.499	-0.636	0.015	-0.800	-0.445	1.054	1.365	-0.363	0.029	0.236	-0.331	0.498	0.102	0.964	1.041	0.354	0.443	-0.242	-1.027	-0.556	-1.600	-148.438
-0.499	0.231	0.524	0.272	0.339	0.889	0.820	0.381	-0.994	-0.324	-1.083	-0.746	0.919	1.310	-0.214	0.022	0.305	-0.040	0.694	0.107	1.048	0.945	0.399	0.373	-0.091	-1.027	-0.580	-1.665	-144.531
-0.430	0.193	0.656	0.104	0.140	0.787	0.442	0.256	-1.282	-0.648	-1.304	-0.970	0.744	1.198	-0.064	0.025	0.364	0.216	0.865	0.110	1.077	0.803	0.409	0.279	0.055	-0.977	-0.547	-1.621	-140.625
-0.339	0.146	0.771	-0.038	-0.047	0.644	0.048	0.135	-1.476	-0.944	-1.452	-1.098	0.533	1.028	0.079	0.029	0.400	0.411	0.988	0.108	1.040	0.626	0.386	0.168	0.184	-0.884	-0.467	-1.471	-136.719
-0.237	0.085	0.858	-0.135	-0.198	0.486	-0.323	0.027	-1.562	-1.196	-1.517	-1.121	0.301	0.807	0.203	0.022	0.402	0.528	1.050	0.095	0.938	0.427	0.333	0.051	0.286	-0.758	-0.349	-1.227	-132.812
-0.144	0.006	0.904	-0.183	-0.296	0.338	-0.638	-0.056	-1.531	-1.387	-1.493	-1.040	0.067	0.556	0.296	-0.006	0.359	0.559	1.038	0.067	0.784	0.222	0.251	-0.057	0.352	-0.609	-0.202	-0.910	-128.906
-0.083	-0.094	0.895	-0.185	-0.338	0.219	-0.867	-0.107	-1.384	-1.502	-1.377	-0.865	-0.142	0.306	0.349	-0.061	0.268	0.505	0.951	0.027	0.603	0.026	0.139	-0.141	0.375	-0.449	-0.034	-0.546	-125.000
-0.071	-0.211	0.822	-0.154	-0.330	0.138	-0.996	-0.124	-1.133	-1.526	-1.171	-0.618	-0.300	0.088	0.357	-0.143	0.132	0.376	0.792	-0.018	0.426	-0.149	-0.007	-0.192	0.348	-0.294	0.146	-0.165	-121.094
-0.117	-0.335	0.685	-0.102	-0.283	0.096	-1.022	-0.110	-0.796	-1.452	-0.883	-0.323	-0.389	-0.072	0.323	-0.244	-0.040	0.196	0.574	-0.057	0.283	-0.293	-0.188	-0.209	0.265	-0.162	0.323	0.199	-117.188
-0.218	-0.448	0.493	-0.041	-0.213	0.086	-0.956	-0.072	-0.397	-1.284	-0.525	-0.008	-0.403	-0.160	0.255	-0.351	-0.231	-0.010	0.316	-0.079	0.197	-0.402	-0.400	-0.201	0.121	-0.072	0.481	0.518	-113.281
-0.358	-0.532	0.267	0.021	-0.134	0.091	-0.821	-0.022	0.033	-1.030	-0.112	0.299	-0.348	-0.179	0.165	-0.446	-0.420	-0.210	0.040	-0.072	0.178	-0.474	-0.631	-0.179	-0.081	-0.036	0.602	0.770	-109.375
-0.512	-0.570	0.037	0.078	-0.062	0.093	-0.646	0.028	0.464	-0.711	0.333	0.580	-0.244	-0.147	0.068	-0.518	-0.586	-0.375	-0.231	-0.034	0.217	-0.515	-0.862	-0.163	-0.332	-0.059	0.668	0.942	-105.469
-0.648	-0.558	-0.168	0.125	-0.009	0.073	-0.460	0.066	0.863	-0.351	0.790	0.822	-0.117	-0.093	-0.025	-0.560	-0.711	-0.486	-0.477	0.031	0.293	-0.528	-1.067	-0.165	-0.610	-0.137	0.665	1.036	-101.562
-0.737	-0.503	-0.319	0.154	0.011	0.016	-0.291	0.081	1.205	0.025	1.235	1.020	0.003	-0.046	-0.108	-0.574	-0.787	-0.529	-0.687	0.106	0.375	-0.521	-1.216	-0.194	-0.886	-0.251	0.590	1.064	-97.656
-0.760	-0.425	-0.404	0.154	-0.009	-0.088	-0.155	0.072	1.467	0.388	1.643	1.179	0.093	-0.033	-0.174	-0.571	-0.815	-0.504	-0.852	0.169	0.430	-0.505	-1.281	-0.251	-1.123	-0.373	0.450	1.048	-93.750
-0.704	-0.351	-0.419	0.113	-0.076	-0.234	-0.059	0.037	1.639	0.717	1.995	1.305	0.139	-0.071	-0.222	-0.566	-0.807	-0.419	-0.975	0.196	0.430	-0.487	-1.243	-0.324	-1.284	-0.470	0.264	1.012	-89.844
-0.574	-0.310	-0.379	0.024	-0.185	-0.410	-0.003	-0.017	1.716	0.991	2.268	1.402	0.136	-0.161	-0.253	-0.575	-0.778	-0.291	-1.061	0.166	0.359	-0.478	-1.096	-0.398	-1.334	-0.513	0.059	0.974	-85.938
-0.387	-0.322	-0.308	-0.110	-0.324	-0.595	0.024	-0.085	1.700	1.195	2.444	1.471	0.091	-0.293	-0.266	-0.607	-0.747	-0.138	-1.115	0.073	0.215	-0.484	-0.851	-0.454	-1.253	-0.479	-0.133	0.944	-82.031
-0.170	-0.392	-0.231	-0.277	-0.474	-0.763	0.033	-0.161	1.598	1.319	2.504	1.502	0.018	-0.447	-0.261	-0.661	-0.725	0.019	-1.145	-0.079	0.014	-0.507	-0.534	-0.474	-1.034	-0.360	-0.283	0.920	-78.125
0.047	-0.506	-0.173	-0.452	-0.607	-0.890	0.035	-0.239	1.420	1.356	2.434	1.477	-0.071	-0.600	-0.238	-0.723	-0.715	0.163	-1.153	-0.265	-0.217	-0.545	-0.183	-0.449	-0.688	-0.164	-0.375	0.886	-74.219
0.237	-0.634	-0.148	-0.600	-0.696	-0.956	0.037	-0.318	1.174	1.303	2.224	1.376	-0.163	-0.733	-0.199	-0.771	-0.712	0.280	-1.137	-0.455	-0.443	-0.587	0.161	-0.379	-0.245	0.088	-0.405	0.821	-70.312
0.389	-0.735	-0.158	-0.690	-0.716	-0.955	0.038	-0.399	0.867	1.163	1.874	1.180	-0.254	-0.830	-0.144	-0.782	-0.702	0.367	-1.093	-0.610	-0.634	-0.622	0.459	-0.276	0.253	0.361	-0.385	0.702	-66.406
0.505	-0.770	-0.191	-0.693	-0.654	-0.888	0.031	-0.484	0.506	0.940	1.393	0.876	-0.344	-0.886	-0.070	-0.730	-0.664	0.425	-1.017	-0.699	-0.765	-0.637	0.682	-0.159	0.756	0.617	-0.337	0.513	-62.500
0.603	-0.712	-0.228	-0.600	-0.511	-0.770	0.003	-0.576	0.099	0.646	0.802	0.466	-0.439	-0.907	0.023	-0.605	-0.582	0.464	-0.903	-0.702	-0.824	-0.623	0.815	-0.051	1.211	0.822	-0.290	0.256	-58.594
0.709	-0.552	-0.247	-0.417	-0.304	-0.624	-0.062	-0.677	-0.342	0.291	0.135	-0.031	-0.549	-0.903	0.139	-0.406	-0.446	0.496	-0.750	-0.618	-0.815	-0.580	0.857	0.027	1.575	0.952	-0.268	-0.055	-54.688
0.847	-0.303	-0.230	-0.167	-0.064	-0.475	-0.175	-0.784	-0.798	-0.106	-0.563	-0.580	-0.680	-0.891	0.282	-0.148	-0.258	0.533	-0.561	-0.462	-0.754	-0.510	0.822	0.058	1.816	0.997	-0.287	-0.386	-50.781
1.029	0.002	-0.168	0.115	0.170	-0.345	-0.341	-0.890	-1.238	-0.522	-1.240	-1.132	-0.832	-0.884	0.450	0.141	-0.030	0.585	-0.347	-0.261	-0.662	-0.423	0.729	0.038	1.919	0.962	-0.347	-0.695	-46.875
1.250	0.320	-0.063	0.387	0.359	-0.248	-0.552	-0.983	-1.627	-0.929	-1.840	-1.633	-0.999	-0.894	0.637	0.427	0.213	0.656	-0.121	-0.050	-0.566	-0.331	0.601	-0.031	1.885	0.865	-0.437	-0.936	-42.969
1.487	0.606	0.071	0.614	0.472	-0.190	-0.791	-1.047	-1.923	-1.294	-2.308	-2.030	-1.168	-0.926	0.827	0.678	0.445	0.743	0.097	0.136	-0.490	-0.248	0.460	-0.135	1.726	0.731	-0.536	-1.069	-39.062
1.706	0.822	0.211	0.771	0.491	-0.164	-1.028	-1.067	-2.088	-1.582	-2.600	-2.281	-1.320	-0.979	1.002	0.866	0.636	0.838	0.289	0.270	-0.452	-0.184	0.324	-0.255	1.465	0.588	-0.621	-1.069	-35.156
1.867	0.949	0.333	0.847	0.419	-0.164	-1.230	-1.031	-2.094	-1.760	-2.687	-2.359	-1.433	-1.049	1.140	0.975	0.766	0.929	0.437	0.336	-0.466	-0.148	0.203	-0.372	1.132	0.459	-0.673	-0.930	-31.250
1.939	0.983	0.415	0.847	0.272	-0.182	-1.363	-0.935	-1.929	-1.802	-2.557	-2.259	-1.491	-1.130	1.221	1.002	0.822	1.003	0.529	0.330	-0.536	-0.147	0.103	-0.469	0.757	0.359	-0.681	-0.663	-27.344
1.908	0.942	0.442	0.791	0.078	-0.212	-1.401	-0.781	-1.601	-1.695	-2.218	-1.994	-1.484	-1.216	1.230	0.957	0.803	1.046	0.558	0.261	-0.662	-0.183	0.023	-0.536	0.368	0.294	-0.644	-0.299	-23.438
1.778	0.852	0.410	0.705	-0.126	-0.256	-1.333	-0.584	-1.135	-1.439	-1.697	-1.595	-1.412	-1.304	1.164	0.858	0.719	1.048	0.527	0.143	-0.834	-0.261	-0.046	-0.571	-0.009	0.259	-0.572	0.120	-19.531
1.574	0.746	0.324	0.619	-0.308	-0.318	-1.158	-0.361	-0.574	-1.051	-1.036	-1.103	-1.282	-1.392	1.028	0.726	0.585	1.002	0.445	-0.003	-1.039	-0.380	-0.118	-0.582	-0.354	0.243	-0.482	0.548	-15.625
1.330	0.652	0.199	0.556	-0.441	-0.405	-0.894	-0.134	0.034	-0.560	-0.286	-0.568	-1.112	-1.479	0.839	0.587	0.422	0.902	0.326	-0.156	-1.258	-0.534	-0.209	-0.581	-0.653	0.230	-0.394	0.939	-11.719
1.086	0.589	0.050	0.529	-0.514	-0.518	-0.571	0.079	0.636	-0.009	0.494	-0.036	-0.921	-1.562	0.622	0.461	0.252	0.754	0.188	-0.299	-1.468	-0.714	-0.333	-0.583	-0.895	0.208	-0.327	1.258	-7.812
0.875	0.563	-0.102	0.538	-0.530	-0.656	-0.224	0.265	1.186	0.555	1.248	0.451	-0.732	-1.641	0.404	0.361	0.092	0.566	0.054	-0.416	-1.646	-0.902	-0.497	-0.600	-1.074	0.168	-0.294	1.482	-3.906
0.721	0.571	-0.243	0.572	-0.504	-0.808	0.107	0.416	1.646	1.083	1.925	0.861	-0.565	-1.710	0.211	0.293	-0.042	0.358	-0.055	-0.499	-1.776	-1.079	-0.696	-0.643	-1.185	0.107	-0.305	1.605	0.000
0.633	0.600	-0.362	0.614	-0.461	-0.962	0.387	0.532	1.989	1.532	2.482	1.172	-0.438	-1.770	0.063	0.258	-0.141	0.156	-0.114	-0.546	-1.849	-1.224	-0.917	-0.714	-1.229	0.030	-0.363	1.632	3.906
0.608	0.636	-0.450	0.645	-0.425	-1.099	0.590	0.617	2.204	1.870	2.892	1.379	-0.360	-1.819	-0.027	0.249	-0.199	-0.011	-0.106	-0.560	-1.866	-1.321	-1.136	-0.809	-1.211	-0.055	-0.465	1.581	7.812
0.628	0.667	-0.504	0.651	-0.415	-1.201	0.702	0.676	2.293	2.082	3.146	1.486	-0.337	-1.858	-0.057	0.259	-0.216	-0.116	-0.018	-0.547	-1.837	-1.363	-1.330	-0.920	-1.140	-0.142	-0.607	1.474	11.719
0.672	0.684	-0.527	0.626	-0.439	-1.257	0.724	0.718	2.272	2.169	3.250	1.513	-0.363	-1.891	-0.034	0.277	-0.200	-0.145	0.153	-0.519	-1.781	-1.350	-1.476	-1.033	-1.031	-0.224	-0.777	1.337	15.625
0.713	0.680	-0.527	0.567	-0.496	-1.261	0.669	0.746	2.168	2.150	3.230	1.489	-0.426	-1.919	0.026	0.292	-0.163	-0.095	0.395	-0.490	-1.720	-1.294	-1.562	-1.131	-0.900	-0.292	-0.961	1.198	19.531
0.726	0.651	-0.515	0.478	-0.573	-1.218	0.560	0.764	2.012	2.057	3.119	1.449	-0.506	-1.941	0.104	0.291	-0.124	0.016	0.684	-0.472	-1.671	-1.209	-1.587	-1.194	-0.762	-0.341	-1.137	1.081	23.438
0.694	0.595	-0.505	0.363	-0.655	-1.142	0.426	0.773	1.837	1.924	2.956	1.423	-0.581	-1.958	0.177	0.265	-0.105	0.157	0.987	-0.478	-1.648	-1.117	-1.561	-1.205	-0.625	-0.359	-1.281	1.007	27.344
0.614	0.509	-0.509	0.227	-0.729	-1.053	0.294	0.772	1.674	1.787	2.776	1.433	-0.630	-1.965	0.226	0.206	-0.126	0.290	1.265	-0.515	-1.657	-1.034	-1.496	-1.150	-0.487	-0.333	-1.371	0.992	31.250
0.492	0.391	-0.532	0.077	-0.785	-0.972	0.187	0.759	1.544	1.669	2.603	1.483	-0.638	-1.964	0.235	0.111	-0.205	0.376	1.478	-0.589	-1.697	-0.973	-1.409	-1.022	-0.338	-0.245	-1.386	1.041	35.156
0.347	0.246	-0.572	-0.082	-0.826	-0.914	0.115	0.734	1.459	1.580	2.450	1.556	-0.600	-1.954	0.193	-0.017	-0.347	0.384	1.596	-0.695	-1.758	-0.941	-1.309	-0.823	-0.157	-0.076	-1.315	1.146	39.062
0.200	0.080	-0.621	-0.242	-0.857	-0.887	0.080	0.701	1.425	1.516	2.314	1.617	-0.524	-1.941	0.097	-0.170	-0.548	0.302	1.601	-0.827	-1.831	-0.938	-1.201	-0.562	0.083	0.195	-1.160	1.291	42.969
0.071	-0.094	-0.660	-0.394	-0.893	-0.889	0.072	0.667	1.439	1.460	2.187	1.620	-0.431	-1.937	-0.047	-0.333	-0.794	0.134	1.489	-0.975	-1.911	-0.959	-1.084	-0.260	0.409	0.583	-0.930	1.451	46.875
-0.028	-0.260	-0.675	-0.532	-0.948	-0.909	0.074	0.648	1.501	1.391	2.060	1.521	-0.353	-1.960	-0.231	-0.495	-1.064	-0.097	1.270	-1.132	-1.996	-1.000	-0.956	0.054	0.840	1.100	-0.649	1.604	50.781
-0.098	-0.405	-0.655	-0.654	-1.035	-0.933	0.066	0.663	1.613	1.293	1.936	1.296	-0.327	-2.033	-0.441	-0.645	-1.338	-0.361	0.963	-1.294	-2.099	-1.064	-0.820	0.348	1.388	1.751	-0.344	1.735	54.688
-0.154	-0.524	-0.600	-0.765	-1.163	-0.948	0.031	0.736	1.785	1.159	1.838	0.952	-0.390	-2.179	-0.669	-0.783	-1.606	-0.627	0.589	-1.466	-2.239	-1.160	-0.689	0.587	2.050	2.540	-0.039	1.851	58.594
-0.223	-0.620	-0.523	-0.878	-1.341	-0.949	-0.042	0.890	2.041	1.002	1.813	0.538	-0.569	-2.423	-0.912	-0.920	-1.870	-0.874	0.163	-1.663	-2.443	-1.308	-0.589	0.743	2.815	3.468	0.250	1.987	62.500
-0.341	-0.713	-0.453	-1.015	-1.573	-0.941	-0.152	1.145	2.415	0.856	1.931	0.142	-0.875	-2.780	-1.176	-1.082	-2.147	-1.097	-0.309	-1.910	-2.740	-1.534	-0.553	0.801	3.665	4.538	0.526	2.206	66.406
-0.547	-0.838	-0.427	-1.205	-1.867	-0.942	-0.283	1.513	2.951	0.776	2.283	-0.114	-1.302	-3.255	-1.481	-1.306	-2.470	-1.313	-0.836	-2.237	-3.155	-1.865	-0.617	0.760	4.578	5.756	0.809	2.594	70.312
-0.875	-1.035	-0.489	-1.482	-2.231	-0.982	-0.408	1.996	3.694	0.830	2.963	-0.095	-1.817	-3.837	-1.853	-1.636	-2.878	-1.553	-1.431	-2.676	-3.704	-2.321	-0.814	0.639	5.533	7.127	1.139	3.243	74.219
-1.350	-1.352	-0.684	-1.877	-2.673	-1.096	-0.489	2.589	4.688	1.087	4.050	0.323	-2.374	-4.502	-2.323	-2.111	-3.410	-1.860	-2.109	-3.256	-4.389	-2.911	-1.158	0.471	6.509	8.649	1.563	4.234	78.125
-1.980	-1.829	-1.048	-2.414	-3.199	-1.319	-0.485	3.277	5.961	1.606	5.595	1.224	-2.908	-5.212	-2.916	-2.761	-4.090	-2.273	-2.879	-3.992	-5.194	-3.621	-1.644	0.301	7.489	10.310	2.124	5.613	82.031
-2.757	-2.491	-1.603	-3.105	-3.805	-1.677	-0.360	4.038	7.518	2.420	7.598	2.639	-3.357	-5.922	-3.643	-3.595	-4.923	-2.819	-3.732	-4.883	-6.088	-4.422	-2.245	0.174	8.450	12.078	2.852	7.377	85.938
-3.655	-3.340	-2.347	-3.941	-4.479	-2.173	-0.090	4.845	9.332	3.528	9.998	4.526	-3.663	-6.587	-4.498	-4.599	-5.893	-3.502	-4.645	-5.904	-7.028	-5.264	-2.916	0.129	9.366	13.898	3.748	9.462	89.844
-4.630	-4.353	-3.256	-4.890	-5.190	-2.787	0.333	5.673	11.337	4.888	12.678	6.772	-3.784	-7.163	-5.451	-5.729	-6.956	-4.304	-5.576	-7.013	-7.958	-6.093	-3.603	0.188	10.204	15.692	4.783	11.750	93.750
-5.630	-5.477	-4.278	-5.900	-5.895	-3.470	0.896	6.492	13.438	6.424	15.468	9.214	-3.705	-7.615	-6.450	-6.922	-8.054	-5.181	-6.476	-8.147	-8.823	-6.854	-4.256	0.352	10.920	17.360	5.898	14.079	97.656
-6.594	-6.638	-5.340	-6.900	-6.539	-4.151	1.567	7.274	15.507	8.031	18.170	11.652	-3.433	-7.921	-7.429	-8.097	-9.119	-6.070	-7.292	-9.228	-9.565	-7.504	-4.839	0.601	11.465	18.788	7.008	16.266	101.562
-7.463	-7.742	-6.356	-7.806	-7.062	-4.750	2.301	7.989	17.401	9.591	20.580	13.885	-2.997	-8.066	-8.314	-9.166	-10.076	-6.901	-7.975	-10.174	-10.134	-8.014	-5.332	0.895	11.785	19.857	8.016	18.130	105.469
-8.178	-8.693	-7.235	-8.537	-7.404	-5.188	3.041	8.603	18.971	10.985	22.510	15.735	-2.442	-8.047	-9.034	-10.042	-10.857	-7.600	-8.484	-10.902	-10.487	-8.366	-5.730	1.183	11.824	20.453	8.827	19.517	109.375
-8.686	-9.401	-7.899	-9.015	-7.517	-5.408	3.732	9.075	20.076	12.108	23.812	17.066	-1.820	-7.868	-9.529	-10.650	-11.400	-8.102	-8.787	-11.338	-10.593	-8.553	-6.035	1.415	11.537	20.485	9.357	20.314	113.281
-8.943	-9.792	-8.287	-9.181	-7.369	-5.381	4.322	9.358	20.595	12.880	24.390	17.798	-1.181	-7.534	-9.755	-10.929	-11.655	-8.357	-8.859	-11.426	-10.431	-8.570	-6.251	1.551	10.892	19.893	9.550	20.461	117.188
-8.920	-9.820	-8.364	-9.003	-6.950	-5.109	4.770	9.405	20.439	13.250	24.210	17.908	-0.568	-7.054	-9.688	-10.844	-11.590	-8.336	-8.681	-11.134	-9.992	-8.410	-6.372	1.570	9.881	18.665	9.385	19.957	121.094
-8.605	-9.470	-8.129	-8.478	-6.274	-4.626	5.049	9.171	19.567	13.198	23.297	17.429	-0.008	-6.434	-9.328	-10.385	-11.190	-8.032	-8.245	-10.460	-9.281	-8.066	-6.387	1.475	8.525	16.839	8.876	18.855	125.000
-8.010	-8.763	-7.607	-7.635	-5.382	-3.991	5.149	8.629	17.990	12.738	21.731	16.437	0.487	-5.683	-8.692	-9.576	-10.466	-7.466	-7.553	-9.435	-8.315	-7.530	-6.277	1.292	6.877	14.506	8.074	17.254	128.906
-7.171	-7.749	-6.850	-6.531	-4.329	-3.269	5.076	7.774	15.779	11.913	19.638	15.043	0.917	-4.810	-7.820	-8.465	-9.454	-6.679	-6.621	-8.118	-7.127	-6.804	-6.028	1.063	5.018	11.803	7.059	15.285	132.812
-6.148	-6.507	-5.924	-5.245	-3.186	-2.530	4.852	6.632	13.065	10.792	17.176	13.379	1.293	-3.833	-6.767	-7.126	-8.212	-5.735	-5.482	-6.594	-5.763	-5.904	-5.639	0.839	3.051	8.903	5.927	13.105	136.719
-5.022	-5.128	-4.908	-3.868	-2.025	-1.829	4.510	5.264	10.030	9.463	14.527	11.586	1.625	-2.778	-5.602	-5.649	-6.820	-4.709	-4.191	-4.961	-4.283	-4.868	-5.127	0.662	1.089	5.993	4.778	10.873	140.625
-3.876	-3.712	-3.876	-2.492	-0.915	-1.209	4.089	3.760	6.893	8.030	11.875	9.800	1.921	-1.686	-4.402	-4.130	-5.372	-3.682	-2.823	-3.322	-2.757	-3.756	-4.535	0.561	-0.759	3.254	3.703	8.741	144.531
-2.791	-2.352	-2.893	-1.202	0.083	-0.698	3.629	2.229	3.886	6.598	9.402	8.146	2.182	-0.608	-3.243	-2.666	-3.965	-2.733	-1.467	-1.775	-1.266	-2.645	-3.925	0.540	-2.399	0.849	2.771	6.841	148.438
-1.829	-1.127	-2.011	-0.066	0.923	-0.306	3.167	0.786	1.232	5.268	7.268	6.729	2.398	0.392	-2.198	-1.345	-2.692	-1.930	-0.221	-0.405	0.107	-1.622	-3.373	0.586	-3.763	-1.100	2.027	5.277	152.344
-1.035	-0.101	-1.260	0.865	1.572	-0.030	2.734	-0.460	-0.884	4.128	5.601	5.628	2.556	1.248	-1.324	-0.237	-1.636	-1.324	0.817	0.717	1.280	-0.771	-2.950	0.664	-4.809	-2.512	1.488	4.121	156.250
-0.433	0.684	-0.654	1.559	2.014	0.141	2.352	-1.424	-2.331	3.245	4.491	4.894	2.637	1.902	-0.665	0.602	-0.863	-0.948	1.564	1.543	2.182	-0.162	-2.715	0.737	-5.526	-3.352	1.154	3.409	160.156
-0.032	1.203	-0.195	2.002	2.240	0.225	2.036	-2.051	-3.042	2.666	3.983	4.553	2.631	2.308	-0.241	1.136	-0.416	-0.813	1.955	2.039	2.760	0.157	-2.698	0.768	-5.925	-3.626	1.007	3.148	164.062
0.166	1.447	0.122	2.198	2.258	0.241	1.796	-2.318	-3.019	2.411	4.077	4.602	2.535	2.444	-0.056	1.348	-0.317	-0.916	1.957	2.195	2.984	0.165	-2.902	0.730	-6.033	-3.372	1.027	3.319	167.969
0.166	1.422	0.307	2.157	2.080	0.206	1.634	-2.236	-2.320	2.480	4.733	5.019	2.355	2.314	-0.098	1.241	-0.567	-1.236	1.568	2.016	2.853	-0.133	-3.304	0.612	-5.890	-2.653	1.192	3.882	171.875
-0.021	1.145	0.366	1.900	1.728	0.129	1.552	-1.843	-1.045	2.851	5.877	5.762	2.108	1.942	-0.340	0.834	-1.144	-1.743	0.817	1.524	2.392	-0.710	-3.862	0.415	-5.537	-1.549	1.483	4.781	175.781
-0.377	0.645	0.304	1.453	1.230	0.016	1.547	-1.194	0.678	3.487	7.411	6.775	1.816	1.372	-0.750	0.161	-2.006	-2.401	-0.232	0.758	1.648	-1.522	-4.528	0.152	-5.017	-0.150	1.880	5.950	179.688
-0.875	-0.042	0.127	0.845	0.618	-0.132	1.617	-0.351	2.709	4.338	9.223	7.995	1.507	0.658	-1.292	-0.728	-3.093	-3.167	-1.498	-0.233	0.684	-2.511	-5.253	-0.154	-4.370	1.452	2.366	7.312	183.594
-1.478	-0.871	-0.160	0.111	-0.068	-0.316	1.755	0.621	4.911	5.346	11.193	9.349	1.204	-0.142	-1.929	-1.775	-4.332	-3.997	-2.884	-1.387	-0.430	-3.613	-5.990	-0.478	-3.630	3.162	2.918	8.789	187.500
-2.139	-1.791	-0.544	-0.711	-0.789	-0.531	1.956	1.664	7.158	6.447	13.200	10.764	0.930	-0.975	-2.628	-2.917	-5.642	-4.846	-4.289	-2.642	-1.624	-4.758	-6.701	-0.795	-2.827	4.894	3.507	10.301	191.406
-2.811	-2.749	-1.004	-1.578	-1.499	-0.764	2.209	2.727	9.338	7.574	15.132	12.163	0.701	-1.792	-3.355	-4.087	-6.943	-5.674	-5.623	-3.931	-2.833	-5.877	-7.349	-1.079	-1.988	6.566	4.100	11.770	195.312
-3.449	-3.693	-1.514	-2.447	-2.156	-0.994	2.501	3.766	11.354	8.661	16.880	13.474	0.523	-2.553	-4.079	-5.223	-8.159	-6.442	-6.810	-5.194	-3.998	-6.901	-7.903	-1.310	-1.139	8.107	4.661	13.122	199.219
-4.017	-4.572	-2.036	-3.270	-2.719	-1.191	2.815	4.744	13.127	9.640	18.355	14.625	0.399	-3.222	-4.765	-6.271	-9.228	-7.123	-7.798	-6.371	-5.070	-7.770	-8.336	-1.474	-0.305	9.459	5.151	14.292	203.125
-4.491	-5.340	-2.531	-4.004	-3.156	-1.325	3.130	5.631	14.593	10.451	19.480	15.554	0.322	-3.776	-5.379	-7.183	-10.106	-7.695	-8.553	-7.414	-6.006	-8.434	-8.624	-1.562	0.490	10.579	5.537	15.225	207.031
-4.860	-5.958	-2.958	-4.610	-3.445	-1.372	3.422	6.399	15.706	11.043	20.203	16.210	0.279	-4.198	-5.888	-7.923	-10.766	-8.146	-9.068	-8.280	-6.770	-8.860	-8.754	-1.573	1.222	11.438	5.790	15.879	210.938
-5.120	-6.401	-3.282	-5.062	-3.578	-1.319	3.665	7.025	16.440	11.378	20.495	16.556	0.254	-4.478	-6.263	-8.466	-11.202	-8.471	-9.350	-8.938	-7.336	-9.036	-8.721	-1.516	1.871	12.026	5.892	16.231	214.844
-5.270	-6.656	-3.480	-5.342	-3.559	-1.171	3.837	7.490	16.784	11.437	20.359	16.578	0.227	-4.617	-6.484	-8.800	-11.421	-8.668	-9.421	-9.371	-7.692	-8.969	-8.531	-1.400	2.426	12.353	5.838	16.280	218.750
-5.311	-6.729	-3.541	-5.452	-3.409	-0.949	3.921	7.780	16.751	11.221	19.825	16.285	0.184	-4.626	-6.545	-8.928	-11.446	-8.740	-9.310	-9.575	-7.834	-8.687	-8.202	-1.240	2.884	12.449	5.640	16.047	222.656
-5.247	-6.640	-3.476	-5.409	-3.157	-0.684	3.911	7.886	16.373	10.755	18.954	15.709	0.113	-4.519	-6.457	-8.868	-11.309	-8.694	-9.053	-9.564	-7.774	-8.233	-7.763	-1.050	3.255	12.362	5.326	15.578	226.562
-5.082	-6.423	-3.311	-5.243	-2.843	-0.416	3.808	7.809	15.700	10.084	17.830	14.905	0.013	-4.319	-6.246	-8.650	-11.046	-8.539	-8.689	-9.365	-7.536	-7.659	-7.250	-0.839	3.554	12.156	4.941	14.941	230.469
-4.829	-6.124	-3.085	-4.999	-2.508	-0.182	3.626	7.556	14.798	9.275	16.560	13.950	-0.109	-4.048	-5.949	-8.318	-10.699	-8.294	-8.255	-9.017	-7.152	-7.022	-6.707	-0.611	3.806	11.904	4.544	14.220	234.375
-4.517	-5.791	-2.845	-4.723	-2.194	-0.014	3.388	7.147	13.745	8.404	15.254	12.934	-0.239	-3.729	-5.611	-7.920	-10.306	-7.982	-7.790	-8.571	-6.663	-6.378	-6.181	-0.366	4.032	11.677	4.199	13.504	238.281
-4.186	-5.474	-2.638	-4.464	-1.934	0.067	3.124	6.608	12.624	7.558	14.026	11.949	-0.352	-3.383	-5.275	-7.510	-9.906	-7.636	-7.326	-8.075	-6.113	-5.772	-5.714	-0.097	4.254	11.536	3.968	12.880	242.188
-3.887	-5.216	-2.502	-4.262	-1.756	0.050	2.870	5.978	11.515	6.820	12.972	11.086	-0.423	-3.028	-4.981	-7.135	-9.532	-7.293	-6.892	-7.580	-5.547	-5.242	-5.343	0.205	4.484	11.528	3.905	12.420	246.094
-3.674	-5.050	-2.466	-4.148	-1.675	-0.062	2.660	5.298	10.492	6.264	12.169	10.421	-0.427	-2.678	-4.758	-6.833	-9.211	-6.991	-6.509	-7.127	-5.005	-4.811	-5.090	0.552	4.726	11.672	4.043	12.177	250.000
-3.590	-4.996	-2.544	-4.138	-1.697	-0.263	2.527	4.613	9.612	5.942	11.659	10.006	-0.340	-2.344	-4.628	-6.633	-8.962	-6.765	-6.195	-6.746	-4.520	-4.486	-4.962	0.950	4.977	11.966	4.395	12.172	253.906
-3.661	-5.059	-2.730	-4.235	-1.814	-0.534	2.495	3.968	8.913	5.885	11.452	9.863	-0.150	-2.032	-4.600	-6.545	-8.796	-6.640	-5.961	-6.453	-4.114	-4.260	-4.952	1.405	5.225	12.379	4.944	12.398	257.812
-3.886	-5.231	-3.009	-4.426	-2.008	-0.856	2.580	3.398	8.407	6.090	11.525	9.984	0.149	-1.745	-4.673	-6.567	-8.716	-6.630	-5.812	-6.254	-3.796	-4.116	-5.038	1.913	5.453	12.862	5.654	12.818	261.719
-4.240	-5.488	-3.351	-4.686	-2.252	-1.202	2.786	2.932	8.086	6.529	11.823	10.329	0.554	-1.480	-4.838	-6.685	-8.713	-6.730	-5.751	-6.137	-3.563	-4.030	-5.194	2.465	5.637	13.353	6.468	13.368	265.625
-4.671	-5.800	-3.719	-4.984	-2.511	-1.542	3.103	2.585	7.925	7.149	12.275	10.835	1.055	-1.228	-5.076	-6.872	-8.771	-6.922	-5.772	-6.086	-3.399	-3.977	-5.389	3.043	5.753	13.786	7.316	13.971	269.531
-5.122	-6.127	-4.073	-5.282	-2.748	-1.848	3.514	2.361	7.883	7.882	12.799	11.423	1.631	-0.978	-5.363	-7.098	-8.866	-7.176	-5.863	-6.074	-3.281	-3.935	-5.598	3.623	5.776	14.097	8.126	14.542	273.438
-5.534	-6.432	-4.379	-5.541	-2.926	-2.091	3.991	2.258	7.916	8.651	13.316	12.011	2.261	-0.712	-5.670	-7.327	-8.966	-7.457	-6.000	-6.070	-3.176	-3.884	-5.802	4.175	5.689	14.236	8.826	14.997	277.344
-5.866	-6.680	-4.604	-5.727	-3.016	-2.249	4.503	2.264	7.982	9.382	13.755	12.520	2.917	-0.412	-5.971	-7.525	-9.040	-7.729	-6.155	-6.045	-3.051	-3.814	-5.989	4.672	5.482	14.170	9.358	15.269	281.250
-6.101	-6.846	-4.729	-5.813	-2.997	-2.309	5.015	2.365	8.046	10.012	14.062	12.887	3.574	-0.063	-6.240	-7.662	-9.062	-7.959	-6.292	-5.970	-2.875	-3.716	-6.156	5.086	5.159	13.889	9.679	15.308	285.156
-6.246	-6.916	-4.745	-5.780	-2.860	-2.266	5.495	2.544	8.087	10.493	14.206	13.067	4.203	0.349	-6.457	-7.718	-9.011	-8.128	-6.376	-5.824	-2.622	-3.583	-6.301	5.400	4.735	13.403	9.766	15.090	289.062
-6.326	-6.888	-4.652	-5.623	-2.611	-2.129	5.911	2.781	8.093	10.792	14.171	13.035	4.780	0.825	-6.612	-7.686	-8.879	-8.222	-6.380	-5.596	-2.277	-3.408	-6.425	5.605	4.240	12.742	9.615	14.616	292.969
-6.377	-6.773	-4.464	-5.352	-2.269	-1.916	6.239	3.059	8.067	10.898	13.961	12.789	5.282	1.356	-6.701	-7.568	-8.670	-8.242	-6.284	-5.286	-1.839	-3.185	-6.521	5.703	3.714	11.952	9.246	13.915	296.875
-6.433	-6.591	-4.200	-4.989	-1.864	-1.654	6.461	3.356	8.020	10.815	13.593	12.346	5.689	1.921	-6.729	-7.379	-8.398	-8.190	-6.085	-4.908	-1.321	-2.908	-6.579	5.707	3.204	11.093	8.695	13.034	300.781
-6.517	-6.368	-3.884	-4.564	-1.434	-1.373	6.563	3.657	7.967	10.561	13.099	11.739	5.984	2.488	-6.709	-7.141	-8.083	-8.073	-5.792	-4.482	-0.747	-2.578	-6.583	5.636	2.758	10.226	8.014	12.038	304.688
-6.636	-6.130	-3.544	-4.115	-1.018	-1.101	6.544	3.941	7.923	10.168	12.516	11.013	6.155	3.018	-6.659	-6.881	-7.745	-7.901	-5.421	-4.038	-0.153	-2.201	-6.517	5.514	2.415	9.415	7.262	10.999	308.594
-6.785	-5.902	-3.209	-3.678	-0.648	-0.861	6.410	4.194	7.902	9.676	11.890	10.222	6.195	3.474	-6.598	-6.621	-7.401	-7.681	-5.001	-3.605	0.420	-1.791	-6.374	5.361	2.202	8.717	6.503	9.991	312.500
-6.949	-5.704	-2.907	-3.282	-0.351	-0.667	6.174	4.404	7.913	9.128	11.270	9.422	6.107	3.823	-6.545	-6.383	-7.066	-7.424	-4.556	-3.210	0.934	-1.371	-6.156	5.198	2.129	8.175	5.798	9.085	316.406
-7.118	-5.549	-2.665	-2.950	-0.140	-0.528	5.862	4.561	7.962	8.573	10.705	8.671	5.901	4.048	-6.516	-6.178	-6.746	-7.145	-4.114	-2.874	1.356	-0.968	-5.879	5.041	2.186	7.823	5.201	8.343	320.312
-7.287	-5.442	-2.507	-2.691	-0.021	-0.447	5.504	4.662	8.049	8.057	10.244	8.026	5.600	4.143	-6.524	-6.012	-6.446	-6.868	-3.696	-2.610	1.666	-0.606	-5.569	4.902	2.352	7.673	4.753	7.818	324.219
-7.464	-5.384	-2.453	-2.507	0.012	-0.425	5.135	4.710	8.172	7.622	9.926	7.534	5.235	4.120	-6.578	-5.886	-6.173	-6.617	-3.317	-2.420	1.854	-0.306	-5.259	4.794	2.594	7.724	4.481	7.545	328.125
-7.663	-5.368	-2.514	-2.391	-0.030	-0.459	4.792	4.712	8.326	7.301	9.780	7.234	4.842	4.002	-6.680	-5.798	-5.931	-6.424	-2.990	-2.302	1.926	-0.082	-4.981	4.727	2.875	7.953	4.394	7.540	332.031
-7.898	-5.383	-2.692	-2.329	-0.131	-0.546	4.506	4.678	8.503	7.116	9.819	7.150	4.459	3.818	-6.830	-5.741	-5.730	-6.314	-2.723	-2.246	1.895	0.061	-4.762	4.707	3.165	8.327	4.484	7.800	335.938
-8.177	-5.415	-2.978	-2.307	-0.276	-0.683	4.299	4.621	8.696	7.074	10.036	7.287	4.120	3.594	-7.021	-5.708	-5.580	-6.306	-2.521	-2.239	1.780	0.125	-4.620	4.737	3.438	8.795	4.726	8.293	339.844
-8.494	-5.451	-3.351	-2.309	-0.447	-0.862	4.181	4.555	8.898	7.167	10.409	7.626	3.845	3.351	-7.240	-5.690	-5.488	-6.401	-2.385	-2.266	1.600	0.122	-4.556	4.809	3.675	9.300	5.079	8.966	343.750
-8.833	-5.481	-3.780	-2.321	-0.632	-1.071	4.150	4.493	9.106	7.374	10.898	8.128	3.646	3.102	-7.469	-5.681	-5.457	-6.586	-2.312	-2.315	1.370	0.067	-4.558	4.911	3.867	9.780	5.490	9.740	347.656
-9.164	-5.495	-4.226	-2.333	-0.819	-1.291	4.190	4.449	9.318	7.660	11.454	8.733	3.514	2.850	-7.688	-5.674	-5.481	-6.833	-2.294	-2.374	1.102	-0.021	-4.601	5.021	4.012	10.173	5.901	10.526	351.562
-9.449	-5.492	-4.644	-2.340	-1.000	-1.499	4.278	4.435	9.535	7.983	12.022	9.368	3.434	2.593	-7.879	-5.665	-5.550	-7.102	-2.321	-2.440	0.807	-0.121	-4.653	5.117	4.108	10.427	6.258	11.231	355.469
-9.653	-5.470	-4.993	-2.341	-1.171	-1.671	4.386	4.465	9.761	8.300	12.550	9.957	3.379	2.327	-8.029	-5.651	-5.645	-7.353	-2.379	-2.510	0.491	-0.217	-4.681	5.174	4.160	10.506	6.511	11.773	359.375
-9.751	-5.432	-5.238	-2.342	-1.331	-1.782	4.488	4.549	9.999	8.569	12.992	10.429	3.322	2.052	-8.129	-5.634	-5.744	-7.549	-2.451	-2.588	0.163	-0.296	-4.658	5.178	4.174	10.396	6.631	12.093	363.281
-9.732	-5.383	-5.358	-2.353	-1.482	-1.817	4.564	4.696	10.252	8.757	13.317	10.733	3.241	1.767	-8.179	-5.616	-5.828	-7.667	-2.528	-2.680	-0.171	-0.357	-4.571	5.120	4.159	10.115	6.607	12.171	367.188
-9.605	-5.330	-5.350	-2.385	-1.631	-1.769	4.601	4.910	10.515	8.844	13.512	10.842	3.120	1.476	-8.186	-5.603	-5.885	-7.697	-2.604	-2.794	-0.503	-0.408	-4.424	5.005	4.131	9.710	6.456	12.024	371.094
-9.396	-5.282	-5.228	-2.452	-1.785	-1.644	4.594	5.188	10.784	8.824	13.582	10.765	2.949	1.182	-8.161	-5.605	-5.910	-7.649	-2.683	-2.939	-0.830	-0.467	-4.238	4.847	4.113	9.250	6.216	11.709	375.000
-9.138	-5.251	-5.023	-2.569	-1.958	-1.462	4.546	5.522	11.045	8.706	13.548	10.541	2.733	0.888	-8.117	-5.632	-5.914	-7.542	-2.778	-3.121	-1.151	-0.555	-4.045	4.669	4.128	8.817	5.942	11.308	378.906
-8.867	-5.250	-4.778	-2.748	-2.160	-1.255	4.467	5.892	11.287	8.511	13.444	10.236	2.479	0.593	-8.066	-5.694	-5.914	-7.405	-2.904	-3.344	-1.474	-0.695	-3.879	4.491	4.199	8.491	5.691	10.915	382.812
-8.617	-5.293	-4.535	-2.995	-2.404	-1.061	4.366	6.275	11.497	8.269	13.310	9.935	2.203	0.293	-8.015	-5.800	-5.930	-7.263	-3.078	-3.611	-1.808	-0.899	-3.770	4.335	4.342	8.328	5.517	10.621	386.719
-8.412	-5.393	-4.334	-3.312	-2.696	-0.916	4.258	6.643	11.661	8.013	13.187	9.728	1.926	-0.016	-7.962	-5.952	-5.981	-7.131	-3.305	-3.919	-2.163	-1.170	-3.732	4.211	4.558	8.352	5.450	10.493	390.625
-8.269	-5.554	-4.204	-3.690	-3.037	-0.854	4.154	6.967	11.769	7.776	13.105	9.693	1.668	-0.339	-7.903	-6.144	-6.074	-7.013	-3.582	-4.260	-2.547	-1.496	-3.765	4.123	4.827	8.543	5.498	10.563	394.531
-8.190	-5.773	-4.153	-4.113	-3.421	-0.890	4.062	7.222	11.810	7.583	13.083	9.880	1.449	-0.673	-7.826	-6.361	-6.205	-6.896	-3.890	-4.622	-2.958	-1.855	-3.848	4.063	5.113	8.839	5.640	10.824	398.438
-8.167	-6.036	-4.173	-4.554	-3.833	-1.023	3.989	7.390	11.776	7.447	13.121	10.299	1.285	-1.010	-7.717	-6.583	-6.358	-6.756	-4.199	-4.986	-3.387	-2.217	-3.952	4.014	5.364	9.148	5.834	11.223	402.344
-8.178	-6.317	-4.236	-4.981	-4.248	-1.232	3.937	7.460	11.653	7.370	13.195	10.910	1.188	-1.334	-7.563	-6.784	-6.506	-6.566	-4.470	-5.331	-3.811	-2.553	-4.040	3.953	5.519	9.362	6.018	11.670	406.250
-8.195	-6.582	-4.303	-5.358	-4.632	-1.478	3.904	7.427	11.430	7.338	13.262	11.627	1.160	-1.621	-7.350	-6.939	-6.618	-6.295	-4.665	-5.629	-4.199	-2.836	-4.074	3.857	5.524	9.381	6.127	12.054	410.156
-8.185	-6.790	-4.327	-5.648	-4.945	-1.710	3.887	7.299	11.096	7.327	13.266	12.327	1.198	-1.844	-7.073	-7.026	-6.667	-5.921	-4.753	-5.854	-4.516	-3.046	-4.028	3.707	5.335	9.128	6.102	12.256	414.062
-8.115	-6.904	-4.269	-5.822	-5.150	-1.877	3.880	7.087	10.645	7.306	13.143	12.871	1.290	-1.975	-6.729	-7.031	-6.630	-5.436	-4.714	-5.984	-4.726	-3.173	-3.887	3.491	4.937	8.568	5.905	12.175	417.969
-7.958	-6.897	-4.102	-5.858	-5.215	-1.934	3.875	6.809	10.077	7.243	12.842	13.124	1.418	-1.995	-6.325	-6.951	-6.497	-4.845	-4.542	-6.004	-4.804	-3.211	-3.653	3.211	4.343	7.712	5.521	11.747	421.875
-7.697	-6.758	-3.816	-5.748	-5.124	-1.854	3.866	6.486	9.404	7.115	12.328	12.988	1.560	-1.895	-5.877	-6.793	-6.269	-4.167	-4.252	-5.913	-4.738	-3.163	-3.339	2.882	3.592	6.617	4.967	10.958	425.781
-7.329	-6.496	-3.422	-5.503	-4.882	-1.631	3.847	6.143	8.647	6.906	11.597	12.415	1.693	-1.681	-5.407	-6.575	-5.959	-3.434	-3.866	-5.723	-4.533	-3.035	-2.967	2.528	2.748	5.373	4.285	9.851	429.688
-6.868	-6.138	-2.948	-5.148	-4.510	-1.279	3.812	5.800	7.838	6.615	10.679	11.423	1.795	-1.374	-4.938	-6.323	-5.592	-2.685	-3.422	-5.461	-4.214	-2.838	-2.563	2.183	1.881	4.084	3.538	8.517	433.594
-6.344	-5.726	-2.433	-4.721	-4.047	-0.832	3.760	5.476	7.011	6.254	9.628	10.091	1.847	-1.007	-4.496	-6.066	-5.197	-1.956	-2.958	-5.166	-3.822	-2.582	-2.150	1.879	1.057	2.848	2.796	7.085	437.500
-5.796	-5.308	-1.918	-4.266	-3.543	-0.332	3.691	5.186	6.199	5.843	8.519	8.550	1.838	-0.619	-4.099	-5.832	-4.803	-1.281	-2.510	-4.876	-3.402	-2.278	-1.747	1.644	0.325	1.740	2.125	5.692	441.406
-5.272	-4.926	-1.444	-3.827	-3.042	0.175	3.611	4.936	5.428	5.409	7.436	6.957	1.768	-0.246	-3.759	-5.640	-4.437	-0.684	-2.105	-4.625	-2.996	-1.933	-1.365	1.494	-0.294	0.797	1.573	4.469	445.312
-4.816	-4.611	-1.044	-3.437	-2.585	0.650	3.526	4.724	4.712	4.982	6.454	5.475	1.647	0.082	-3.480	-5.501	-4.117	-0.177	-1.755	-4.434	-2.637	-1.555	-1.009	1.435	-0.805	0.022	1.172	3.511	449.219
-4.465	-4.376	-0.742	-3.113	-2.193	1.061	3.447	4.541	4.055	4.590	5.631	4.244	1.497	0.353	-3.256	-5.416	-3.851	0.237	-1.460	-4.304	-2.340	-1.147	-0.681	1.460	-1.239	-0.613	0.928	2.874	453.125
-4.241	-4.216	-0.551	-2.856	-1.872	1.390	3.386	4.373	3.449	4.258	5.003	3.365	1.348	0.570	-3.083	-5.372	-3.638	0.561	-1.210	-4.222	-2.099	-0.709	-0.378	1.553	-1.636	-1.157	0.829	2.560	457.031
-4.148	-4.111	-0.473	-2.649	-1.612	1.629	3.353	4.200	2.878	4.003	4.579	2.884	1.237	0.750	-2.951	-5.352	-3.468	0.806	-0.988	-4.160	-1.895	-0.243	-0.100	1.695	-2.043	-1.657	0.848	2.529	460.938
-4.170	-4.037	-0.499	-2.465	-1.391	1.781	3.359	4.006	2.328	3.834	4.341	2.795	1.201	0.923	-2.859	-5.336	-3.329	0.980	-0.778	-4.083	-1.698	0.248	0.153	1.868	-2.493	-2.157	0.952	2.706	464.844
-4.277	-3.968	-0.610	-2.273	-1.184	1.860	3.407	3.775	1.786	3.752	4.256	3.045	1.268	1.124	-2.803	-5.306	-3.208	1.092	-0.569	-3.962	-1.475	0.759	0.377	2.056	-3.004	-2.679	1.105	2.998	468.750
-4.434	-3.887	-0.782	-2.050	-0.966	1.885	3.498	3.500	1.246	3.746	4.275	3.544	1.456	1.379	-2.787	-5.252	-3.097	1.147	-0.356	-3.776	-1.201	1.277	0.566	2.249	-3.572	-3.225	1.276	3.311	472.656
-4.602	-3.785	-0.982	-1.782	-0.718	1.878	3.623	3.182	0.708	3.795	4.343	4.185	1.765	1.708	-2.809	-5.169	-2.991	1.148	-0.138	-3.520	-0.862	1.784	0.719	2.442	-4.174	-3.776	1.445	3.567	476.562
-4.749	-3.665	-1.179	-1.470	-0.433	1.862	3.770	2.826	0.179	3.874	4.408	4.857	2.178	2.113	-2.867	-5.062	-2.892	1.099	0.081	-3.203	-0.456	2.264	0.833	2.628	-4.775	-4.303	1.596	3.708	480.469
-4.856	-3.533	-1.344	-1.125	-0.114	1.859	3.918	2.444	-0.335	3.948	4.425	5.461	2.658	2.579	-2.955	-4.937	-2.801	1.006	0.298	-2.845	0.005	2.699	0.910	2.803	-5.332	-4.769	1.725	3.709	484.375
-4.912	-3.400	-1.453	-0.767	0.227	1.884	4.045	2.050	-0.826	3.984	4.356	5.919	3.160	3.080	-3.057	-4.804	-2.719	0.882	0.511	-2.472	0.500	3.075	0.954	2.961	-5.808	-5.144	1.830	3.571	488.281
-4.915	-3.270	-1.495	-0.417	0.572	1.947	4.131	1.661	-1.286	3.949	4.180	6.183	3.632	3.583	-3.159	-4.669	-2.646	0.742	0.720	-2.110	1.000	3.385	0.972	3.092	-6.174	-5.407	1.913	3.316	492.188
-4.873	-3.144	-1.467	-0.095	0.903	2.046	4.159	1.291	-1.710	3.822	3.892	6.235	4.027	4.051	-3.245	-4.535	-2.576	0.604	0.923	-1.779	1.479	3.630	0.966	3.188	-6.414	-5.553	1.971	2.983	496.094
-4.796	-3.018	-1.376	0.186	1.201	2.175	4.119	0.956	-2.087	3.594	3.504	6.091	4.308	4.454	-3.304	-4.399	-2.500	0.486	1.120	-1.491	1.911	3.814	0.937	3.242	-6.529	-5.589	2.002	2.615	500.000
-4.697	-2.882	-1.237	0.419	1.456	2.320	4.015	0.670	-2.408	3.271	3.047	5.790	4.457	4.771	-3.329	-4.255	-2.413	0.400	1.306	-1.249	2.276	3.947	0.887	3.250	-6.533	-5.539	1.998	2.255	503.906
-4.590	-2.729	-1.071	0.607	1.664	2.464	3.860	0.447	-2.658	2.881	2.567	5.392	4.475	4.994	-3.320	-4.100	-2.312	0.349	1.476	-1.050	2.562	4.035	0.812	3.213	-6.455	-5.435	1.949	1.935	507.812
-4.491	-2.550	-0.896	0.755	1.825	2.590	3.680	0.299	-2.823	2.467	2.118	4.960	4.382	5.128	-3.281	-3.932	-2.198	0.330	1.620	-0.887	2.768	4.086	0.713	3.136	-6.328	-5.317	1.849	1.673	511.719
-4.411	-2.347	-0.733	0.872	1.946	2.685	3.507	0.233	-2.888	2.080	1.757	4.557	4.211	5.186	-3.219	-3.752	-2.081	0.328	1.728	-0.750	2.895	4.104	0.590	3.028	-6.189	-5.226	1.692	1.470	515.625
-4.352	-2.126	-0.591	0.968	2.037	2.740	3.373	0.250	-2.847	1.778	1.531	4.232	4.004	5.189	-3.136	-3.568	-1.972	0.326	1.793	-0.633	2.953	4.088	0.449	2.898	-6.074	-5.197	1.476	1.312	519.531
-4.312	-1.898	-0.479	1.053	2.107	2.755	3.306	0.344	-2.703	1.606	1.470	4.015	3.801	5.158	-3.036	-3.391	-1.884	0.304	1.810	-0.530	2.956	4.038	0.300	2.761	-6.012	-5.257	1.207	1.178	523.438
-4.275	-1.680	-0.396	1.131	2.161	2.735	3.323	0.499	-2.470	1.595	1.582	3.918	3.637	5.115	-2.920	-3.231	-1.825	0.249	1.782	-0.439	2.920	3.954	0.157	2.626	-6.024	-5.415	0.899	1.043	527.344
-4.225	-1.486	-0.338	1.205	2.201	2.684	3.426	0.691	-2.177	1.750	1.847	3.934	3.534	5.072	-2.793	-3.096	-1.799	0.152	1.718	-0.361	2.862	3.844	0.035	2.505	-6.119	-5.662	0.572	0.889	531.250
-4.142	-1.332	-0.299	1.272	2.223	2.611	3.602	0.887	-1.865	2.053	2.224	4.041	3.504	5.038	-2.657	-2.990	-1.801	0.018	1.631	-0.298	2.798	3.716	-0.051	2.408	-6.292	-5.969	0.252	0.713	535.156
-4.017	-1.226	-0.272	1.329	2.220	2.518	3.825	1.053	-1.582	2.460	2.653	4.210	3.541	5.013	-2.521	-2.913	-1.820	-0.143	1.538	-0.251	2.742	3.586	-0.091	2.344	-6.526	-6.291	-0.027	0.530	539.062
-3.848	-1.167	-0.254	1.366	2.185	2.409	4.059	1.155	-1.376	2.912	3.064	4.407	3.632	4.993	-2.390	-2.858	-1.843	-0.312	1.452	-0.221	2.703	3.469	-0.085	2.320	-6.794	-6.575	-0.235	0.366	542.969
-3.649	-1.148	-0.240	1.376	2.118	2.288	4.267	1.167	-1.291	3.340	3.390	4.597	3.755	4.975	-2.268	-2.817	-1.856	-0.467	1.384	-0.205	2.690	3.380	-0.035	2.339	-7.065	-6.771	-0.343	0.256	546.875
-3.439	-1.156	-0.226	1.354	2.025	2.163	4.415	1.075	-1.357	3.682	3.570	4.751	3.889	4.953	-2.153	-2.777	-1.848	-0.584	1.336	-0.198	2.706	3.327	0.050	2.401	-7.307	-6.842	-0.336	0.230	550.781
-3.243	-1.171	-0.207	1.302	1.919	2.045	4.481	0.884	-1.585	3.885	3.568	4.843	4.013	4.924	-2.039	-2.731	-1.814	-0.649	1.304	-0.194	2.754	3.309	0.156	2.504	-7.501	-6.777	-0.211	0.303	554.688
-3.079	-1.170	-0.177	1.226	1.824	1.954	4.458	0.613	-1.964	3.921	3.371	4.858	4.112	4.892	-1.920	-2.669	-1.756	-0.655	1.281	-0.186	2.832	3.321	0.273	2.638	-7.637	-6.589	0.016	0.475	558.594
-2.957	-1.135	-0.127	1.143	1.763	1.907	4.352	0.297	-2.463	3.787	2.994	4.792	4.178	4.862	-1.789	-2.589	-1.681	-0.604	1.256	-0.170	2.937	3.349	0.389	2.793	-7.722	-6.319	0.316	0.724	562.500
-2.874	-1.051	-0.053	1.073	1.761	1.923	4.184	-0.020	-3.032	3.504	2.478	4.649	4.211	4.841	-1.645	-2.490	-1.598	-0.511	1.221	-0.139	3.065	3.379	0.499	2.956	-7.776	-6.026	0.648	1.013	566.406
-2.811	-0.911	0.052	1.036	1.833	2.008	3.982	-0.293	-3.613	3.115	1.884	4.445	4.215	4.842	-1.492	-2.374	-1.518	-0.398	1.174	-0.092	3.213	3.399	0.597	3.111	-7.830	-5.780	0.964	1.294	570.312
-2.742	-0.719	0.185	1.049	1.982	2.160	3.778	-0.485	-4.146	2.676	1.281	4.200	4.201	4.874	-1.339	-2.244	-1.447	-0.286	1.115	-0.026	3.374	3.400	0.682	3.243	-7.916	-5.646	1.218	1.515	574.219
-2.637	-0.490	0.343	1.122	2.204	2.366	3.600	-0.569	-4.582	2.242	0.734	3.935	4.180	4.947	-1.199	-2.106	-1.388	-0.197	1.052	0.060	3.547	3.380	0.753	3.340	-8.066	-5.677	1.369	1.632	578.125
-2.475	-0.243	0.518	1.253	2.481	2.606	3.468	-0.532	-4.885	1.863	0.295	3.672	4.162	5.064	-1.081	-1.963	-1.339	-0.144	0.995	0.164	3.729	3.343	0.810	3.389	-8.300	-5.901	1.388	1.609	582.031
-2.249	0.001	0.702	1.434	2.791	2.859	3.394	-0.377	-5.036	1.573	-0.004	3.423	4.152	5.226	-0.990	-1.819	-1.294	-0.129	0.956	0.284	3.917	3.300	0.853	3.383	-8.627	-6.320	1.260	1.431	585.938
-1.971	0.224	0.884	1.648	3.109	3.106	3.378	-0.117	-5.036	1.385	-0.157	3.196	4.151	5.424	-0.925	-1.678	-1.245	-0.147	0.944	0.414	4.111	3.260	0.882	3.320	-9.036	-6.910	0.983	1.098	589.844
-1.673	0.411	1.059	1.875	3.414	3.335	3.415	0.224	-4.901	1.293	-0.178	2.995	4.157	5.646	-0.878	-1.543	-1.188	-0.187	0.962	0.548	4.306	3.234	0.897	3.202	-9.503	-7.623	0.570	0.631	593.750
-1.397	0.558	1.221	2.096	3.690	3.539	3.494	0.620	-4.658	1.277	-0.097	2.819	4.164	5.876	-0.842	-1.419	-1.120	-0.234	1.008	0.677	4.498	3.226	0.900	3.039	-9.988	-8.396	0.048	0.067	597.656
-1.188	0.662	1.365	2.293	3.928	3.719	3.602	1.044	-4.337	1.310	0.047	2.664	4.169	6.095	-0.811	-1.315	-1.047	-0.273	1.075	0.793	4.681	3.240	0.895	2.847	-10.443	-9.162	-0.546	-0.548	601.562
-1.083	0.725	1.486	2.453	4.124	3.877	3.727	1.468	-3.971	1.362	0.217	2.529	4.170	6.290	-0.782	-1.238	-0.976	-0.294	1.148	0.888	4.848	3.274	0.892	2.644	-10.823	-9.859	-1.169	-1.165	605.469
-1.105	0.748	1.578	2.569	4.281	4.015	3.862	1.868	-3.588	1.412	0.384	2.413	4.166	6.452	-0.761	-1.200	-0.923	-0.292	1.212	0.955	4.992	3.323	0.902	2.452	-11.084	-10.436	-1.775	-1.737	609.375
-1.253	0.730	1.635	2.638	4.397	4.130	3.999	2.222	-3.215	1.447	0.531	2.316	4.159	6.577	-0.757	-1.209	-0.899	-0.267	1.253	0.989	5.105	3.385	0.938	2.287	-11.199	-10.859	-2.317	-2.224	613.281
-1.505	0.670	1.653	2.661	4.475	4.219	4.131	2.511	-2.874	1.466	0.653	2.245	4.155	6.667	-0.779	-1.268	-0.915	-0.224	1.259	0.988	5.180	3.456	1.008	2.165	-11.157	-11.111	-2.756	-2.598	617.188
-1.820	0.569	1.629	2.642	4.512	4.272	4.253	2.720	-2.582	1.477	0.753	2.203	4.155	6.726	-0.834	-1.376	-0.979	-0.171	1.222	0.953	5.212	3.533	1.117	2.093	-10.964	-11.193	-3.065	-2.842	621.094
-2.145	0.429	1.565	2.587	4.507	4.279	4.361	2.840	-2.353	1.492	0.841	2.197	4.160	6.762	-0.924	-1.524	-1.088	-0.119	1.142	0.887	5.199	3.614	1.257	2.071	-10.642	-11.120	-3.228	-2.947	625.000
-2.424	0.260	1.467	2.504	4.457	4.229	4.449	2.866	-2.194	1.525	0.928	2.232	4.172	6.780	-1.045	-1.697	-1.235	-0.076	1.025	0.798	5.145	3.694	1.409	2.093	-10.225	-10.916	-3.247	-2.915	628.906
-2.611	0.078	1.344	2.404	4.362	4.117	4.512	2.798	-2.108	1.585	1.022	2.309	4.185	6.783	-1.189	-1.876	-1.404	-0.050	0.884	0.696	5.055	3.766	1.544	2.148	-9.751	-10.606	-3.138	-2.756	632.812
-2.680	-0.100	1.210	2.295	4.226	3.941	4.545	2.645	-2.091	1.677	1.125	2.426	4.197	6.773	-1.347	-2.042	-1.574	-0.043	0.738	0.591	4.941	3.827	1.634	2.222	-9.261	-10.218	-2.927	-2.485	636.719
-2.630	-0.255	1.076	2.186	4.056	3.705	4.543	2.416	-2.141	1.794	1.235	2.578	4.201	6.749	-1.506	-2.179	-1.724	-0.052	0.607	0.494	4.818	3.870	1.655	2.302	-8.791	-9.773	-2.642	-2.122	640.625
-2.488	-0.372	0.952	2.080	3.863	3.423	4.504	2.127	-2.248	1.927	1.343	2.757	4.195	6.709	-1.658	-2.276	-1.833	-0.072	0.508	0.413	4.702	3.896	1.600	2.380	-8.370	-9.290	-2.311	-1.688	644.531
-2.306	-0.447	0.843	1.978	3.660	3.113	4.428	1.798	-2.405	2.058	1.436	2.952	4.176	6.650	-1.791	-2.330	-1.889	-0.094	0.454	0.353	4.606	3.905	1.477	2.455	-8.018	-8.784	-1.949	-1.206	648.438
-2.142	-0.482	0.750	1.879	3.458	2.797	4.318	1.448	-2.602	2.170	1.505	3.160	4.148	6.573	-1.898	-2.346	-1.886	-0.112	0.446	0.314	4.538	3.899	1.311	2.531	-7.747	-8.269	-1.566	-0.695	652.344
-2.046	-0.489	0.669	1.780	3.268	2.499	4.180	1.096	-2.830	2.251	1.544	3.375	4.117	6.479	-1.970	-2.334	-1.832	-0.118	0.476	0.295	4.497	3.884	1.133	2.620	-7.559	-7.757	-1.160	-0.170	656.250
-2.046	-0.480	0.597	1.677	3.096	2.237	4.022	0.760	-3.080	2.290	1.550	3.596	4.090	6.372	-2.002	-2.305	-1.741	-0.109	0.529	0.290	4.479	3.861	0.977	2.731	-7.449	-7.263	-0.727	0.355	660.156
-2.139	-0.469	0.533	1.570	2.948	2.027	3.853	0.451	-3.345	2.284	1.524	3.820	4.075	6.255	-1.993	-2.269	-1.633	-0.086	0.589	0.295	4.474	3.833	0.867	2.873	-7.413	-6.808	-0.270	0.862	664.062
-2.291	-0.462	0.478	1.460	2.824	1.876	3.682	0.176	-3.621	2.235	1.467	4.037	4.076	6.137	-1.944	-2.230	-1.524	-0.046	0.643	0.309	4.472	3.800	0.816	3.044	-7.441	-6.417	0.196	1.330	667.969
-2.445	-0.456	0.442	1.353	2.728	1.787	3.515	-0.065	-3.904	2.147	1.381	4.231	4.094	6.027	-1.859	-2.185	-1.424	0.014	0.690	0.335	4.468	3.764	0.823	3.232	-7.528	-6.123	0.644	1.728	671.875
-2.539	-0.443	0.436	1.255	2.663	1.756	3.357	-0.275	-4.192	2.026	1.259	4.374	4.124	5.933	-1.745	-2.125	-1.334	0.099	0.738	0.380	4.464	3.729	0.879	3.416	-7.666	-5.957	1.029	2.015	675.781
-2.523	-0.408	0.473	1.178	2.635	1.779	3.211	-0.459	-4.481	1.874	1.095	4.437	4.155	5.863	-1.607	-2.038	-1.245	0.220	0.806	0.453	4.467	3.702	0.968	3.571	-7.847	-5.949	1.303	2.150	679.688
-2.371	-0.336	0.562	1.130	2.647	1.844	3.074	-0.626	-4.764	1.697	0.883	4.389	4.177	5.825	-1.450	-1.912	-1.142	0.384	0.915	0.564	4.487	3.690	1.073	3.668	-8.061	-6.112	1.418	2.099	683.594
-2.088	-0.218	0.703	1.120	2.701	1.939	2.944	-0.780	-5.031	1.497	0.623	4.215	4.178	5.817	-1.276	-1.743	-1.007	0.595	1.085	0.717	4.535	3.704	1.180	3.688	-8.290	-6.442	1.343	1.845	687.500
-1.712	-0.054	0.889	1.148	2.791	2.048	2.817	-0.924	-5.265	1.282	0.329	3.916	4.150	5.837	-1.088	-1.532	-0.831	0.852	1.325	0.912	4.614	3.752	1.282	3.621	-8.516	-6.911	1.069	1.396	691.406
-1.303	0.144	1.105	1.209	2.905	2.151	2.692	-1.053	-5.448	1.063	0.026	3.518	4.089	5.873	-0.889	-1.292	-0.612	1.144	1.631	1.135	4.719	3.837	1.375	3.471	-8.717	-7.470	0.616	0.789	695.312
-0.928	0.357	1.328	1.287	3.022	2.230	2.572	-1.162	-5.562	0.853	-0.247	3.067	4.000	5.912	-0.687	-1.045	-0.357	1.455	1.985	1.368	4.837	3.957	1.465	3.258	-8.870	-8.058	0.036	0.086	699.219
-0.651	0.558	1.532	1.362	3.116	2.270	2.460	-1.242	-5.592	0.670	-0.450	2.623	3.892	5.941	-0.495	-0.818	-0.088	1.762	2.355	1.583	4.947	4.104	1.557	3.009	-8.957	-8.605	-0.599	-0.634	703.125
-0.511	0.715	1.693	1.409	3.164	2.262	2.366	-1.282	-5.527	0.530	-0.546	2.249	3.779	5.944	-0.330	-0.638	0.169	2.043	2.707	1.750	5.026	4.261	1.661	2.762	-8.967	-9.049	-1.203	-1.291	707.031
-0.523	0.802	1.791	1.404	3.144	2.207	2.297	-1.277	-5.368	0.447	-0.511	1.999	3.674	5.913	-0.210	-0.530	0.385	2.277	3.007	1.842	5.053	4.410	1.783	2.551	-8.893	-9.342	-1.696	-1.815	710.938
-0.674	0.801	1.813	1.330	3.047	2.113	2.260	-1.223	-5.125	0.429	-0.342	1.906	3.589	5.842	-0.151	-0.508	0.533	2.444	3.228	1.839	5.011	4.531	1.926	2.402	-8.739	-9.459	-2.014	-2.156	714.844
-0.927	0.704	1.759	1.183	2.874	1.993	2.258	-1.124	-4.815	0.475	-0.053	1.982	3.533	5.732	-0.162	-0.580	0.594	2.534	3.353	1.731	4.893	4.604	2.086	2.331	-8.515	-9.398	-2.119	-2.295	718.750
-1.236	0.517	1.640	0.968	2.638	1.865	2.292	-0.987	-4.462	0.580	0.324	2.212	3.509	5.588	-0.244	-0.738	0.558	2.539	3.381	1.521	4.705	4.617	2.253	2.339	-8.237	-9.181	-2.009	-2.240	722.656
-1.553	0.261	1.474	0.706	2.361	1.749	2.359	-0.823	-4.093	0.735	0.746	2.562	3.512	5.421	-0.388	-0.967	0.429	2.458	3.317	1.228	4.461	4.566	2.412	2.414	-7.924	-8.844	-1.712	-2.021	726.562
-1.836	-0.035	1.288	0.423	2.073	1.656	2.453	-0.647	-3.735	0.926	1.169	2.983	3.537	5.249	-0.577	-1.241	0.223	2.295	3.180	0.879	4.186	4.453	2.544	2.538	-7.595	-8.432	-1.281	-1.689	730.469
-2.057	-0.339	1.105	0.145	1.801	1.594	2.565	-0.474	-3.413	1.138	1.548	3.421	3.576	5.091	-0.791	-1.530	-0.034	2.061	2.990	0.512	3.912	4.293	2.630	2.685	-7.268	-7.989	-0.781	-1.298	734.375
-2.206	-0.620	0.942	-0.103	1.570	1.562	2.686	-0.321	-3.148	1.354	1.852	3.826	3.622	4.967	-1.004	-1.805	-0.311	1.774	2.776	0.165	3.674	4.108	2.658	2.836	-6.959	-7.550	-0.274	-0.898	738.281
-2.289	-0.856	0.807	-0.308	1.396	1.549	2.803	-0.201	-2.956	1.559	2.062	4.161	3.672	4.895	-1.197	-2.038	-0.574	1.456	2.564	-0.124	3.505	3.921	2.620	2.977	-6.680	-7.139	0.192	-0.524	742.188
-2.326	-1.036	0.693	-0.466	1.285	1.538	2.905	-0.124	-2.843	1.741	2.173	4.405	3.727	4.889	-1.351	-2.209	-0.792	1.131	2.382	-0.329	3.431	3.760	2.521	3.102	-6.441	-6.764	0.592	-0.196	746.094
-2.348	-1.160	0.584	-0.583	1.229	1.507	2.985	-0.099	-2.811	1.889	2.197	4.556	3.791	4.954	-1.458	-2.309	-0.943	0.821	2.251	-0.433	3.465	3.644	2.376	3.214	-6.244	-6.423	0.925	0.087	750.000
-2.386	-1.236	0.456	-0.670	1.213	1.433	3.036	-0.128	-2.850	1.998	2.155	4.630	3.873	5.085	-1.518	-2.336	-1.014	0.546	2.187	-0.433	3.605	3.589	2.208	3.325	-6.087	-6.103	1.209	0.340	753.906
-2.464	-1.280	0.289	-0.739	1.212	1.294	3.057	-0.211	-2.947	2.069	2.076	4.653	3.977	5.270	-1.540	-2.303	-1.007	0.317	2.196	-0.341	3.836	3.598	2.045	3.445	-5.966	-5.791	1.473	0.586	757.812
-2.593	-1.311	0.069	-0.800	1.204	1.084	3.050	-0.338	-3.080	2.103	1.987	4.655	4.109	5.490	-1.538	-2.228	-0.933	0.137	2.271	-0.178	4.128	3.668	1.913	3.586	-5.873	-5.476	1.747	0.843	761.719
-2.767	-1.346	-0.202	-0.862	1.170	0.805	3.025	-0.496	-3.225	2.111	1.912	4.661	4.267	5.723	-1.533	-2.132	-0.815	0.000	2.399	0.027	4.443	3.783	1.829	3.756	-5.798	-5.155	2.049	1.125	765.625
-2.967	-1.399	-0.510	-0.931	1.101	0.479	2.990	-0.662	-3.356	2.101	1.865	4.687	4.448	5.948	-1.543	-2.040	-0.681	-0.104	2.557	0.239	4.742	3.923	1.802	3.957	-5.736	-4.837	2.382	1.430	769.531
-3.161	-1.482	-0.826	-1.009	0.995	0.134	2.958	-0.814	-3.451	2.086	1.851	4.737	4.642	6.146	-1.583	-1.972	-0.560	-0.190	2.722	0.429	4.989	4.062	1.825	4.183	-5.683	-4.535	2.734	1.743	773.438
-3.314	-1.596	-1.120	-1.099	0.861	-0.195	2.939	-0.928	-3.491	2.076	1.865	4.803	4.839	6.306	-1.661	-1.941	-0.477	-0.272	2.868	0.572	5.157	4.175	1.882	4.426	-5.639	-4.267	3.079	2.044	777.344
-3.396	-1.742	-1.363	-1.205	0.709	-0.477	2.940	-0.988	-3.467	2.078	1.898	4.871	5.032	6.425	-1.774	-1.954	-0.446	-0.363	2.976	0.655	5.233	4.245	1.950	4.675	-5.605	-4.048	3.392	2.307	781.250
-3.386	-1.914	-1.538	-1.328	0.553	-0.696	2.964	-0.988	-3.379	2.097	1.935	4.928	5.214	6.505	-1.917	-2.008	-0.473	-0.471	3.038	0.676	5.220	4.262	2.009	4.920	-5.586	-3.885	3.651	2.517	785.156
-3.281	-2.104	-1.643	-1.469	0.401	-0.847	3.009	-0.930	-3.238	2.131	1.967	4.963	5.384	6.557	-2.079	-2.097	-0.551	-0.600	3.052	0.644	5.134	4.226	2.045	5.155	-5.582	-3.777	3.850	2.666	789.062
-3.101	-2.304	-1.692	-1.624	0.257	-0.945	3.071	-0.830	-3.059	2.177	1.987	4.974	5.543	6.591	-2.251	-2.206	-0.668	-0.749	3.030	0.575	4.998	4.150	2.054	5.381	-5.592	-3.710	3.996	2.766	792.969
-2.875	-2.509	-1.707	-1.788	0.121	-1.011	3.143	-0.708	-2.864	2.230	1.995	4.967	5.697	6.621	-2.426	-2.325	-0.804	-0.912	2.986	0.489	4.842	4.051	2.040	5.601	-5.608	-3.664	4.110	2.835	796.875
