FP1	F3	F7	FC3	C3	C5	P3	P7	PO7	PO3	O1	Oz	Pz	CPz	FP2	Fz	F4	F8	FC4	FCz	Cz	C4	C6	P4	P8	PO8	PO4	O2	time
-0.817	0.399	-0.234	0.675	0.757	0.444	1.899	0.071	-0.216	2.183	1.812	1.565	1.681	1.223	-1.176	0.127	-0.808	-1.441	-2.149	0.078	0.562	-0.480	-1.436	1.141	-1.634	-0.138	2.016	1.520	-199.219
-0.807	0.298	-0.546	0.600	0.813	0.371	1.557	-0.030	-0.400	1.841	1.405	1.494	1.526	1.189	-1.097	0.186	-0.525	-1.167	-1.457	0.305	0.772	-0.230	-1.063	1.218	-1.475	-0.302	2.076	1.498	-195.312
-0.789	0.200	-0.798	0.517	0.855	0.310	1.239	-0.098	-0.552	1.515	1.024	1.410	1.369	1.135	-1.006	0.230	-0.280	-0.905	-0.828	0.495	0.945	-0.027	-0.724	1.262	-1.315	-0.482	2.083	1.429	-191.406
-0.757	0.109	-0.946	0.421	0.865	0.268	0.960	-0.113	-0.650	1.212	0.684	1.298	1.205	1.044	-0.895	0.245	-0.103	-0.664	-0.312	0.620	1.052	0.102	-0.437	1.250	-1.146	-0.682	1.997	1.280	-187.500
-0.706	0.025	-0.969	0.307	0.832	0.242	0.729	-0.067	-0.678	0.934	0.395	1.148	1.035	0.912	-0.760	0.224	-0.014	-0.451	0.053	0.661	1.078	0.145	-0.212	1.172	-0.959	-0.896	1.800	1.032	-183.594
-0.626	-0.054	-0.868	0.171	0.746	0.225	0.547	0.036	-0.632	0.677	0.157	0.953	0.862	0.745	-0.603	0.162	-0.018	-0.273	0.252	0.615	1.019	0.109	-0.054	1.033	-0.746	-1.105	1.499	0.690	-179.688
-0.512	-0.129	-0.668	0.015	0.606	0.205	0.409	0.180	-0.519	0.433	-0.038	0.712	0.696	0.563	-0.434	0.065	-0.103	-0.130	0.291	0.494	0.892	0.023	0.049	0.850	-0.499	-1.286	1.118	0.277	-175.781
-0.363	-0.198	-0.411	-0.154	0.421	0.170	0.301	0.334	-0.363	0.189	-0.208	0.426	0.545	0.392	-0.268	-0.053	-0.244	-0.022	0.200	0.326	0.725	-0.072	0.117	0.652	-0.214	-1.411	0.699	-0.171	-171.875
-0.190	-0.258	-0.143	-0.322	0.208	0.112	0.204	0.465	-0.198	-0.069	-0.376	0.102	0.416	0.260	-0.119	-0.170	-0.405	0.058	0.028	0.150	0.557	-0.132	0.177	0.468	0.105	-1.457	0.285	-0.613	-167.969
-0.006	-0.300	0.088	-0.469	-0.011	0.029	0.103	0.538	-0.064	-0.351	-0.565	-0.251	0.315	0.190	0.003	-0.261	-0.546	0.120	-0.166	0.008	0.425	-0.122	0.254	0.325	0.445	-1.411	-0.089	-1.011	-164.062
0.164	-0.316	0.252	-0.577	-0.209	-0.071	-0.017	0.528	0.006	-0.658	-0.784	-0.617	0.240	0.192	0.091	-0.302	-0.632	0.174	-0.327	-0.067	0.357	-0.026	0.366	0.239	0.788	-1.272	-0.397	-1.331	-160.156
0.297	-0.298	0.331	-0.632	-0.365	-0.178	-0.158	0.429	-0.011	-0.979	-1.031	-0.973	0.189	0.266	0.145	-0.280	-0.639	0.229	-0.412	-0.053	0.371	0.151	0.509	0.212	1.106	-1.051	-0.628	-1.552	-156.250
0.372	-0.246	0.331	-0.630	-0.463	-0.278	-0.313	0.250	-0.115	-1.291	-1.283	-1.294	0.156	0.398	0.169	-0.190	-0.561	0.288	-0.402	0.052	0.462	0.375	0.664	0.236	1.372	-0.773	-0.786	-1.662	-152.344
0.374	-0.168	0.270	-0.576	-0.497	-0.358	-0.467	0.021	-0.290	-1.560	-1.505	-1.549	0.140	0.568	0.167	-0.045	-0.408	0.351	-0.301	0.232	0.616	0.603	0.793	0.294	1.558	-0.468	-0.878	-1.659	-148.438
0.304	-0.079	0.176	-0.489	-0.472	-0.409	-0.594	-0.219	-0.497	-1.749	-1.653	-1.710	0.140	0.750	0.144	0.132	-0.204	0.408	-0.135	0.455	0.806	0.782	0.854	0.365	1.643	-0.171	-0.916	-1.550	-144.531
0.168	-0.001	0.077	-0.390	-0.403	-0.427	-0.669	-0.424	-0.688	-1.823	-1.686	-1.752	0.162	0.922	0.103	0.310	0.014	0.446	0.055	0.685	1.001	0.871	0.806	0.429	1.619	0.090	-0.908	-1.344	-140.625
-0.015	0.042	-0.008	-0.306	-0.307	-0.414	-0.669	-0.559	-0.817	-1.755	-1.572	-1.660	0.211	1.064	0.043	0.453	0.206	0.451	0.226	0.879	1.171	0.843	0.628	0.474	1.486	0.296	-0.852	-1.055	-136.719
-0.222	0.032	-0.068	-0.253	-0.207	-0.376	-0.578	-0.598	-0.843	-1.538	-1.297	-1.430	0.292	1.164	-0.040	0.532	0.334	0.407	0.341	1.004	1.290	0.696	0.321	0.494	1.262	0.441	-0.746	-0.697	-132.812
-0.431	-0.043	-0.107	-0.244	-0.120	-0.321	-0.396	-0.538	-0.745	-1.179	-0.870	-1.071	0.403	1.210	-0.147	0.526	0.369	0.305	0.376	1.032	1.341	0.448	-0.085	0.490	0.972	0.534	-0.581	-0.287	-128.906
-0.623	-0.178	-0.132	-0.276	-0.057	-0.255	-0.133	-0.391	-0.523	-0.707	-0.318	-0.609	0.538	1.199	-0.278	0.424	0.294	0.144	0.323	0.951	1.312	0.134	-0.539	0.472	0.652	0.596	-0.356	0.159	-125.000
-0.781	-0.357	-0.155	-0.337	-0.023	-0.184	0.189	-0.185	-0.198	-0.164	0.311	-0.079	0.681	1.131	-0.431	0.234	0.113	-0.067	0.192	0.763	1.200	-0.202	-0.981	0.449	0.336	0.647	-0.079	0.617	-121.094
-0.894	-0.553	-0.181	-0.408	-0.012	-0.109	0.537	0.045	0.190	0.401	0.958	0.475	0.813	1.011	-0.597	-0.022	-0.154	-0.311	0.005	0.485	1.013	-0.519	-1.351	0.428	0.055	0.704	0.229	1.063	-117.188
-0.952	-0.727	-0.206	-0.462	-0.015	-0.032	0.876	0.259	0.588	0.932	1.558	1.003	0.914	0.851	-0.763	-0.308	-0.470	-0.561	-0.208	0.151	0.770	-0.781	-1.605	0.412	-0.173	0.773	0.531	1.463	-113.281
-0.951	-0.845	-0.218	-0.476	-0.018	0.049	1.170	0.426	0.942	1.377	2.046	1.456	0.965	0.666	-0.910	-0.583	-0.787	-0.788	-0.412	-0.198	0.497	-0.967	-1.720	0.394	-0.344	0.839	0.786	1.782	-109.375
-0.886	-0.875	-0.201	-0.432	-0.009	0.129	1.386	0.519	1.196	1.693	2.365	1.792	0.955	0.471	-1.011	-0.803	-1.051	-0.962	-0.575	-0.512	0.229	-1.068	-1.698	0.361	-0.466	0.876	0.945	1.984	-105.469
-0.751	-0.798	-0.135	-0.317	0.019	0.204	1.497	0.525	1.309	1.848	2.474	1.976	0.875	0.281	-1.039	-0.928	-1.214	-1.055	-0.669	-0.747	-0.003	-1.084	-1.557	0.297	-0.559	0.846	0.973	2.033	-101.562
-0.543	-0.613	-0.007	-0.135	0.067	0.268	1.486	0.445	1.256	1.827	2.351	1.986	0.727	0.105	-0.966	-0.934	-1.240	-1.046	-0.674	-0.870	-0.175	-1.026	-1.327	0.187	-0.649	0.712	0.845	1.904	-97.656
-0.261	-0.331	0.185	0.105	0.130	0.316	1.350	0.288	1.035	1.632	2.001	1.819	0.517	-0.054	-0.774	-0.814	-1.117	-0.922	-0.583	-0.869	-0.275	-0.906	-1.043	0.022	-0.758	0.445	0.557	1.587	-93.750
0.092	0.019	0.433	0.378	0.199	0.344	1.097	0.079	0.671	1.287	1.454	1.487	0.256	-0.199	-0.460	-0.581	-0.854	-0.685	-0.401	-0.750	-0.309	-0.741	-0.736	-0.198	-0.902	0.039	0.126	1.093	-89.844
0.502	0.398	0.715	0.656	0.259	0.355	0.752	-0.154	0.212	0.829	0.767	1.023	-0.039	-0.335	-0.043	-0.268	-0.485	-0.349	-0.145	-0.542	-0.293	-0.544	-0.433	-0.463	-1.080	-0.485	-0.410	0.455	-85.938
0.939	0.760	0.998	0.903	0.298	0.354	0.348	-0.373	-0.275	0.310	0.014	0.473	-0.347	-0.469	0.437	0.080	-0.062	0.052	0.155	-0.288	-0.255	-0.331	-0.152	-0.749	-1.278	-1.077	-0.995	-0.272	-82.031
1.361	1.061	1.246	1.086	0.304	0.346	-0.074	-0.544	-0.720	-0.214	-0.722	-0.105	-0.646	-0.604	0.926	0.408	0.356	0.479	0.458	-0.040	-0.224	-0.119	0.093	-1.027	-1.462	-1.663	-1.565	-1.012	-78.125
1.715	1.259	1.421	1.177	0.269	0.338	-0.473	-0.638	-1.054	-0.690	-1.359	-0.653	-0.914	-0.740	1.362	0.666	0.712	0.880	0.724	0.157	-0.225	0.075	0.293	-1.266	-1.591	-2.154	-2.054	-1.687	-74.219
1.946	1.330	1.494	1.157	0.190	0.330	-0.814	-0.636	-1.228	-1.073	-1.833	-1.115	-1.133	-0.872	1.689	0.813	0.963	1.212	0.914	0.268	-0.272	0.235	0.444	-1.436	-1.616	-2.464	-2.402	-2.220	-70.312
2.012	1.261	1.448	1.022	0.071	0.319	-1.072	-0.534	-1.217	-1.335	-2.101	-1.451	-1.290	-0.993	1.867	0.831	1.087	1.436	1.000	0.277	-0.370	0.346	0.544	-1.516	-1.499	-2.524	-2.568	-2.551	-66.406
1.890	1.061	1.284	0.784	-0.077	0.299	-1.236	-0.346	-1.024	-1.463	-2.151	-1.636	-1.380	-1.096	1.882	0.720	1.084	1.530	0.970	0.188	-0.511	0.398	0.596	-1.499	-1.220	-2.299	-2.535	-2.648	-62.500
1.591	0.757	1.021	0.470	-0.240	0.265	-1.307	-0.096	-0.680	-1.459	-1.998	-1.668	-1.408	-1.174	1.740	0.503	0.975	1.491	0.832	0.019	-0.681	0.386	0.605	-1.389	-0.781	-1.798	-2.313	-2.506	-58.594
1.152	0.390	0.693	0.119	-0.398	0.213	-1.295	0.181	-0.235	-1.340	-1.681	-1.562	-1.383	-1.229	1.472	0.218	0.793	1.331	0.610	-0.199	-0.864	0.317	0.582	-1.208	-0.218	-1.068	-1.933	-2.154	-54.688
0.633	0.009	0.341	-0.224	-0.533	0.142	-1.219	0.446	0.250	-1.132	-1.252	-1.345	-1.322	-1.259	1.123	-0.091	0.578	1.074	0.340	-0.431	-1.044	0.201	0.536	-0.985	0.409	-0.194	-1.447	-1.644	-50.781
0.108	-0.337	0.009	-0.516	-0.626	0.058	-1.100	0.665	0.713	-0.864	-0.768	-1.054	-1.239	-1.269	0.742	-0.377	0.365	0.755	0.065	-0.647	-1.208	0.060	0.480	-0.753	1.022	0.719	-0.914	-1.041	-46.875
-0.353	-0.606	-0.267	-0.723	-0.670	-0.034	-0.958	0.809	1.100	-0.568	-0.285	-0.728	-1.148	-1.259	0.379	-0.602	0.185	0.410	-0.176	-0.819	-1.347	-0.084	0.425	-0.542	1.539	1.564	-0.388	-0.416	-42.969
-0.691	-0.770	-0.465	-0.823	-0.661	-0.126	-0.811	0.863	1.367	-0.272	0.152	-0.403	-1.056	-1.232	0.069	-0.740	0.056	0.077	-0.352	-0.930	-1.451	-0.207	0.382	-0.376	1.890	2.248	0.086	0.170	-39.062
-0.874	-0.817	-0.579	-0.814	-0.606	-0.210	-0.675	0.820	1.490	-0.002	0.508	-0.107	-0.967	-1.184	-0.160	-0.777	-0.011	-0.212	-0.441	-0.971	-1.514	-0.286	0.363	-0.265	2.029	2.707	0.479	0.666	-35.156
-0.898	-0.751	-0.619	-0.708	-0.516	-0.280	-0.560	0.683	1.461	0.220	0.760	0.138	-0.880	-1.116	-0.300	-0.714	-0.013	-0.430	-0.435	-0.940	-1.530	-0.303	0.379	-0.207	1.944	2.914	0.776	1.039	-31.250
-0.789	-0.593	-0.603	-0.527	-0.403	-0.332	-0.474	0.465	1.287	0.381	0.897	0.317	-0.792	-1.028	-0.352	-0.562	0.046	-0.556	-0.335	-0.841	-1.498	-0.247	0.439	-0.190	1.656	2.875	0.975	1.273	-27.344
-0.594	-0.371	-0.557	-0.299	-0.281	-0.363	-0.419	0.183	0.989	0.471	0.915	0.422	-0.701	-0.926	-0.324	-0.341	0.164	-0.579	-0.150	-0.686	-1.421	-0.117	0.549	-0.198	1.214	2.624	1.078	1.367	-23.438
-0.365	-0.115	-0.504	-0.049	-0.156	-0.372	-0.395	-0.142	0.601	0.488	0.823	0.454	-0.610	-0.817	-0.234	-0.072	0.334	-0.501	0.107	-0.489	-1.310	0.084	0.713	-0.213	0.683	2.212	1.092	1.331	-19.531
-0.146	0.147	-0.460	0.203	-0.029	-0.356	-0.398	-0.485	0.163	0.440	0.637	0.415	-0.520	-0.713	-0.095	0.222	0.549	-0.330	0.418	-0.266	-1.179	0.339	0.922	-0.227	0.130	1.688	1.020	1.176	-15.625
0.035	0.399	-0.432	0.447	0.104	-0.317	-0.420	-0.820	-0.283	0.337	0.376	0.309	-0.440	-0.626	0.075	0.525	0.799	-0.087	0.762	-0.032	-1.045	0.626	1.161	-0.240	-0.391	1.097	0.863	0.917	-11.719
0.177	0.633	-0.415	0.682	0.249	-0.254	-0.453	-1.120	-0.696	0.194	0.064	0.142	-0.379	-0.563	0.266	0.824	1.075	0.200	1.116	0.200	-0.923	0.920	1.407	-0.260	-0.842	0.472	0.620	0.565	-7.812
0.296	0.854	-0.397	0.915	0.412	-0.171	-0.489	-1.363	-1.045	0.027	-0.276	-0.084	-0.346	-0.529	0.470	1.115	1.364	0.503	1.457	0.424	-0.823	1.189	1.633	-0.306	-1.207	-0.170	0.290	0.127	-3.906
0.417	1.076	-0.358	1.155	0.594	-0.072	-0.522	-1.531	-1.307	-0.151	-0.626	-0.363	-0.349	-0.523	0.679	1.397	1.654	0.793	1.762	0.637	-0.746	1.409	1.812	-0.395	-1.489	-0.819	-0.127	-0.390	0.000
0.564	1.314	-0.279	1.408	0.790	0.040	-0.548	-1.611	-1.476	-0.333	-0.972	-0.689	-0.390	-0.539	0.890	1.675	1.931	1.050	2.010	0.845	-0.686	1.558	1.928	-0.539	-1.698	-1.467	-0.623	-0.978	3.906
0.748	1.579	-0.145	1.676	0.987	0.162	-0.567	-1.601	-1.559	-0.516	-1.308	-1.054	-0.471	-0.568	1.099	1.950	2.184	1.261	2.186	1.051	-0.633	1.625	1.972	-0.744	-1.851	-2.104	-1.177	-1.618	7.812
0.965	1.873	0.049	1.953	1.170	0.292	-0.582	-1.506	-1.572	-0.702	-1.629	-1.442	-0.585	-0.604	1.303	2.218	2.400	1.422	2.281	1.260	-0.574	1.608	1.950	-0.998	-1.958	-2.709	-1.763	-2.283	11.719
1.201	2.185	0.297	2.223	1.326	0.431	-0.595	-1.337	-1.537	-0.893	-1.934	-1.831	-0.725	-0.643	1.497	2.473	2.570	1.533	2.291	1.470	-0.502	1.514	1.871	-1.286	-2.021	-3.257	-2.342	-2.935	15.625
1.433	2.494	0.582	2.469	1.441	0.580	-0.610	-1.112	-1.475	-1.090	-2.217	-2.197	-0.880	-0.684	1.676	2.698	2.684	1.597	2.224	1.670	-0.418	1.358	1.753	-1.581	-2.036	-3.713	-2.873	-3.528	19.531
1.638	2.768	0.878	2.667	1.509	0.737	-0.626	-0.851	-1.399	-1.286	-2.467	-2.512	-1.041	-0.734	1.828	2.875	2.737	1.617	2.093	1.845	-0.332	1.156	1.612	-1.861	-1.997	-4.048	-3.315	-4.017	23.438
1.802	2.977	1.155	2.801	1.531	0.896	-0.641	-0.576	-1.310	-1.469	-2.668	-2.753	-1.199	-0.803	1.942	2.983	2.724	1.595	1.919	1.973	-0.262	0.929	1.461	-2.104	-1.895	-4.235	-3.634	-4.363	27.344
1.916	3.094	1.382	2.857	1.511	1.042	-0.651	-0.304	-1.200	-1.618	-2.798	-2.904	-1.348	-0.901	2.003	3.005	2.645	1.531	1.727	2.034	-0.229	0.691	1.308	-2.298	-1.730	-4.259	-3.807	-4.540	31.250
1.980	3.102	1.535	2.834	1.454	1.159	-0.652	-0.052	-1.053	-1.712	-2.833	-2.960	-1.485	-1.037	2.000	2.931	2.503	1.427	1.540	2.011	-0.256	0.454	1.156	-2.437	-1.502	-4.113	-3.821	-4.540	35.156
1.996	3.000	1.598	2.737	1.367	1.223	-0.638	0.170	-0.849	-1.731	-2.754	-2.927	-1.610	-1.216	1.925	2.760	2.303	1.284	1.377	1.897	-0.357	0.224	1.002	-2.523	-1.219	-3.800	-3.679	-4.372	39.062
1.966	2.799	1.567	2.581	1.254	1.217	-0.613	0.360	-0.571	-1.664	-2.550	-2.826	-1.728	-1.437	1.779	2.503	2.056	1.109	1.247	1.694	-0.540	0.002	0.841	-2.563	-0.885	-3.326	-3.398	-4.062	42.969
1.888	2.521	1.450	2.381	1.118	1.126	-0.581	0.519	-0.213	-1.512	-2.223	-2.688	-1.847	-1.694	1.574	2.180	1.774	0.913	1.143	1.413	-0.800	-0.214	0.669	-2.566	-0.504	-2.698	-3.006	-3.644	46.875
1.759	2.193	1.264	2.153	0.956	0.949	-0.557	0.655	0.222	-1.290	-1.788	-2.551	-1.980	-1.978	1.325	1.812	1.467	0.709	1.048	1.073	-1.124	-0.423	0.484	-2.538	-0.072	-1.918	-2.541	-3.155	50.781
1.571	1.839	1.029	1.909	0.762	0.694	-0.556	0.780	0.720	-1.028	-1.271	-2.447	-2.142	-2.281	1.051	1.421	1.144	0.511	0.938	0.690	-1.494	-0.628	0.293	-2.484	0.427	-0.980	-2.041	-2.623	54.688
1.316	1.472	0.769	1.644	0.530	0.378	-0.599	0.908	1.262	-0.758	-0.694	-2.395	-2.350	-2.600	0.765	1.018	0.808	0.332	0.782	0.273	-1.897	-0.828	0.106	-2.406	1.012	0.129	-1.537	-2.055	58.594
0.987	1.093	0.497	1.347	0.248	0.021	-0.697	1.053	1.836	-0.508	-0.069	-2.388	-2.614	-2.940	0.468	0.601	0.453	0.176	0.552	-0.181	-2.329	-1.025	-0.063	-2.302	1.711	1.431	-1.046	-1.437	62.500
0.578	0.685	0.221	0.992	-0.096	-0.359	-0.856	1.232	2.443	-0.288	0.613	-2.386	-2.941	-3.313	0.147	0.151	0.061	0.034	0.226	-0.692	-2.802	-1.226	-0.203	-2.165	2.549	2.947	-0.561	-0.728	66.406
0.085	0.217	-0.069	0.547	-0.516	-0.749	-1.064	1.463	3.106	-0.085	1.386	-2.321	-3.322	-3.739	-0.223	-0.363	-0.391	-0.113	-0.211	-1.289	-3.341	-1.443	-0.309	-1.989	3.544	4.692	-0.059	0.129	70.312
-0.494	-0.347	-0.392	-0.016	-1.021	-1.147	-1.293	1.764	3.868	0.137	2.304	-2.105	-3.736	-4.235	-0.673	-0.977	-0.931	-0.296	-0.766	-2.009	-3.975	-1.695	-0.391	-1.767	4.694	6.662	0.499	1.195	74.219
-1.156	-1.040	-0.779	-0.719	-1.613	-1.554	-1.502	2.151	4.783	0.432	3.421	-1.652	-4.146	-4.809	-1.228	-1.721	-1.581	-0.548	-1.432	-2.878	-4.731	-2.003	-0.468	-1.496	5.977	8.824	1.153	2.513	78.125
-1.895	-1.877	-1.257	-1.562	-2.283	-1.977	-1.642	2.634	5.901	0.861	4.776	-0.898	-4.505	-5.452	-1.903	-2.609	-2.353	-0.898	-2.191	-3.902	-5.613	-2.383	-0.569	-1.175	7.342	11.109	1.934	4.089	82.031
-2.695	-2.850	-1.849	-2.523	-3.007	-2.416	-1.664	3.213	7.247	1.472	6.369	0.174	-4.757	-6.131	-2.694	-3.632	-3.237	-1.360	-3.013	-5.059	-6.600	-2.841	-0.724	-0.810	8.715	13.412	2.846	5.880	85.938
-3.534	-3.920	-2.557	-3.553	-3.743	-2.864	-1.531	3.876	8.810	2.290	8.154	1.526	-4.852	-6.791	-3.572	-4.749	-4.204	-1.930	-3.854	-6.294	-7.634	-3.364	-0.953	-0.413	10.000	15.594	3.859	7.788	89.844
-4.381	-5.017	-3.364	-4.579	-4.435	-3.308	-1.222	4.593	10.527	3.305	10.031	3.065	-4.750	-7.361	-4.488	-5.892	-5.197	-2.580	-4.660	-7.521	-8.629	-3.918	-1.261	0.001	11.093	17.499	4.911	9.670	93.750
-5.198	-6.053	-4.222	-5.514	-5.017	-3.721	-0.739	5.318	12.287	4.468	11.864	4.652	-4.430	-7.762	-5.374	-6.973	-6.143	-3.263	-5.367	-8.636	-9.481	-4.450	-1.629	0.407	11.889	18.962	5.913	11.354	97.656
-5.936	-6.926	-5.063	-6.267	-5.423	-4.072	-0.104	5.986	13.936	5.699	13.492	6.130	-3.893	-7.927	-6.152	-7.891	-6.955	-3.914	-5.909	-9.526	-10.081	-4.891	-2.019	0.783	12.293	19.836	6.761	12.665	101.562
-6.540	-7.539	-5.801	-6.754	-5.595	-4.325	0.639	6.524	15.294	6.894	14.757	7.349	-3.164	-7.806	-6.743	-8.548	-7.540	-4.461	-6.222	-10.089	-10.340	-5.167	-2.373	1.104	12.226	19.999	7.357	13.454	105.469
-6.946	-7.812	-6.347	-6.909	-5.493	-4.447	1.437	6.848	16.181	7.942	15.525	8.186	-2.285	-7.378	-7.079	-8.858	-7.818	-4.835	-6.250	-10.244	-10.196	-5.216	-2.630	1.349	11.634	19.375	7.623	13.616	109.375
-7.091	-7.691	-6.624	-6.696	-5.095	-4.407	2.234	6.884	16.438	8.742	15.703	8.569	-1.310	-6.647	-7.107	-8.761	-7.726	-4.975	-5.954	-9.944	-9.623	-4.991	-2.740	1.504	10.493	17.942	7.513	13.106	113.281
-6.919	-7.157	-6.576	-6.108	-4.405	-4.185	2.976	6.568	15.953	9.215	15.251	8.478	-0.294	-5.644	-6.800	-8.228	-7.231	-4.846	-5.320	-9.179	-8.636	-4.476	-2.671	1.560	8.814	15.734	7.021	11.946	117.188
-6.395	-6.230	-6.179	-5.168	-3.449	-3.774	3.624	5.870	14.682	9.318	14.190	7.944	0.712	-4.421	-6.161	-7.270	-6.338	-4.434	-4.361	-7.978	-7.284	-3.688	-2.420	1.521	6.646	12.848	6.180	10.221	121.094
-5.520	-4.964	-5.447	-3.931	-2.273	-3.185	4.150	4.792	12.658	9.042	12.592	7.039	1.664	-3.039	-5.221	-5.933	-5.091	-3.758	-3.126	-6.411	-5.644	-2.674	-2.017	1.396	4.081	9.438	5.058	8.066	125.000
-4.334	-3.445	-4.427	-2.474	-0.941	-2.447	4.540	3.381	9.994	8.419	10.577	5.866	2.530	-1.571	-4.036	-4.300	-3.567	-2.860	-1.690	-4.577	-3.813	-1.507	-1.511	1.204	1.250	5.703	3.747	5.646	128.906
-2.921	-1.777	-3.199	-0.891	0.469	-1.612	4.788	1.724	6.873	7.507	8.299	4.536	3.283	-0.091	-2.686	-2.479	-1.873	-1.807	-0.153	-2.596	-1.901	-0.274	-0.969	0.962	-1.686	1.873	2.348	3.144	132.812
-1.399	-0.076	-1.860	0.711	1.868	-0.749	4.896	-0.061	3.530	6.389	5.930	3.164	3.901	1.322	-1.263	-0.595	-0.129	-0.676	1.374	-0.604	-0.020	0.933	-0.454	0.689	-4.547	-1.812	0.963	0.733	136.719
0.098	1.542	-0.519	2.230	3.165	0.067	4.866	-1.839	0.223	5.156	3.643	1.853	4.366	2.590	0.136	1.224	1.542	0.452	2.781	1.268	1.718	2.028	-0.017	0.400	-7.153	-5.123	-0.320	-1.433	140.625
1.436	2.978	0.722	3.573	4.273	0.761	4.703	-3.472	-2.796	3.901	1.596	0.689	4.658	3.641	1.417	2.859	3.029	1.497	3.974	2.902	3.217	2.942	0.307	0.105	-9.342	-7.865	-1.433	-3.235	144.531
2.506	4.153	1.773	4.665	5.122	1.272	4.412	-4.844	-5.309	2.708	-0.081	-0.263	4.762	4.415	2.497	4.212	4.242	2.392	4.884	4.206	4.397	3.622	0.501	-0.191	-10.988	-9.893	-2.328	-4.590	148.438
3.235	5.014	2.570	5.456	5.661	1.564	4.002	-5.865	-7.154	1.648	-1.293	-0.955	4.673	4.868	3.312	5.213	5.118	3.080	5.474	5.117	5.204	4.040	0.565	-0.486	-12.013	-11.120	-2.983	-5.450	152.344
3.602	5.536	3.074	5.924	5.870	1.626	3.487	-6.487	-8.238	0.774	-1.988	-1.356	4.395	4.983	3.822	5.824	5.621	3.524	5.736	5.610	5.613	4.185	0.511	-0.778	-12.388	-11.523	-3.389	-5.799	156.250
3.629	5.718	3.276	6.068	5.754	1.477	2.889	-6.704	-8.545	0.122	-2.155	-1.452	3.947	4.770	4.012	6.035	5.743	3.704	5.687	5.686	5.628	4.064	0.353	-1.064	-12.140	-11.135	-3.554	-5.650	160.156
3.377	5.580	3.193	5.908	5.350	1.158	2.239	-6.547	-8.126	-0.293	-1.821	-1.240	3.365	4.265	3.895	5.866	5.499	3.618	5.359	5.379	5.281	3.696	0.109	-1.336	-11.336	-10.038	-3.489	-5.032	164.062
2.925	5.155	2.863	5.480	4.712	0.723	1.573	-6.077	-7.091	-0.473	-1.046	-0.729	2.695	3.530	3.506	5.358	4.925	3.284	4.795	4.737	4.626	3.114	-0.205	-1.578	-10.078	-8.349	-3.215	-3.992	167.969
2.349	4.489	2.340	4.832	3.913	0.231	0.929	-5.373	-5.590	-0.437	0.084	0.054	1.994	2.640	2.899	4.569	4.070	2.734	4.038	3.826	3.735	2.362	-0.569	-1.773	-8.486	-6.207	-2.751	-2.592	171.875
1.710	3.637	1.685	4.019	3.029	-0.267	0.345	-4.524	-3.793	-0.217	1.469	1.072	1.314	1.678	2.136	3.570	3.001	2.020	3.137	2.720	2.688	1.494	-0.962	-1.900	-6.690	-3.766	-2.125	-0.906	175.781
1.045	2.662	0.959	3.099	2.133	-0.730	-0.150	-3.616	-1.873	0.143	2.997	2.268	0.705	0.719	1.285	2.437	1.792	1.202	2.144	1.499	1.569	0.572	-1.356	-1.944	-4.819	-1.180	-1.369	0.975	179.688
0.373	1.629	0.220	2.136	1.286	-1.136	-0.536	-2.728	0.012	0.596	4.557	3.573	0.197	-0.169	0.409	1.254	0.528	0.348	1.117	0.245	0.459	-0.335	-1.718	-1.896	-2.993	1.399	-0.525	2.951	183.594
-0.300	0.608	-0.487	1.190	0.536	-1.477	-0.806	-1.926	1.733	1.090	6.046	4.906	-0.193	-0.939	-0.434	0.102	-0.703	-0.476	0.118	-0.961	-0.565	-1.158	-2.010	-1.760	-1.315	3.826	0.357	4.914	187.500
-0.962	-0.338	-1.128	0.318	-0.087	-1.756	-0.962	-1.259	3.194	1.582	7.373	6.182	-0.463	-1.561	-1.196	-0.943	-1.820	-1.214	-0.792	-2.041	-1.439	-1.835	-2.202	-1.550	0.131	5.979	1.221	6.752	191.406
-1.593	-1.156	-1.685	-0.431	-0.566	-1.979	-1.017	-0.756	4.337	2.033	8.469	7.322	-0.626	-2.019	-1.840	-1.817	-2.751	-1.826	-1.560	-2.932	-2.116	-2.322	-2.274	-1.293	1.284	7.758	2.009	8.366	195.312
-2.155	-1.805	-2.146	-1.022	-0.899	-2.154	-0.984	-0.427	5.141	2.421	9.292	8.258	-0.698	-2.314	-2.340	-2.477	-3.449	-2.295	-2.146	-3.590	-2.566	-2.595	-2.221	-1.017	2.109	9.096	2.670	9.676	199.219
-2.599	-2.267	-2.511	-1.434	-1.091	-2.283	-0.880	-0.260	5.616	2.735	9.823	8.946	-0.699	-2.456	-2.685	-2.900	-3.895	-2.625	-2.534	-3.997	-2.782	-2.658	-2.061	-0.755	2.600	9.963	3.166	10.628	203.125
-2.878	-2.540	-2.783	-1.664	-1.153	-2.362	-0.718	-0.232	5.796	2.977	10.071	9.365	-0.646	-2.461	-2.872	-3.092	-4.099	-2.839	-2.727	-4.159	-2.782	-2.539	-1.822	-0.532	2.776	10.370	3.478	11.206	207.031
-2.956	-2.641	-2.967	-1.725	-1.098	-2.386	-0.512	-0.308	5.727	3.155	10.061	9.517	-0.548	-2.350	-2.908	-3.079	-4.094	-2.969	-2.749	-4.111	-2.602	-2.283	-1.545	-0.360	2.682	10.364	3.609	11.425	210.938
-2.822	-2.599	-3.072	-1.647	-0.942	-2.349	-0.275	-0.457	5.456	3.280	9.832	9.429	-0.415	-2.145	-2.810	-2.907	-3.931	-3.052	-2.637	-3.905	-2.292	-1.944	-1.267	-0.242	2.383	10.025	3.585	11.333	214.844
-2.495	-2.451	-3.112	-1.465	-0.701	-2.252	-0.019	-0.650	5.028	3.358	9.424	9.139	-0.249	-1.866	-2.600	-2.628	-3.669	-3.118	-2.431	-3.599	-1.904	-1.571	-1.017	-0.162	1.960	9.454	3.450	10.997	218.750
-2.023	-2.233	-3.100	-1.222	-0.395	-2.100	0.241	-0.870	4.479	3.393	8.876	8.694	-0.049	-1.532	-2.305	-2.299	-3.361	-3.186	-2.173	-3.252	-1.487	-1.205	-0.810	-0.096	1.495	8.763	3.258	10.495	222.656
-1.475	-1.980	-3.058	-0.954	-0.046	-1.908	0.490	-1.110	3.836	3.382	8.224	8.145	0.184	-1.157	-1.958	-1.967	-3.055	-3.265	-1.899	-2.911	-1.076	-0.865	-0.648	-0.013	1.067	8.059	3.066	9.906	226.562
-0.927	-1.723	-3.006	-0.693	0.322	-1.698	0.716	-1.370	3.126	3.320	7.498	7.539	0.450	-0.752	-1.593	-1.670	-2.786	-3.352	-1.637	-2.609	-0.691	-0.557	-0.520	0.117	0.742	7.430	2.922	9.298	230.469
-0.450	-1.485	-2.965	-0.461	0.682	-1.494	0.912	-1.653	2.374	3.203	6.729	6.916	0.747	-0.328	-1.246	-1.433	-2.572	-3.439	-1.406	-2.359	-0.338	-0.272	-0.407	0.315	0.562	6.940	2.858	8.725	234.375
-0.094	-1.283	-2.953	-0.267	1.009	-1.324	1.077	-1.958	1.610	3.036	5.949	6.310	1.073	0.106	-0.949	-1.269	-2.423	-3.513	-1.220	-2.164	-0.015	0.004	-0.292	0.592	0.545	6.618	2.888	8.220	238.281
0.117	-1.129	-2.981	-0.114	1.282	-1.209	1.218	-2.276	0.871	2.831	5.192	5.745	1.422	0.539	-0.727	-1.178	-2.336	-3.566	-1.085	-2.017	0.283	0.281	-0.165	0.942	0.684	6.460	3.002	7.794	242.188
0.187	-1.030	-3.048	0.003	1.487	-1.160	1.351	-2.590	0.197	2.612	4.494	5.242	1.789	0.958	-0.596	-1.156	-2.307	-3.595	-1.002	-1.907	0.560	0.562	-0.027	1.352	0.950	6.437	3.177	7.445	246.094
0.142	-0.985	-3.149	0.093	1.622	-1.178	1.496	-2.872	-0.371	2.410	3.890	4.812	2.169	1.351	-0.563	-1.196	-2.327	-3.601	-0.972	-1.827	0.813	0.838	0.115	1.795	1.302	6.502	3.378	7.153	250.000
0.017	-0.992	-3.268	0.162	1.695	-1.250	1.671	-3.094	-0.800	2.258	3.406	4.464	2.557	1.707	-0.622	-1.289	-2.388	-3.595	-0.993	-1.774	1.034	1.090	0.244	2.246	1.692	6.601	3.573	6.899	253.906
-0.152	-1.043	-3.387	0.214	1.721	-1.352	1.892	-3.229	-1.069	2.187	3.060	4.202	2.948	2.018	-0.764	-1.426	-2.486	-3.591	-1.066	-1.748	1.214	1.293	0.344	2.679	2.082	6.689	3.736	6.663	257.812
-0.340	-1.126	-3.488	0.247	1.719	-1.458	2.164	-3.258	-1.172	2.213	2.859	4.029	3.336	2.279	-0.971	-1.598	-2.616	-3.601	-1.187	-1.753	1.344	1.424	0.403	3.076	2.443	6.736	3.860	6.434	261.719
-0.531	-1.229	-3.555	0.255	1.708	-1.542	2.478	-3.179	-1.125	2.339	2.794	3.941	3.713	2.490	-1.226	-1.795	-2.773	-3.639	-1.352	-1.790	1.424	1.470	0.417	3.426	2.761	6.731	3.951	6.215	265.625
-0.724	-1.337	-3.578	0.233	1.698	-1.586	2.814	-3.004	-0.959	2.547	2.843	3.933	4.070	2.653	-1.511	-2.004	-2.950	-3.706	-1.553	-1.856	1.457	1.429	0.388	3.728	3.040	6.682	4.025	6.014	269.531
-0.922	-1.436	-3.547	0.174	1.692	-1.587	3.141	-2.760	-0.717	2.806	2.979	3.992	4.393	2.773	-1.809	-2.210	-3.137	-3.803	-1.773	-1.946	1.454	1.313	0.325	3.982	3.290	6.611	4.103	5.849	273.438
-1.130	-1.517	-3.463	0.080	1.685	-1.550	3.424	-2.479	-0.445	3.079	3.168	4.105	4.670	2.853	-2.107	-2.399	-3.320	-3.918	-1.995	-2.051	1.427	1.145	0.236	4.194	3.528	6.546	4.200	5.737	277.344
-1.352	-1.576	-3.330	-0.047	1.665	-1.492	3.636	-2.193	-0.179	3.326	3.382	4.254	4.889	2.900	-2.396	-2.560	-3.486	-4.039	-2.201	-2.162	1.386	0.951	0.130	4.368	3.770	6.519	4.320	5.691	281.250
-1.588	-1.618	-3.160	-0.202	1.620	-1.430	3.757	-1.922	0.060	3.520	3.601	4.426	5.039	2.916	-2.672	-2.690	-3.624	-4.152	-2.374	-2.276	1.339	0.759	0.011	4.507	4.028	6.556	4.454	5.712	285.156
-1.836	-1.659	-2.970	-0.382	1.539	-1.382	3.786	-1.674	0.271	3.647	3.816	4.609	5.118	2.905	-2.939	-2.798	-3.730	-4.245	-2.506	-2.395	1.286	0.588	-0.117	4.613	4.310	6.673	4.582	5.797	289.062
-2.096	-1.724	-2.781	-0.584	1.414	-1.355	3.738	-1.439	0.475	3.713	4.031	4.797	5.128	2.870	-3.204	-2.902	-3.805	-4.312	-2.597	-2.528	1.222	0.449	-0.245	4.688	4.621	6.879	4.679	5.932	292.969
-2.369	-1.840	-2.616	-0.811	1.248	-1.348	3.643	-1.198	0.702	3.738	4.258	4.985	5.079	2.815	-3.479	-3.027	-3.859	-4.349	-2.654	-2.688	1.140	0.345	-0.365	4.736	4.958	7.173	4.724	6.099	296.875
-2.662	-2.032	-2.493	-1.069	1.047	-1.354	3.536	-0.924	0.990	3.749	4.513	5.173	4.986	2.747	-3.775	-3.198	-3.910	-4.361	-2.691	-2.888	1.031	0.273	-0.461	4.765	5.316	7.542	4.705	6.278	300.781
-2.982	-2.315	-2.424	-1.362	0.826	-1.357	3.454	-0.595	1.369	3.779	4.811	5.357	4.867	2.673	-4.100	-3.437	-3.975	-4.353	-2.725	-3.139	0.892	0.226	-0.514	4.785	5.683	7.964	4.624	6.452	304.688
-3.335	-2.691	-2.411	-1.689	0.602	-1.343	3.426	-0.202	1.856	3.851	5.157	5.533	4.741	2.603	-4.456	-3.752	-4.072	-4.331	-2.767	-3.442	0.723	0.201	-0.510	4.810	6.042	8.407	4.498	6.603	308.594
-3.722	-3.146	-2.449	-2.043	0.396	-1.304	3.465	0.251	2.446	3.975	5.544	5.692	4.626	2.549	-4.838	-4.137	-4.212	-4.304	-2.824	-3.787	0.534	0.196	-0.443	4.851	6.374	8.834	4.351	6.720	312.500
-4.136	-3.651	-2.524	-2.406	0.224	-1.235	3.568	0.744	3.112	4.145	5.951	5.822	4.536	2.519	-5.230	-4.570	-4.397	-4.278	-2.896	-4.156	0.339	0.213	-0.316	4.919	6.659	9.207	4.214	6.796	316.406
-4.560	-4.163	-2.620	-2.756	0.100	-1.144	3.716	1.240	3.806	4.338	6.344	5.909	4.477	2.520	-5.611	-5.016	-4.618	-4.260	-2.973	-4.520	0.154	0.254	-0.151	5.015	6.878	9.488	4.113	6.825	320.312
-4.966	-4.634	-2.718	-3.061	0.032	-1.041	3.878	1.698	4.470	4.523	6.682	5.945	4.452	2.553	-5.956	-5.436	-4.858	-4.253	-3.040	-4.849	-0.002	0.321	0.022	5.134	7.020	9.650	4.064	6.809	324.219
-5.321	-5.017	-2.801	-3.295	0.020	-0.940	4.019	2.077	5.041	4.664	6.929	5.924	4.452	2.614	-6.238	-5.786	-5.089	-4.264	-3.079	-5.110	-0.114	0.414	0.167	5.261	7.076	9.673	4.070	6.749	328.125
-5.590	-5.276	-2.852	-3.434	0.059	-0.853	4.106	2.343	5.464	4.729	7.058	5.848	4.466	2.691	-6.437	-6.033	-5.287	-4.295	-3.071	-5.280	-0.174	0.530	0.254	5.373	7.049	9.556	4.124	6.648	332.031
-5.741	-5.390	-2.862	-3.467	0.140	-0.787	4.115	2.477	5.705	4.694	7.056	5.727	4.476	2.770	-6.541	-6.154	-5.425	-4.345	-3.002	-5.342	-0.179	0.662	0.267	5.448	6.946	9.310	4.204	6.513	335.938
-5.757	-5.356	-2.828	-3.395	0.248	-0.742	4.035	2.480	5.751	4.550	6.933	5.580	4.467	2.835	-6.552	-6.141	-5.487	-4.412	-2.863	-5.293	-0.134	0.803	0.208	5.459	6.781	8.960	4.285	6.350	339.844
-5.635	-5.192	-2.752	-3.233	0.369	-0.714	3.868	2.367	5.617	4.302	6.717	5.428	4.421	2.874	-6.480	-6.003	-5.467	-4.490	-2.654	-5.141	-0.049	0.944	0.102	5.393	6.572	8.540	4.338	6.165	343.750
-5.395	-4.929	-2.645	-3.003	0.488	-0.694	3.630	2.174	5.346	3.966	6.450	5.296	4.330	2.881	-6.347	-5.764	-5.369	-4.571	-2.388	-4.906	0.064	1.077	-0.016	5.241	6.340	8.085	4.338	5.966	347.656
-5.074	-4.612	-2.525	-2.735	0.592	-0.678	3.345	1.943	4.999	3.573	6.181	5.204	4.188	2.853	-6.177	-5.456	-5.211	-4.649	-2.085	-4.614	0.189	1.199	-0.107	5.011	6.104	7.629	4.263	5.759	351.562
-4.724	-4.283	-2.416	-2.457	0.670	-0.663	3.045	1.723	4.649	3.160	5.960	5.163	3.999	2.796	-5.995	-5.116	-5.014	-4.718	-1.769	-4.297	0.313	1.307	-0.141	4.719	5.882	7.202	4.105	5.551	355.469
-4.399	-3.980	-2.344	-2.193	0.718	-0.651	2.761	1.557	4.368	2.767	5.826	5.176	3.775	2.713	-5.824	-4.777	-4.805	-4.779	-1.468	-3.986	0.426	1.400	-0.104	4.390	5.688	6.823	3.865	5.345	359.375
-4.153	-3.730	-2.333	-1.962	0.729	-0.647	2.520	1.481	4.218	2.437	5.807	5.229	3.531	2.612	-5.681	-4.468	-4.605	-4.833	-1.203	-3.708	0.517	1.481	0.000	4.053	5.532	6.505	3.556	5.147	363.281
-4.024	-3.549	-2.403	-1.779	0.703	-0.658	2.344	1.519	4.243	2.204	5.916	5.304	3.283	2.495	-5.580	-4.208	-4.433	-4.883	-0.989	-3.484	0.578	1.550	0.147	3.738	5.422	6.261	3.204	4.965	367.188
-4.032	-3.446	-2.563	-1.657	0.637	-0.692	2.244	1.678	4.464	2.096	6.152	5.374	3.046	2.361	-5.528	-4.008	-4.299	-4.931	-0.834	-3.330	0.602	1.604	0.304	3.468	5.367	6.104	2.844	4.812	371.094
-4.174	-3.423	-2.811	-1.611	0.528	-0.753	2.221	1.954	4.882	2.129	6.505	5.422	2.834	2.203	-5.534	-3.877	-4.213	-4.981	-0.745	-3.259	0.579	1.639	0.437	3.264	5.381	6.053	2.518	4.710	375.000
-4.431	-3.487	-3.132	-1.657	0.367	-0.846	2.268	2.330	5.475	2.307	6.960	5.440	2.654	2.016	-5.605	-3.826	-4.187	-5.036	-0.724	-3.282	0.498	1.645	0.515	3.139	5.480	6.137	2.271	4.691	378.906
-4.770	-3.645	-3.502	-1.814	0.148	-0.971	2.372	2.781	6.211	2.623	7.503	5.446	2.510	1.791	-5.747	-3.869	-4.236	-5.102	-0.780	-3.413	0.348	1.610	0.523	3.102	5.685	6.387	2.149	4.796	382.812
-5.155	-3.908	-3.892	-2.095	-0.137	-1.125	2.517	3.277	7.047	3.062	8.123	5.479	2.407	1.525	-5.966	-4.022	-4.377	-5.190	-0.922	-3.660	0.118	1.520	0.450	3.153	6.006	6.829	2.191	5.067	386.719
-5.554	-4.279	-4.274	-2.504	-0.491	-1.304	2.690	3.791	7.940	3.602	8.814	5.600	2.347	1.220	-6.262	-4.298	-4.628	-5.312	-1.162	-4.028	-0.196	1.363	0.300	3.287	6.438	7.471	2.424	5.540	390.625
-5.945	-4.753	-4.622	-3.029	-0.909	-1.500	2.880	4.297	8.845	4.214	9.566	5.873	2.338	0.887	-6.626	-4.699	-4.997	-5.481	-1.505	-4.509	-0.590	1.132	0.076	3.491	6.955	8.287	2.854	6.231	394.531
-6.308	-5.302	-4.912	-3.637	-1.373	-1.702	3.078	4.772	9.718	4.863	10.362	6.351	2.386	0.545	-7.037	-5.207	-5.475	-5.700	-1.942	-5.079	-1.049	0.827	-0.212	3.743	7.497	9.206	3.459	7.125	398.438
-6.629	-5.881	-5.127	-4.278	-1.857	-1.898	3.277	5.198	10.512	5.508	11.170	7.058	2.499	0.220	-7.459	-5.784	-6.033	-5.958	-2.451	-5.697	-1.544	0.460	-0.554	4.014	7.985	10.119	4.191	8.168	402.344
-6.890	-6.427	-5.250	-4.886	-2.324	-2.076	3.472	5.558	11.179	6.106	11.939	7.973	2.679	-0.058	-7.847	-6.368	-6.617	-6.229	-2.985	-6.310	-2.036	0.054	-0.932	4.271	8.323	10.882	4.971	9.268	406.250
-7.069	-6.870	-5.266	-5.394	-2.736	-2.222	3.650	5.833	11.664	6.610	12.602	9.030	2.919	-0.261	-8.153	-6.887	-7.159	-6.465	-3.489	-6.854	-2.481	-0.360	-1.323	4.477	8.420	11.347	5.703	10.300	410.156
-7.140	-7.144	-5.160	-5.741	-3.052	-2.323	3.800	6.009	11.919	6.975	13.084	10.123	3.205	-0.370	-8.326	-7.270	-7.585	-6.613	-3.896	-7.271	-2.833	-0.743	-1.693	4.600	8.200	11.381	6.287	11.130	414.062
-7.079	-7.203	-4.920	-5.888	-3.242	-2.368	3.908	6.073	11.904	7.167	13.313	11.115	3.509	-0.374	-8.329	-7.460	-7.827	-6.613	-4.148	-7.513	-3.057	-1.060	-2.004	4.613	7.627	10.899	6.631	11.628	417.969
-6.862	-7.030	-4.539	-5.817	-3.282	-2.346	3.960	6.018	11.596	7.162	13.233	11.864	3.797	-0.279	-8.137	-7.422	-7.837	-6.418	-4.201	-7.554	-3.128	-1.280	-2.220	4.500	6.706	9.879	6.664	11.695	421.875
-6.475	-6.638	-4.019	-5.544	-3.167	-2.247	3.946	5.847	10.996	6.952	12.810	12.241	4.031	-0.097	-7.745	-7.156	-7.596	-6.001	-4.036	-7.392	-3.041	-1.381	-2.309	4.261	5.488	8.367	6.352	11.270	425.781
-5.915	-6.065	-3.373	-5.103	-2.904	-2.064	3.861	5.571	10.129	6.544	12.038	12.146	4.182	0.147	-7.165	-6.688	-7.114	-5.358	-3.662	-7.051	-2.808	-1.354	-2.249	3.907	4.065	6.469	5.702	10.345	429.688
-5.196	-5.369	-2.628	-4.550	-2.514	-1.796	3.707	5.207	9.041	5.958	10.943	11.529	4.226	0.430	-6.426	-6.066	-6.428	-4.514	-3.111	-6.570	-2.450	-1.198	-2.034	3.464	2.549	4.329	4.757	8.965	433.594
-4.349	-4.615	-1.826	-3.941	-2.030	-1.446	3.491	4.781	7.794	5.224	9.576	10.399	4.159	0.734	-5.570	-5.351	-5.592	-3.513	-2.434	-6.001	-2.000	-0.922	-1.671	2.966	1.060	2.111	3.597	7.223	437.500
-3.422	-3.862	-1.014	-3.331	-1.492	-1.030	3.227	4.318	6.457	4.381	8.011	8.824	3.991	1.043	-4.648	-4.604	-4.672	-2.422	-1.684	-5.394	-1.488	-0.538	-1.184	2.454	-0.301	-0.036	2.323	5.248	441.406
-2.476	-3.155	-0.247	-2.758	-0.939	-0.571	2.932	3.841	5.098	3.472	6.342	6.928	3.746	1.353	-3.712	-3.876	-3.729	-1.312	-0.913	-4.789	-0.938	-0.065	-0.608	1.963	-1.460	-1.991	1.042	3.191	445.312
-1.578	-2.522	0.427	-2.242	-0.405	-0.098	2.626	3.372	3.779	2.544	4.668	4.875	3.456	1.663	-2.815	-3.204	-2.817	-0.256	-0.158	-4.214	-0.370	0.476	0.013	1.526	-2.383	-3.673	-0.148	1.205	449.219
-0.794	-1.974	0.970	-1.783	0.085	0.352	2.330	2.924	2.548	1.644	3.089	2.852	3.161	1.977	-2.000	-2.607	-1.979	0.679	0.555	-3.682	0.204	1.060	0.631	1.162	-3.076	-5.049	-1.171	-0.573	453.125
-0.178	-1.508	1.358	-1.368	0.521	0.750	2.068	2.508	1.441	0.818	1.696	1.036	2.895	2.300	-1.304	-2.090	-1.240	1.441	1.215	-3.191	0.773	1.662	1.201	0.879	-3.577	-6.120	-1.980	-2.039	457.031
0.239	-1.113	1.587	-0.978	0.901	1.073	1.859	2.127	0.478	0.109	0.558	-0.424	2.691	2.634	-0.748	-1.649	-0.617	1.995	1.820	-2.734	1.329	2.255	1.690	0.678	-3.946	-6.918	-2.561	-3.129	460.938
0.449	-0.776	1.668	-0.597	1.233	1.312	1.721	1.783	-0.333	-0.450	-0.281	-1.427	2.572	2.979	-0.343	-1.272	-0.115	2.328	2.371	-2.300	1.864	2.812	2.076	0.549	-4.246	-7.487	-2.925	-3.826	464.844
0.474	-0.487	1.625	-0.216	1.530	1.470	1.667	1.471	-0.997	-0.836	-0.808	-1.935	2.552	3.330	-0.089	-0.950	0.267	2.445	2.872	-1.884	2.364	3.309	2.354	0.482	-4.534	-7.874	-3.102	-4.152	468.750
0.354	-0.242	1.488	0.162	1.799	1.560	1.701	1.184	-1.524	-1.042	-1.039	-1.966	2.635	3.680	0.026	-0.675	0.534	2.370	3.321	-1.485	2.818	3.730	2.532	0.466	-4.846	-8.116	-3.127	-4.161	472.656
0.145	-0.042	1.288	0.519	2.043	1.599	1.817	0.911	-1.935	-1.075	-1.016	-1.593	2.812	4.019	0.017	-0.444	0.697	2.139	3.713	-1.112	3.213	4.061	2.626	0.497	-5.193	-8.238	-3.036	-3.920	476.562
-0.102	0.110	1.051	0.835	2.260	1.598	2.000	0.644	-2.251	-0.956	-0.795	-0.918	3.070	4.334	-0.094	-0.261	0.766	1.797	4.044	-0.780	3.540	4.300	2.654	0.571	-5.561	-8.245	-2.857	-3.500	480.469
-0.347	0.205	0.794	1.087	2.439	1.566	2.227	0.374	-2.492	-0.714	-0.443	-0.059	3.387	4.615	-0.288	-0.130	0.749	1.393	4.304	-0.507	3.793	4.451	2.634	0.690	-5.916	-8.131	-2.605	-2.963	484.375
-0.572	0.238	0.530	1.256	2.573	1.502	2.473	0.099	-2.678	-0.387	-0.025	0.870	3.741	4.856	-0.543	-0.060	0.656	0.970	4.490	-0.310	3.973	4.527	2.578	0.858	-6.213	-7.884	-2.288	-2.358	488.281
-0.780	0.206	0.265	1.333	2.654	1.405	2.712	-0.180	-2.827	-0.018	0.402	1.767	4.106	5.052	-0.837	-0.057	0.500	0.565	4.605	-0.201	4.085	4.548	2.496	1.076	-6.407	-7.493	-1.907	-1.719	492.188
-0.994	0.111	0.003	1.323	2.685	1.276	2.924	-0.457	-2.954	0.352	0.785	2.556	4.459	5.205	-1.150	-0.122	0.292	0.206	4.656	-0.183	4.141	4.539	2.398	1.340	-6.466	-6.959	-1.467	-1.073	496.094
-1.238	-0.036	-0.248	1.238	2.672	1.119	3.090	-0.722	-3.075	0.680	1.082	3.183	4.779	5.320	-1.459	-0.248	0.050	-0.088	4.661	-0.244	4.157	4.528	2.293	1.644	-6.370	-6.301	-0.978	-0.441	500.000
-1.529	-0.220	-0.477	1.100	2.630	0.948	3.201	-0.970	-3.205	0.926	1.257	3.616	5.050	5.404	-1.745	-0.421	-0.206	-0.304	4.641	-0.365	4.152	4.543	2.201	1.975	-6.124	-5.557	-0.459	0.154	503.906
-1.865	-0.422	-0.673	0.930	2.575	0.781	3.252	-1.195	-3.361	1.060	1.283	3.843	5.262	5.469	-1.990	-0.619	-0.453	-0.436	4.620	-0.518	4.142	4.605	2.141	2.318	-5.749	-4.780	0.059	0.687	507.812
-2.224	-0.619	-0.823	0.749	2.523	0.639	3.244	-1.399	-3.558	1.060	1.145	3.871	5.414	5.526	-2.183	-0.819	-0.668	-0.482	4.617	-0.670	4.141	4.732	2.140	2.657	-5.282	-4.035	0.541	1.127	511.719
-2.567	-0.792	-0.920	0.569	2.487	0.538	3.186	-1.589	-3.806	0.923	0.842	3.720	5.510	5.586	-2.316	-0.995	-0.831	-0.441	4.646	-0.790	4.160	4.930	2.223	2.978	-4.774	-3.387	0.951	1.446	515.625
-2.850	-0.922	-0.963	0.397	2.477	0.492	3.089	-1.772	-4.110	0.659	0.386	3.422	5.564	5.664	-2.389	-1.127	-0.928	-0.317	4.718	-0.854	4.210	5.199	2.404	3.270	-4.276	-2.901	1.255	1.616	519.531
-3.032	-0.998	-0.953	0.237	2.500	0.504	2.970	-1.956	-4.469	0.295	-0.197	3.013	5.593	5.773	-2.400	-1.196	-0.947	-0.113	4.836	-0.845	4.298	5.527	2.688	3.519	-3.844	-2.627	1.422	1.616	523.438
-3.089	-1.011	-0.898	0.089	2.561	0.575	2.847	-2.148	-4.870	-0.132	-0.868	2.532	5.615	5.925	-2.354	-1.192	-0.885	0.161	5.000	-0.753	4.436	5.893	3.060	3.715	-3.531	-2.603	1.434	1.432	527.344
-3.013	-0.958	-0.805	-0.042	2.666	0.699	2.737	-2.347	-5.298	-0.581	-1.582	2.017	5.646	6.130	-2.252	-1.109	-0.742	0.497	5.206	-0.578	4.632	6.272	3.487	3.845	-3.383	-2.850	1.277	1.062	531.250
-2.816	-0.840	-0.678	-0.149	2.820	0.871	2.655	-2.547	-5.731	-1.010	-2.290	1.504	5.697	6.389	-2.098	-0.946	-0.526	0.876	5.445	-0.328	4.894	6.632	3.926	3.897	-3.433	-3.367	0.950	0.513	535.156
-2.527	-0.659	-0.518	-0.217	3.026	1.086	2.612	-2.736	-6.146	-1.383	-2.945	1.020	5.772	6.698	-1.898	-0.710	-0.254	1.278	5.704	-0.016	5.222	6.941	4.327	3.861	-3.696	-4.133	0.460	-0.189	539.062
-2.180	-0.423	-0.325	-0.233	3.283	1.336	2.615	-2.896	-6.519	-1.675	-3.504	0.589	5.868	7.040	-1.662	-0.418	0.052	1.677	5.964	0.334	5.605	7.170	4.646	3.731	-4.163	-5.104	-0.171	-1.007	542.969
-1.811	-0.141	-0.098	-0.187	3.585	1.616	2.663	-3.007	-6.828	-1.869	-3.931	0.232	5.974	7.392	-1.406	-0.092	0.361	2.042	6.203	0.696	6.020	7.298	4.851	3.511	-4.799	-6.213	-0.909	-1.886	546.875
-1.449	0.168	0.160	-0.078	3.917	1.918	2.753	-3.051	-7.051	-1.958	-4.200	-0.038	6.079	7.724	-1.150	0.234	0.637	2.342	6.394	1.036	6.433	7.311	4.928	3.214	-5.548	-7.378	-1.709	-2.760	550.781
-1.117	0.481	0.438	0.083	4.256	2.232	2.876	-3.013	-7.170	-1.943	-4.295	-0.209	6.168	8.007	-0.919	0.526	0.846	2.554	6.515	1.322	6.805	7.209	4.880	2.863	-6.334	-8.505	-2.515	-3.558	554.688
-0.826	0.771	0.718	0.275	4.573	2.540	3.020	-2.888	-7.175	-1.833	-4.212	-0.276	6.226	8.214	-0.739	0.749	0.964	2.664	6.547	1.524	7.101	7.004	4.730	2.486	-7.078	-9.498	-3.267	-4.210	558.594
-0.583	1.011	0.976	0.467	4.837	2.826	3.168	-2.683	-7.065	-1.643	-3.961	-0.240	6.243	8.327	-0.630	0.876	0.977	2.669	6.486	1.624	7.294	6.719	4.506	2.118	-7.705	-10.272	-3.907	-4.660	562.500
-0.395	1.176	1.186	0.628	5.021	3.069	3.304	-2.418	-6.852	-1.393	-3.566	-0.110	6.214	8.343	-0.602	0.896	0.892	2.585	6.337	1.618	7.373	6.386	4.246	1.789	-8.157	-10.766	-4.386	-4.868	566.406
-0.266	1.252	1.321	0.729	5.106	3.252	3.413	-2.121	-6.559	-1.110	-3.065	0.098	6.140	8.269	-0.657	0.812	0.732	2.436	6.119	1.517	7.347	6.043	3.981	1.526	-8.403	-10.947	-4.670	-4.824	570.312
-0.200	1.237	1.365	0.754	5.089	3.360	3.484	-1.829	-6.222	-0.822	-2.507	0.358	6.029	8.126	-0.781	0.645	0.529	2.252	5.862	1.347	7.240	5.728	3.740	1.349	-8.443	-10.819	-4.746	-4.542	574.219
-0.199	1.140	1.309	0.703	4.982	3.387	3.509	-1.577	-5.884	-0.555	-1.948	0.641	5.897	7.945	-0.955	0.426	0.322	2.065	5.602	1.143	7.089	5.473	3.542	1.265	-8.303	-10.423	-4.623	-4.061	578.125
-0.261	0.981	1.160	0.584	4.807	3.333	3.490	-1.397	-5.586	-0.330	-1.440	0.919	5.763	7.758	-1.153	0.191	0.143	1.898	5.371	0.938	6.932	5.299	3.397	1.276	-8.029	-9.824	-4.330	-3.439	582.031
-0.375	0.786	0.937	0.423	4.599	3.207	3.433	-1.308	-5.363	-0.158	-1.028	1.165	5.648	7.595	-1.348	-0.025	0.013	1.764	5.196	0.763	6.803	5.215	3.308	1.373	-7.682	-9.110	-3.912	-2.744	585.938
-0.522	0.584	0.672	0.245	4.391	3.025	3.350	-1.315	-5.237	-0.044	-0.743	1.359	5.568	7.478	-1.517	-0.198	-0.062	1.668	5.089	0.635	6.725	5.216	3.270	1.538	-7.324	-8.374	-3.424	-2.045	589.844
-0.678	0.405	0.403	0.082	4.217	2.810	3.257	-1.406	-5.216	0.017	-0.600	1.486	5.533	7.419	-1.641	-0.314	-0.090	1.606	5.054	0.560	6.708	5.284	3.275	1.749	-7.010	-7.707	-2.926	-1.411	593.750
-0.816	0.268	0.173	-0.043	4.103	2.591	3.168	-1.560	-5.296	0.033	-0.597	1.541	5.544	7.416	-1.711	-0.371	-0.085	1.572	5.080	0.531	6.746	5.396	3.312	1.980	-6.782	-7.184	-2.473	-0.896	597.656
-0.910	0.190	0.016	-0.115	4.062	2.396	3.096	-1.744	-5.458	0.011	-0.722	1.523	5.592	7.462	-1.722	-0.375	-0.066	1.560	5.153	0.534	6.826	5.527	3.372	2.205	-6.663	-6.861	-2.112	-0.543	601.562
-0.944	0.172	-0.043	-0.129	4.097	2.253	3.047	-1.926	-5.680	-0.045	-0.956	1.434	5.663	7.539	-1.678	-0.339	-0.050	1.571	5.257	0.554	6.927	5.656	3.453	2.400	-6.657	-6.767	-1.874	-0.376	605.469
-0.911	0.211	0.003	-0.092	4.199	2.179	3.020	-2.081	-5.935	-0.137	-1.276	1.278	5.738	7.633	-1.589	-0.278	-0.044	1.609	5.379	0.578	7.033	5.773	3.556	2.552	-6.750	-6.905	-1.773	-0.403	609.375
-0.819	0.291	0.143	-0.021	4.350	2.178	3.008	-2.189	-6.198	-0.271	-1.659	1.062	5.799	7.726	-1.467	-0.204	-0.046	1.683	5.514	0.599	7.133	5.877	3.689	2.652	-6.918	-7.251	-1.804	-0.614	613.281
-0.685	0.395	0.349	0.064	4.528	2.243	2.997	-2.245	-6.445	-0.453	-2.083	0.790	5.829	7.807	-1.326	-0.127	-0.046	1.802	5.666	0.618	7.222	5.974	3.861	2.699	-7.128	-7.760	-1.948	-0.986	617.188
-0.536	0.502	0.583	0.143	4.705	2.351	2.971	-2.252	-6.655	-0.690	-2.531	0.470	5.819	7.868	-1.174	-0.048	-0.031	1.971	5.838	0.641	7.303	6.073	4.079	2.699	-7.344	-8.373	-2.177	-1.487	621.094
-0.396	0.594	0.807	0.200	4.858	2.474	2.913	-2.221	-6.812	-0.983	-2.986	0.110	5.760	7.900	-1.018	0.034	0.013	2.191	6.037	0.674	7.382	6.184	4.343	2.659	-7.534	-9.024	-2.460	-2.075	625.000
-0.284	0.657	0.987	0.224	4.966	2.581	2.810	-2.164	-6.906	-1.326	-3.431	-0.279	5.653	7.897	-0.857	0.122	0.096	2.456	6.264	0.725	7.461	6.311	4.643	2.589	-7.675	-9.651	-2.766	-2.707	628.906
-0.208	0.687	1.105	0.216	5.017	2.651	2.656	-2.091	-6.926	-1.703	-3.851	-0.682	5.500	7.854	-0.691	0.221	0.218	2.750	6.511	0.794	7.537	6.448	4.960	2.500	-7.749	-10.198	-3.073	-3.341	632.812
-0.167	0.685	1.157	0.180	5.006	2.671	2.455	-2.003	-6.870	-2.091	-4.223	-1.078	5.307	7.765	-0.521	0.332	0.372	3.054	6.763	0.879	7.600	6.582	5.269	2.400	-7.752	-10.625	-3.363	-3.935	636.719
-0.156	0.659	1.154	0.124	4.938	2.645	2.223	-1.898	-6.736	-2.461	-4.525	-1.442	5.085	7.628	-0.356	0.452	0.545	3.342	6.995	0.968	7.635	6.695	5.540	2.294	-7.689	-10.908	-3.628	-4.455	640.625
-0.175	0.620	1.115	0.057	4.827	2.587	1.983	-1.767	-6.522	-2.781	-4.728	-1.745	4.846	7.446	-0.208	0.571	0.715	3.590	7.180	1.045	7.627	6.767	5.750	2.188	-7.573	-11.038	-3.860	-4.869	644.531
-0.229	0.573	1.059	-0.015	4.691	2.517	1.763	-1.603	-6.233	-3.017	-4.803	-1.956	4.607	7.227	-0.096	0.674	0.859	3.773	7.291	1.094	7.561	6.784	5.879	2.085	-7.422	-11.021	-4.053	-5.150	648.438
-0.327	0.521	1.001	-0.093	4.550	2.457	1.595	-1.400	-5.873	-3.139	-4.723	-2.043	4.384	6.986	-0.041	0.742	0.956	3.875	7.306	1.096	7.429	6.736	5.919	1.990	-7.256	-10.872	-4.199	-5.280	652.344
-0.480	0.458	0.943	-0.184	4.420	2.420	1.505	-1.163	-5.454	-3.124	-4.469	-1.983	4.199	6.740	-0.059	0.754	0.987	3.884	7.214	1.038	7.230	6.626	5.873	1.908	-7.095	-10.611	-4.289	-5.244	656.250
-0.693	0.371	0.877	-0.297	4.313	2.409	1.509	-0.907	-4.990	-2.959	-4.032	-1.758	4.069	6.511	-0.159	0.697	0.941	3.800	7.015	0.913	6.972	6.463	5.752	1.844	-6.955	-10.260	-4.311	-5.036	660.156
-0.959	0.250	0.790	-0.443	4.232	2.416	1.613	-0.652	-4.502	-2.646	-3.421	-1.367	4.012	6.316	-0.336	0.563	0.820	3.628	6.719	0.724	6.669	6.266	5.575	1.806	-6.846	-9.842	-4.257	-4.664	664.062
-1.262	0.088	0.664	-0.626	4.173	2.427	1.808	-0.429	-4.018	-2.200	-2.668	-0.826	4.035	6.169	-0.575	0.359	0.631	3.387	6.352	0.486	6.345	6.058	5.364	1.797	-6.778	-9.382	-4.125	-4.147	667.969
-1.575	-0.113	0.489	-0.842	4.129	2.424	2.074	-0.267	-3.574	-1.652	-1.824	-0.169	4.141	6.076	-0.846	0.107	0.398	3.098	5.949	0.225	6.027	5.865	5.143	1.819	-6.752	-8.905	-3.920	-3.521	671.875
-1.864	-0.338	0.268	-1.074	4.094	2.391	2.380	-0.197	-3.208	-1.048	-0.961	0.551	4.320	6.042	-1.114	-0.161	0.150	2.791	5.550	-0.026	5.747	5.711	4.932	1.870	-6.773	-8.445	-3.658	-2.838	675.781
-2.096	-0.561	0.014	-1.296	4.064	2.321	2.689	-0.239	-2.962	-0.445	-0.166	1.268	4.555	6.064	-1.341	-0.403	-0.076	2.496	5.201	-0.227	5.535	5.623	4.749	1.942	-6.845	-8.037	-3.367	-2.159	679.688
-2.239	-0.748	-0.243	-1.477	4.041	2.215	2.964	-0.403	-2.874	0.098	0.475	1.911	4.821	6.140	-1.495	-0.576	-0.242	2.245	4.938	-0.342	5.420	5.618	4.601	2.026	-6.975	-7.725	-3.081	-1.553	683.594
-2.272	-0.866	-0.468	-1.584	4.034	2.082	3.176	-0.687	-2.969	0.522	0.884	2.412	5.093	6.266	-1.552	-0.645	-0.316	2.064	4.790	-0.340	5.423	5.711	4.493	2.110	-7.170	-7.550	-2.838	-1.085	687.500
-2.184	-0.884	-0.623	-1.589	4.055	1.940	3.303	-1.074	-3.260	0.784	1.006	2.718	5.348	6.440	-1.501	-0.587	-0.275	1.973	4.767	-0.203	5.555	5.903	4.418	2.183	-7.436	-7.547	-2.669	-0.808	691.406
-1.982	-0.784	-0.678	-1.476	4.118	1.812	3.339	-1.534	-3.736	0.856	0.821	2.800	5.569	6.659	-1.350	-0.396	-0.114	1.979	4.862	0.071	5.816	6.184	4.370	2.236	-7.771	-7.735	-2.596	-0.754	695.312
-1.687	-0.561	-0.616	-1.242	4.234	1.723	3.292	-2.028	-4.363	0.730	0.343	2.655	5.749	6.922	-1.114	-0.083	0.156	2.076	5.049	0.467	6.192	6.532	4.339	2.266	-8.163	-8.113	-2.626	-0.927	699.219
-1.335	-0.227	-0.437	-0.900	4.406	1.689	3.177	-2.512	-5.092	0.427	-0.380	2.306	5.886	7.223	-0.823	0.325	0.509	2.249	5.293	0.957	6.657	6.917	4.319	2.273	-8.592	-8.656	-2.748	-1.306	703.125
-0.969	0.192	-0.162	-0.478	4.631	1.718	3.018	-2.946	-5.856	-0.017	-1.270	1.799	5.987	7.550	-0.507	0.788	0.908	2.472	5.556	1.503	7.179	7.304	4.310	2.261	-9.030	-9.317	-2.943	-1.846	707.031
-0.629	0.661	0.177	-0.010	4.894	1.803	2.839	-3.294	-6.583	-0.548	-2.235	1.191	6.057	7.889	-0.198	1.266	1.317	2.715	5.807	2.063	7.716	7.663	4.317	2.236	-9.445	-10.040	-3.181	-2.488	710.938
-0.347	1.137	0.534	0.463	5.173	1.928	2.662	-3.534	-7.207	-1.103	-3.179	0.543	6.099	8.218	0.078	1.721	1.700	2.949	6.031	2.597	8.227	7.970	4.345	2.202	-9.810	-10.764	-3.431	-3.171	714.844
-0.135	1.582	0.867	0.903	5.443	2.068	2.499	-3.657	-7.670	-1.624	-4.016	-0.091	6.114	8.514	0.299	2.123	2.033	3.152	6.225	3.072	8.677	8.214	4.400	2.160	-10.102	-11.438	-3.671	-3.842	718.750
0.009	1.959	1.138	1.278	5.679	2.193	2.359	-3.666	-7.931	-2.058	-4.679	-0.666	6.099	8.753	0.454	2.454	2.302	3.306	6.397	3.465	9.037	8.394	4.484	2.110	-10.308	-12.027	-3.885	-4.461	722.656
0.106	2.247	1.323	1.564	5.859	2.283	2.242	-3.577	-7.969	-2.368	-5.121	-1.153	6.048	8.915	0.535	2.703	2.501	3.406	6.559	3.762	9.288	8.517	4.591	2.045	-10.422	-12.511	-4.069	-5.006	726.562
0.181	2.430	1.416	1.749	5.966	2.325	2.145	-3.408	-7.781	-2.535	-5.322	-1.532	5.953	8.984	0.541	2.871	2.631	3.450	6.720	3.959	9.421	8.596	4.709	1.960	-10.447	-12.885	-4.226	-5.470	730.469
0.254	2.505	1.423	1.832	5.991	2.317	2.066	-3.178	-7.387	-2.552	-5.284	-1.794	5.813	8.952	0.480	2.959	2.693	3.443	6.877	4.054	9.435	8.640	4.825	1.853	-10.384	-13.149	-4.361	-5.851	734.375
0.330	2.479	1.362	1.817	5.932	2.267	2.001	-2.907	-6.820	-2.429	-5.026	-1.934	5.629	8.817	0.362	2.973	2.691	3.392	7.020	4.052	9.335	8.653	4.924	1.724	-10.237	-13.303	-4.479	-6.149	738.281
0.395	2.362	1.256	1.714	5.792	2.191	1.950	-2.609	-6.126	-2.185	-4.580	-1.951	5.411	8.587	0.201	2.915	2.626	3.304	7.131	3.958	9.131	8.633	4.990	1.583	-10.012	-13.338	-4.573	-6.357	742.188
0.423	2.169	1.129	1.536	5.579	2.103	1.914	-2.296	-5.363	-1.844	-3.987	-1.847	5.173	8.277	0.013	2.791	2.499	3.181	7.187	3.777	8.838	8.567	5.015	1.444	-9.712	-13.238	-4.631	-6.460	746.094
0.379	1.920	0.999	1.297	5.306	2.015	1.893	-1.979	-4.587	-1.436	-3.292	-1.627	4.934	7.909	-0.187	2.606	2.315	3.028	7.171	3.522	8.475	8.440	4.987	1.325	-9.348	-12.986	-4.634	-6.439	750.000
0.242	1.634	0.879	1.009	4.990	1.932	1.890	-1.671	-3.858	-0.996	-2.547	-1.305	4.717	7.511	-0.386	2.368	2.079	2.847	7.070	3.207	8.068	8.238	4.902	1.243	-8.931	-12.569	-4.563	-6.278	753.906
0.008	1.330	0.774	0.685	4.649	1.852	1.902	-1.385	-3.224	-0.556	-1.804	-0.900	4.539	7.114	-0.576	2.089	1.804	2.646	6.883	2.849	7.642	7.958	4.759	1.214	-8.483	-11.992	-4.409	-5.969	757.812
-0.300	1.025	0.682	0.341	4.304	1.768	1.927	-1.137	-2.724	-0.151	-1.114	-0.444	4.412	6.748	-0.751	1.784	1.503	2.437	6.623	2.470	7.228	7.611	4.568	1.244	-8.030	-11.281	-4.173	-5.524	761.719
-0.641	0.731	0.597	-0.008	3.973	1.672	1.959	-0.942	-2.380	0.192	-0.521	0.028	4.341	6.440	-0.908	1.472	1.197	2.237	6.309	2.094	6.857	7.224	4.346	1.332	-7.602	-10.483	-3.869	-4.970	765.625
-0.966	0.461	0.511	-0.340	3.673	1.557	1.993	-0.811	-2.197	0.450	-0.061	0.477	4.319	6.208	-1.046	1.170	0.904	2.068	5.974	1.740	6.556	6.841	4.121	1.466	-7.228	-9.665	-3.527	-4.355	769.531
-1.229	0.222	0.416	-0.634	3.415	1.424	2.024	-0.750	-2.163	0.612	0.246	0.868	4.330	6.061	-1.165	0.895	0.641	1.946	5.652	1.427	6.345	6.513	3.927	1.627	-6.935	-8.904	-3.178	-3.733	773.438
-1.397	0.019	0.302	-0.871	3.204	1.278	2.047	-0.755	-2.255	0.678	0.397	1.175	4.355	5.996	-1.268	0.659	0.421	1.886	5.375	1.163	6.233	6.286	3.795	1.794	-6.739	-8.265	-2.854	-3.158	777.344
-1.455	-0.146	0.166	-1.033	3.039	1.130	2.059	-0.817	-2.441	0.658	0.406	1.384	4.372	6.002	-1.357	0.466	0.247	1.890	5.169	0.950	6.217	6.195	3.752	1.946	-6.645	-7.798	-2.580	-2.671	781.250
-1.411	-0.277	0.002	-1.115	2.913	0.990	2.062	-0.922	-2.688	0.571	0.300	1.497	4.366	6.059	-1.437	0.314	0.117	1.953	5.045	0.781	6.285	6.251	3.808	2.068	-6.644	-7.520	-2.367	-2.295	785.156
-1.285	-0.381	-0.187	-1.123	2.816	0.864	2.057	-1.052	-2.963	0.439	0.116	1.530	4.327	6.148	-1.510	0.194	0.021	2.063	5.000	0.644	6.415	6.444	3.957	2.156	-6.718	-7.413	-2.212	-2.027	789.062
-1.106	-0.469	-0.399	-1.077	2.732	0.752	2.046	-1.193	-3.244	0.286	-0.109	1.511	4.256	6.248	-1.583	0.095	-0.053	2.204	5.016	0.523	6.581	6.738	4.179	2.213	-6.838	-7.433	-2.103	-1.843	792.969
-0.905	-0.553	-0.623	-1.006	2.651	0.649	2.033	-1.334	-3.511	0.132	-0.339	1.470	4.163	6.345	-1.659	0.002	-0.121	2.356	5.064	0.405	6.757	7.086	4.440	2.250	-6.975	-7.514	-2.017	-1.704	796.875
