FP1	F3	F7	FC3	C3	C5	P3	P7	PO7	PO3	O1	Oz	Pz	CPz	FP2	Fz	F4	F8	FC4	FCz	Cz	C4	C6	P4	P8	PO8	PO4	O2	time
-1.324	-0.151	0.383	0.591	0.669	0.605	-0.073	-0.893	-1.123	-0.312	-1.095	-0.944	0.061	0.779	0.598	-0.070	0.389	0.435	0.454	0.386	1.741	1.251	1.090	0.043	-0.283	-0.482	0.580	-0.566	-199.219
-1.130	-0.234	0.353	0.504	0.411	0.336	0.129	-0.786	-0.852	-0.069	-0.746	-0.530	0.317	0.883	0.222	-0.288	0.140	0.333	0.385	0.237	1.608	1.055	1.165	0.168	-0.538	-0.681	0.748	-0.348	-195.312
-0.943	-0.299	0.320	0.436	0.182	0.108	0.317	-0.681	-0.612	0.142	-0.447	-0.158	0.565	0.992	-0.105	-0.480	-0.086	0.243	0.322	0.108	1.486	0.869	1.223	0.287	-0.780	-0.878	0.888	-0.172	-191.406
-0.772	-0.338	0.280	0.397	0.008	-0.047	0.482	-0.582	-0.424	0.299	-0.233	0.141	0.796	1.107	-0.350	-0.627	-0.271	0.171	0.271	0.018	1.383	0.702	1.248	0.393	-0.993	-1.065	0.982	-0.069	-187.500
-0.619	-0.346	0.231	0.392	-0.094	-0.111	0.618	-0.484	-0.298	0.389	-0.124	0.344	1.000	1.226	-0.500	-0.717	-0.405	0.115	0.238	-0.026	1.299	0.561	1.236	0.479	-1.163	-1.229	1.018	-0.052	-183.594
-0.480	-0.325	0.174	0.415	-0.117	-0.081	0.718	-0.386	-0.234	0.410	-0.122	0.447	1.169	1.338	-0.563	-0.755	-0.489	0.071	0.228	-0.029	1.225	0.450	1.187	0.540	-1.274	-1.350	0.997	-0.117	-179.688
-0.355	-0.283	0.113	0.448	-0.067	0.026	0.783	-0.282	-0.219	0.376	-0.204	0.458	1.292	1.430	-0.563	-0.753	-0.530	0.033	0.244	-0.009	1.146	0.370	1.112	0.572	-1.316	-1.408	0.927	-0.240	-175.781
-0.244	-0.234	0.049	0.470	0.038	0.180	0.816	-0.172	-0.230	0.310	-0.335	0.401	1.366	1.487	-0.532	-0.733	-0.542	-0.006	0.285	0.015	1.046	0.318	1.027	0.576	-1.279	-1.386	0.824	-0.385	-171.875
-0.157	-0.198	-0.022	0.455	0.170	0.344	0.823	-0.054	-0.239	0.243	-0.467	0.306	1.388	1.500	-0.501	-0.717	-0.541	-0.047	0.344	0.019	0.915	0.290	0.943	0.556	-1.163	-1.274	0.707	-0.514	-167.969
-0.110	-0.195	-0.102	0.382	0.297	0.481	0.809	0.068	-0.220	0.207	-0.554	0.209	1.364	1.463	-0.495	-0.725	-0.539	-0.086	0.415	-0.011	0.750	0.279	0.872	0.521	-0.973	-1.072	0.594	-0.593	-164.062
-0.119	-0.240	-0.196	0.236	0.391	0.562	0.779	0.184	-0.154	0.222	-0.558	0.142	1.302	1.378	-0.525	-0.767	-0.545	-0.118	0.486	-0.083	0.555	0.277	0.819	0.480	-0.720	-0.793	0.501	-0.597	-160.156
-0.192	-0.343	-0.305	0.018	0.427	0.573	0.733	0.286	-0.033	0.301	-0.458	0.127	1.209	1.246	-0.591	-0.842	-0.565	-0.136	0.546	-0.196	0.339	0.277	0.784	0.444	-0.421	-0.456	0.436	-0.516	-156.250
-0.330	-0.502	-0.427	-0.261	0.390	0.513	0.669	0.364	0.140	0.437	-0.256	0.177	1.095	1.075	-0.685	-0.943	-0.596	-0.133	0.586	-0.340	0.110	0.274	0.763	0.420	-0.094	-0.087	0.405	-0.354	-152.344
-0.515	-0.705	-0.550	-0.577	0.280	0.392	0.583	0.409	0.349	0.610	0.029	0.288	0.964	0.869	-0.792	-1.052	-0.636	-0.109	0.602	-0.503	-0.124	0.263	0.753	0.412	0.245	0.292	0.406	-0.125	-148.438
-0.717	-0.928	-0.660	-0.897	0.108	0.231	0.471	0.418	0.570	0.787	0.357	0.444	0.818	0.632	-0.893	-1.151	-0.678	-0.067	0.589	-0.672	-0.358	0.242	0.749	0.420	0.578	0.659	0.432	0.149	-144.531
-0.895	-1.138	-0.736	-1.183	-0.105	0.054	0.331	0.391	0.776	0.933	0.679	0.617	0.658	0.372	-0.968	-1.222	-0.719	-0.020	0.548	-0.835	-0.589	0.211	0.750	0.440	0.894	0.996	0.469	0.441	-140.625
-1.007	-1.302	-0.759	-1.399	-0.329	-0.115	0.162	0.330	0.938	1.012	0.942	0.772	0.482	0.097	-1.000	-1.253	-0.753	0.018	0.482	-0.980	-0.811	0.170	0.751	0.466	1.179	1.291	0.503	0.722	-136.719
-1.016	-1.390	-0.715	-1.514	-0.534	-0.258	-0.029	0.241	1.030	0.997	1.100	0.874	0.289	-0.178	-0.976	-1.234	-0.773	0.033	0.397	-1.096	-1.014	0.123	0.750	0.490	1.423	1.531	0.517	0.965	-132.812
-0.902	-1.379	-0.601	-1.511	-0.693	-0.362	-0.235	0.128	1.031	0.873	1.119	0.894	0.083	-0.435	-0.887	-1.162	-0.771	0.017	0.301	-1.169	-1.181	0.076	0.743	0.505	1.612	1.706	0.496	1.147	-128.906
-0.665	-1.259	-0.423	-1.386	-0.785	-0.421	-0.449	-0.006	0.932	0.643	0.986	0.814	-0.130	-0.650	-0.733	-1.037	-0.740	-0.030	0.207	-1.189	-1.292	0.035	0.726	0.508	1.733	1.808	0.431	1.249	-125.000
-0.326	-1.037	-0.197	-1.152	-0.804	-0.437	-0.659	-0.158	0.733	0.321	0.710	0.634	-0.338	-0.805	-0.524	-0.863	-0.669	-0.099	0.126	-1.144	-1.329	0.009	0.695	0.498	1.773	1.827	0.318	1.263	-121.094
0.072	-0.731	0.049	-0.836	-0.753	-0.415	-0.856	-0.323	0.449	-0.060	0.326	0.370	-0.527	-0.885	-0.279	-0.650	-0.554	-0.170	0.069	-1.029	-1.279	0.004	0.647	0.476	1.726	1.760	0.165	1.188	-117.188
0.475	-0.372	0.287	-0.476	-0.648	-0.364	-1.028	-0.493	0.111	-0.458	-0.114	0.053	-0.683	-0.885	-0.023	-0.411	-0.397	-0.225	0.039	-0.847	-1.139	0.024	0.584	0.447	1.591	1.610	-0.012	1.036	-113.281
0.824	0.000	0.486	-0.117	-0.512	-0.298	-1.163	-0.657	-0.238	-0.826	-0.543	-0.272	-0.795	-0.813	0.217	-0.164	-0.208	-0.248	0.037	-0.614	-0.925	0.066	0.505	0.414	1.377	1.390	-0.191	0.830	-109.375
1.066	0.341	0.624	0.197	-0.370	-0.233	-1.247	-0.796	-0.549	-1.117	-0.894	-0.558	-0.852	-0.689	0.413	0.071	-0.008	-0.233	0.053	-0.357	-0.665	0.120	0.414	0.383	1.106	1.125	-0.345	0.600	-105.469
1.172	0.609	0.685	0.426	-0.249	-0.180	-1.269	-0.891	-0.773	-1.292	-1.110	-0.760	-0.853	-0.542	0.546	0.269	0.173	-0.187	0.073	-0.109	-0.399	0.169	0.312	0.356	0.805	0.846	-0.449	0.381	-101.562
1.135	0.776	0.669	0.547	-0.165	-0.152	-1.218	-0.923	-0.871	-1.326	-1.155	-0.846	-0.800	-0.402	0.605	0.411	0.308	-0.126	0.080	0.090	-0.172	0.193	0.198	0.332	0.503	0.586	-0.489	0.204	-97.656
0.976	0.826	0.586	0.550	-0.129	-0.152	-1.091	-0.875	-0.825	-1.213	-1.019	-0.804	-0.702	-0.297	0.589	0.483	0.372	-0.073	0.058	0.212	-0.023	0.171	0.065	0.309	0.230	0.376	-0.459	0.094	-93.750
0.740	0.767	0.458	0.447	-0.136	-0.178	-0.890	-0.744	-0.637	-0.970	-0.721	-0.641	-0.575	-0.246	0.508	0.483	0.355	-0.053	-0.005	0.238	0.027	0.093	-0.093	0.279	0.005	0.231	-0.369	0.057	-89.844
0.478	0.622	0.312	0.267	-0.174	-0.220	-0.628	-0.536	-0.338	-0.632	-0.309	-0.390	-0.436	-0.253	0.381	0.419	0.262	-0.080	-0.114	0.171	-0.023	-0.043	-0.278	0.237	-0.162	0.155	-0.236	0.088	-85.938
0.242	0.429	0.173	0.048	-0.224	-0.264	-0.325	-0.271	0.022	-0.245	0.150	-0.099	-0.302	-0.308	0.233	0.313	0.114	-0.157	-0.263	0.035	-0.152	-0.224	-0.488	0.177	-0.270	0.132	-0.087	0.162	-82.031
0.072	0.229	0.063	-0.162	-0.264	-0.295	-0.010	0.020	0.382	0.136	0.582	0.178	-0.187	-0.390	0.091	0.192	-0.055	-0.273	-0.438	-0.134	-0.319	-0.426	-0.710	0.095	-0.329	0.138	0.049	0.247	-78.125
-0.013	0.061	-0.008	-0.325	-0.274	-0.302	0.288	0.303	0.679	0.461	0.918	0.386	-0.103	-0.470	-0.021	0.088	-0.209	-0.403	-0.616	-0.289	-0.473	-0.618	-0.922	-0.007	-0.353	0.142	0.144	0.307	-74.219
-0.014	-0.049	-0.039	-0.410	-0.239	-0.275	0.539	0.544	0.862	0.695	1.106	0.488	-0.051	-0.520	-0.086	0.030	-0.311	-0.519	-0.771	-0.388	-0.566	-0.771	-1.097	-0.126	-0.358	0.117	0.178	0.310	-70.312
0.051	-0.087	-0.037	-0.404	-0.151	-0.209	0.723	0.718	0.906	0.817	1.124	0.465	-0.033	-0.520	-0.096	0.037	-0.335	-0.592	-0.876	-0.398	-0.567	-0.863	-1.211	-0.256	-0.359	0.044	0.134	0.235	-66.406
0.154	-0.054	-0.016	-0.308	-0.011	-0.104	0.825	0.814	0.810	0.825	0.981	0.322	-0.047	-0.466	-0.052	0.122	-0.270	-0.600	-0.911	-0.303	-0.464	-0.885	-1.249	-0.392	-0.366	-0.084	0.008	0.075	-62.500
0.266	0.039	0.009	-0.139	0.173	0.038	0.844	0.837	0.599	0.735	0.711	0.083	-0.088	-0.369	0.036	0.282	-0.118	-0.534	-0.865	-0.106	-0.271	-0.841	-1.213	-0.529	-0.386	-0.258	-0.193	-0.160	-58.594
0.365	0.174	0.025	0.077	0.381	0.207	0.784	0.798	0.316	0.569	0.371	-0.210	-0.155	-0.254	0.155	0.506	0.104	-0.397	-0.741	0.172	-0.024	-0.750	-1.121	-0.665	-0.418	-0.458	-0.454	-0.445	-54.688
0.439	0.331	0.024	0.308	0.587	0.386	0.659	0.719	0.012	0.356	0.023	-0.510	-0.246	-0.151	0.289	0.772	0.370	-0.206	-0.554	0.495	0.228	-0.636	-1.005	-0.796	-0.457	-0.656	-0.745	-0.744	-50.781
0.488	0.493	0.006	0.521	0.762	0.551	0.488	0.621	-0.262	0.125	-0.276	-0.769	-0.358	-0.092	0.425	1.052	0.647	0.014	-0.330	0.823	0.436	-0.524	-0.900	-0.920	-0.492	-0.824	-1.033	-1.015	-46.875
0.515	0.644	-0.028	0.689	0.876	0.675	0.289	0.522	-0.468	-0.101	-0.484	-0.949	-0.483	-0.097	0.553	1.314	0.904	0.236	-0.102	1.114	0.560	-0.434	-0.838	-1.031	-0.512	-0.937	-1.279	-1.220	-42.969
0.525	0.773	-0.070	0.793	0.908	0.730	0.083	0.433	-0.584	-0.302	-0.579	-1.027	-0.611	-0.172	0.668	1.526	1.111	0.432	0.093	1.331	0.582	-0.375	-0.837	-1.121	-0.507	-0.978	-1.449	-1.327	-39.062
0.518	0.872	-0.113	0.824	0.848	0.698	-0.111	0.357	-0.607	-0.464	-0.560	-0.995	-0.729	-0.303	0.765	1.664	1.247	0.583	0.226	1.451	0.505	-0.347	-0.896	-1.176	-0.472	-0.944	-1.517	-1.320	-35.156
0.493	0.934	-0.149	0.785	0.705	0.575	-0.277	0.294	-0.550	-0.580	-0.446	-0.862	-0.820	-0.467	0.844	1.710	1.303	0.676	0.272	1.466	0.354	-0.338	-0.999	-1.184	-0.404	-0.842	-1.473	-1.199	-31.250
0.446	0.956	-0.175	0.687	0.497	0.372	-0.404	0.238	-0.437	-0.648	-0.271	-0.649	-0.871	-0.630	0.903	1.661	1.279	0.708	0.226	1.381	0.168	-0.333	-1.119	-1.134	-0.308	-0.688	-1.322	-0.980	-27.344
0.373	0.937	-0.187	0.551	0.258	0.116	-0.486	0.185	-0.297	-0.673	-0.070	-0.387	-0.876	-0.764	0.940	1.524	1.186	0.683	0.091	1.216	-0.011	-0.316	-1.229	-1.019	-0.195	-0.504	-1.083	-0.688	-23.438
0.276	0.880	-0.188	0.401	0.023	-0.159	-0.522	0.132	-0.159	-0.661	0.122	-0.109	-0.834	-0.849	0.949	1.315	1.038	0.608	-0.113	0.994	-0.150	-0.272	-1.308	-0.842	-0.075	-0.312	-0.784	-0.359	-19.531
0.161	0.791	-0.181	0.261	-0.177	-0.413	-0.517	0.082	-0.044	-0.622	0.277	0.153	-0.754	-0.880	0.927	1.060	0.856	0.500	-0.358	0.740	-0.232	-0.193	-1.343	-0.615	0.041	-0.132	-0.459	-0.028	-15.625
0.043	0.683	-0.169	0.149	-0.319	-0.613	-0.479	0.041	0.037	-0.568	0.381	0.372	-0.652	-0.866	0.866	0.785	0.658	0.373	-0.609	0.477	-0.261	-0.078	-1.330	-0.355	0.142	0.022	-0.137	0.272	-11.719
-0.059	0.567	-0.155	0.075	-0.395	-0.731	-0.416	0.018	0.082	-0.509	0.429	0.526	-0.545	-0.826	0.767	0.515	0.460	0.245	-0.834	0.221	-0.255	0.069	-1.278	-0.089	0.223	0.143	0.152	0.514	-7.812
-0.127	0.460	-0.140	0.041	-0.409	-0.757	-0.338	0.020	0.099	-0.453	0.427	0.604	-0.450	-0.782	0.631	0.274	0.276	0.130	-1.003	-0.012	-0.240	0.240	-1.195	0.159	0.278	0.227	0.390	0.679	-3.906
-0.151	0.374	-0.124	0.040	-0.377	-0.690	-0.249	0.050	0.099	-0.404	0.385	0.602	-0.378	-0.750	0.470	0.079	0.115	0.036	-1.098	-0.214	-0.239	0.423	-1.095	0.362	0.305	0.274	0.561	0.759	0.000
-0.131	0.320	-0.107	0.057	-0.318	-0.544	-0.152	0.110	0.096	-0.361	0.318	0.526	-0.332	-0.735	0.299	-0.061	-0.017	-0.033	-1.111	-0.374	-0.267	0.603	-0.990	0.503	0.305	0.289	0.657	0.757	3.906
-0.079	0.302	-0.092	0.079	-0.252	-0.338	-0.046	0.194	0.104	-0.317	0.244	0.394	-0.305	-0.731	0.134	-0.143	-0.120	-0.083	-1.047	-0.484	-0.322	0.766	-0.891	0.572	0.280	0.281	0.678	0.685	7.812
-0.017	0.319	-0.085	0.090	-0.192	-0.101	0.071	0.295	0.134	-0.265	0.175	0.229	-0.285	-0.726	-0.009	-0.171	-0.199	-0.124	-0.921	-0.542	-0.392	0.896	-0.808	0.571	0.237	0.260	0.632	0.567	11.719
0.030	0.362	-0.091	0.080	-0.145	0.141	0.203	0.401	0.192	-0.193	0.126	0.059	-0.257	-0.703	-0.125	-0.158	-0.263	-0.170	-0.758	-0.547	-0.459	0.980	-0.746	0.510	0.187	0.242	0.535	0.432	15.625
0.038	0.421	-0.117	0.045	-0.111	0.362	0.352	0.505	0.277	-0.096	0.104	-0.086	-0.211	-0.651	-0.213	-0.122	-0.323	-0.232	-0.587	-0.508	-0.504	1.006	-0.712	0.410	0.145	0.244	0.414	0.314	19.531
-0.009	0.485	-0.164	-0.012	-0.082	0.538	0.515	0.599	0.386	0.026	0.114	-0.182	-0.138	-0.569	-0.281	-0.081	-0.394	-0.319	-0.439	-0.439	-0.517	0.969	-0.713	0.293	0.125	0.282	0.296	0.240	23.438
-0.110	0.545	-0.232	-0.082	-0.047	0.658	0.686	0.681	0.507	0.169	0.153	-0.216	-0.041	-0.464	-0.337	-0.050	-0.483	-0.433	-0.338	-0.359	-0.500	0.865	-0.755	0.178	0.142	0.366	0.207	0.228	27.344
-0.251	0.600	-0.313	-0.146	0.006	0.715	0.854	0.748	0.628	0.320	0.213	-0.189	0.070	-0.356	-0.391	-0.040	-0.593	-0.567	-0.303	-0.286	-0.463	0.698	-0.847	0.079	0.200	0.494	0.168	0.280	31.250
-0.405	0.656	-0.392	-0.183	0.086	0.720	1.005	0.802	0.733	0.459	0.280	-0.121	0.177	-0.266	-0.443	-0.048	-0.721	-0.708	-0.339	-0.233	-0.423	0.479	-0.994	0.001	0.300	0.658	0.185	0.377	35.156
-0.539	0.723	-0.454	-0.170	0.196	0.689	1.123	0.842	0.805	0.565	0.332	-0.049	0.258	-0.213	-0.491	-0.065	-0.850	-0.841	-0.437	-0.204	-0.394	0.225	-1.195	-0.058	0.432	0.841	0.251	0.486	39.062
-0.631	0.817	-0.483	-0.088	0.333	0.645	1.190	0.868	0.829	0.616	0.345	-0.023	0.293	-0.211	-0.525	-0.069	-0.960	-0.945	-0.579	-0.191	-0.389	-0.042	-1.441	-0.107	0.588	1.028	0.348	0.565	42.969
-0.669	0.945	-0.469	0.070	0.483	0.608	1.190	0.877	0.797	0.591	0.295	-0.092	0.264	-0.265	-0.536	-0.040	-1.026	-1.005	-0.735	-0.178	-0.409	-0.297	-1.713	-0.154	0.761	1.216	0.452	0.574	46.875
-0.660	1.104	-0.414	0.298	0.619	0.591	1.108	0.870	0.714	0.480	0.174	-0.294	0.159	-0.375	-0.516	0.033	-1.032	-1.010	-0.880	-0.151	-0.456	-0.517	-1.984	-0.203	0.960	1.420	0.542	0.493	50.781
-0.627	1.273	-0.334	0.566	0.707	0.589	0.938	0.847	0.597	0.288	-0.006	-0.636	-0.027	-0.536	-0.471	0.149	-0.974	-0.962	-0.993	-0.108	-0.531	-0.687	-2.226	-0.251	1.207	1.682	0.608	0.331	54.688
-0.606	1.411	-0.261	0.826	0.708	0.583	0.681	0.817	0.486	0.035	-0.205	-1.091	-0.289	-0.750	-0.416	0.278	-0.872	-0.872	-1.074	-0.066	-0.645	-0.804	-2.417	-0.287	1.541	2.068	0.660	0.138	58.594
-0.640	1.461	-0.237	1.015	0.580	0.541	0.350	0.795	0.440	-0.235	-0.347	-1.583	-0.616	-1.022	-0.380	0.371	-0.767	-0.769	-1.143	-0.063	-0.819	-0.885	-2.542	-0.295	2.012	2.664	0.729	0.003	62.500
-0.775	1.359	-0.312	1.061	0.290	0.425	-0.026	0.803	0.534	-0.461	-0.334	-2.004	-0.989	-1.363	-0.405	0.361	-0.721	-0.692	-1.240	-0.160	-1.088	-0.959	-2.603	-0.254	2.671	3.562	0.866	0.046	66.406
-1.052	1.047	-0.530	0.900	-0.183	0.200	-0.407	0.868	0.849	-0.570	-0.050	-2.220	-1.385	-1.785	-0.542	0.174	-0.807	-0.690	-1.422	-0.426	-1.488	-1.072	-2.616	-0.144	3.557	4.844	1.133	0.399	70.312
-1.498	0.483	-0.926	0.487	-0.840	-0.156	-0.745	1.018	1.466	-0.487	0.610	-2.100	-1.777	-2.301	-0.839	-0.253	-1.093	-0.813	-1.750	-0.923	-2.055	-1.273	-2.614	0.047	4.691	6.565	1.593	1.184	74.219
-2.124	-0.343	-1.515	-0.196	-1.663	-0.648	-0.989	1.281	2.442	-0.149	1.723	-1.542	-2.136	-2.914	-1.336	-0.958	-1.632	-1.104	-2.273	-1.694	-2.807	-1.607	-2.638	0.322	6.061	8.739	2.293	2.482	78.125
-2.921	-1.409	-2.287	-1.132	-2.614	-1.260	-1.099	1.671	3.806	0.483	3.316	-0.494	-2.438	-3.615	-2.049	-1.943	-2.443	-1.591	-3.017	-2.742	-3.741	-2.103	-2.731	0.676	7.624	11.326	3.255	4.318	82.031
-3.862	-2.658	-3.211	-2.270	-3.643	-1.957	-1.051	2.194	5.541	1.408	5.350	1.027	-2.665	-4.386	-2.966	-3.172	-3.511	-2.279	-3.976	-4.035	-4.827	-2.765	-2.925	1.091	9.305	14.231	4.468	6.641	85.938
-4.902	-4.009	-4.237	-3.536	-4.687	-2.696	-0.842	2.838	7.590	2.590	7.725	2.934	-2.805	-5.192	-4.046	-4.571	-4.779	-3.143	-5.106	-5.499	-6.014	-3.571	-3.237	1.542	11.007	17.306	5.881	9.326	89.844
-5.986	-5.366	-5.298	-4.843	-5.686	-3.428	-0.491	3.578	9.852	3.956	10.285	5.078	-2.857	-5.995	-5.220	-6.043	-6.160	-4.132	-6.333	-7.036	-7.231	-4.472	-3.666	1.998	12.623	20.367	7.411	12.189	93.750
-7.048	-6.634	-6.324	-6.101	-6.586	-4.109	-0.036	4.375	12.195	5.405	12.843	7.273	-2.829	-6.750	-6.402	-7.479	-7.547	-5.174	-7.565	-8.533	-8.402	-5.402	-4.190	2.430	14.048	23.215	8.946	15.004	97.656
-8.018	-7.730	-7.245	-7.230	-7.342	-4.701	0.473	5.185	14.469	6.828	15.200	9.318	-2.732	-7.411	-7.498	-8.773	-8.829	-6.181	-8.709	-9.879	-9.451	-6.288	-4.768	2.807	15.193	25.651	10.367	17.540	101.562
-8.830	-8.592	-8.000	-8.163	-7.919	-5.177	0.984	5.956	16.520	8.118	17.179	11.031	-2.582	-7.938	-8.419	-9.837	-9.907	-7.066	-9.677	-10.980	-10.314	-7.061	-5.351	3.104	15.990	27.499	11.552	19.582	105.469
-9.425	-9.179	-8.538	-8.853	-8.293	-5.516	1.453	6.638	18.202	9.183	18.634	12.264	-2.393	-8.294	-9.088	-10.600	-10.700	-7.754	-10.405	-11.763	-10.938	-7.664	-5.883	3.302	16.393	28.621	12.395	20.959	109.375
-9.757	-9.471	-8.822	-9.266	-8.447	-5.700	1.848	7.183	19.391	9.956	19.469	12.923	-2.176	-8.447	-9.451	-11.021	-11.155	-8.185	-10.849	-12.181	-11.283	-8.055	-6.306	3.392	16.376	28.923	12.819	21.556	113.281
-9.792	-9.463	-8.829	-9.383	-8.371	-5.716	2.154	7.546	19.991	10.399	19.638	12.969	-1.933	-8.376	-9.478	-11.080	-11.244	-8.322	-10.986	-12.215	-11.327	-8.209	-6.572	3.368	15.931	28.360	12.778	21.325	117.188
-9.518	-9.161	-8.553	-9.197	-8.060	-5.557	2.372	7.692	19.941	10.501	19.146	12.418	-1.666	-8.067	-9.167	-10.781	-10.967	-8.155	-10.810	-11.867	-11.058	-8.113	-6.645	3.236	15.062	26.941	12.265	20.283	121.094
-8.939	-8.580	-8.006	-8.714	-7.516	-5.220	2.516	7.595	19.226	10.275	18.040	11.330	-1.370	-7.518	-8.543	-10.143	-10.344	-7.695	-10.329	-11.157	-10.480	-7.773	-6.508	3.006	13.792	24.726	11.313	18.504	125.000
-8.083	-7.742	-7.218	-7.951	-6.751	-4.717	2.606	7.247	17.875	9.755	16.402	9.806	-1.043	-6.743	-7.655	-9.201	-9.415	-6.976	-9.561	-10.123	-9.614	-7.203	-6.170	2.693	12.159	21.828	9.984	16.113	128.906
-7.004	-6.684	-6.239	-6.940	-5.789	-4.069	2.665	6.661	15.968	8.987	14.346	7.970	-0.685	-5.773	-6.570	-8.006	-8.237	-6.050	-8.539	-8.817	-8.497	-6.435	-5.661	2.317	10.228	18.404	8.368	13.273	132.812
-5.776	-5.453	-5.136	-5.729	-4.669	-3.313	2.711	5.869	13.632	8.031	12.009	5.962	-0.305	-4.654	-5.365	-6.621	-6.883	-4.985	-7.314	-7.304	-7.183	-5.514	-5.027	1.901	8.090	14.654	6.572	10.174	136.719
-4.489	-4.111	-3.982	-4.382	-3.445	-2.493	2.752	4.928	11.030	6.951	9.542	3.926	0.082	-3.449	-4.125	-5.122	-5.437	-3.859	-5.956	-5.665	-5.746	-4.499	-4.330	1.469	5.861	10.805	4.709	7.021	140.625
-3.240	-2.732	-2.857	-2.980	-2.184	-1.663	2.788	3.908	8.352	5.813	7.106	2.000	0.451	-2.233	-2.931	-3.598	-3.997	-2.757	-4.552	-3.992	-4.271	-3.459	-3.631	1.044	3.679	7.096	2.889	4.014	144.531
-2.118	-1.399	-1.832	-1.612	-0.965	-0.875	2.809	2.885	5.792	4.680	4.856	0.309	0.772	-1.085	-1.860	-2.143	-2.662	-1.759	-3.207	-2.388	-2.852	-2.469	-2.987	0.646	1.691	3.760	1.215	1.342	148.438
-1.195	-0.196	-0.965	-0.372	0.133	-0.177	2.797	1.938	3.536	3.613	2.938	-1.039	1.014	-0.087	-0.973	-0.854	-1.526	-0.934	-2.026	-0.957	-1.585	-1.604	-2.446	0.294	0.033	1.001	-0.227	-0.832	152.344
-0.520	0.796	-0.294	0.648	1.033	0.391	2.735	1.135	1.742	2.664	1.474	-1.964	1.148	0.690	-0.320	0.180	-0.674	-0.335	-1.107	0.202	-0.559	-0.930	-2.043	-0.002	-1.180	-1.020	-1.365	-2.384	156.250
-0.116	1.512	0.160	1.370	1.673	0.799	2.607	0.529	0.528	1.880	0.559	-2.411	1.152	1.189	0.067	0.883	-0.168	0.006	-0.528	1.003	0.154	-0.496	-1.802	-0.236	-1.871	-2.201	-2.147	-3.234	160.156
0.019	1.905	0.395	1.738	2.010	1.030	2.406	0.159	-0.036	1.298	0.249	-2.355	1.020	1.374	0.173	1.206	-0.042	0.079	-0.335	1.383	0.502	-0.332	-1.737	-0.406	-2.014	-2.507	-2.543	-3.352	164.062
-0.095	1.952	0.418	1.726	2.024	1.074	2.135	0.041	0.068	0.943	0.557	-1.802	0.757	1.238	0.006	1.127	-0.300	-0.105	-0.540	1.315	0.463	-0.441	-1.850	-0.519	-1.630	-1.968	-2.545	-2.759	167.969
-0.429	1.660	0.245	1.341	1.725	0.936	1.809	0.173	0.806	0.833	1.458	-0.787	0.385	0.799	-0.411	0.657	-0.914	-0.521	-1.120	0.809	0.048	-0.805	-2.132	-0.580	-0.787	-0.673	-2.170	-1.523	171.875
-0.945	1.061	-0.106	0.627	1.148	0.628	1.449	0.534	2.100	0.968	2.884	0.628	-0.063	0.100	-1.032	-0.156	-1.832	-1.129	-2.022	-0.088	-0.704	-1.384	-2.563	-0.600	0.412	1.241	-1.458	0.248	175.781
-1.602	0.210	-0.616	-0.344	0.350	0.173	1.083	1.090	3.839	1.336	4.732	2.357	-0.551	-0.794	-1.800	-1.239	-2.977	-1.884	-3.170	-1.291	-1.722	-2.121	-3.112	-0.592	1.845	3.605	-0.474	2.417	179.688
-2.358	-0.822	-1.265	-1.478	-0.596	-0.394	0.737	1.791	5.884	1.904	6.874	4.298	-1.042	-1.810	-2.647	-2.494	-4.261	-2.735	-4.470	-2.690	-2.917	-2.956	-3.739	-0.569	3.386	6.237	0.700	4.833	183.594
-3.167	-1.950	-2.028	-2.670	-1.607	-1.034	0.432	2.584	8.089	2.624	9.168	6.338	-1.506	-2.868	-3.505	-3.815	-5.590	-3.633	-5.827	-4.163	-4.191	-3.826	-4.399	-0.543	4.920	8.956	1.970	7.338	187.500
-3.982	-3.092	-2.873	-3.824	-2.605	-1.698	0.182	3.414	10.307	3.432	11.466	8.359	-1.924	-3.899	-4.312	-5.097	-6.871	-4.526	-7.146	-5.589	-5.443	-4.677	-5.046	-0.526	6.354	11.600	3.238	9.787	191.406
-4.756	-4.165	-3.762	-4.858	-3.519	-2.341	-0.011	4.229	12.405	4.256	13.629	10.251	-2.288	-4.842	-5.019	-6.247	-8.023	-5.368	-8.344	-6.866	-6.589	-5.462	-5.636	-0.528	7.622	14.030	4.414	12.051	195.312
-5.449	-5.106	-4.649	-5.717	-4.295	-2.920	-0.151	4.984	14.274	5.025	15.539	11.915	-2.599	-5.655	-5.595	-7.199	-8.983	-6.119	-9.356	-7.919	-7.562	-6.148	-6.132	-0.555	8.688	16.144	5.424	14.027	199.219
-6.025	-5.865	-5.489	-6.371	-4.899	-3.404	-0.247	5.643	15.833	5.673	17.102	13.273	-2.862	-6.311	-6.024	-7.913	-9.707	-6.746	-10.136	-8.710	-8.321	-6.711	-6.506	-0.605	9.543	17.876	6.220	15.642	203.125
-6.462	-6.416	-6.236	-6.817	-5.318	-3.778	-0.311	6.183	17.033	6.155	18.258	14.270	-3.085	-6.798	-6.308	-8.381	-10.180	-7.229	-10.663	-9.231	-8.848	-7.136	-6.742	-0.671	10.199	19.193	6.781	16.851	207.031
-6.747	-6.757	-6.858	-7.073	-5.557	-4.041	-0.350	6.591	17.860	6.449	18.980	14.879	-3.273	-7.118	-6.458	-8.622	-10.411	-7.560	-10.937	-9.503	-9.149	-7.415	-6.836	-0.740	10.681	20.097	7.114	17.641	210.938
-6.881	-6.904	-7.337	-7.168	-5.637	-4.208	-0.367	6.864	18.324	6.558	19.276	15.098	-3.424	-7.278	-6.494	-8.673	-10.430	-7.743	-10.978	-9.570	-9.244	-7.545	-6.796	-0.793	11.018	20.613	7.251	18.022	214.844
-6.876	-6.894	-7.669	-7.139	-5.587	-4.301	-0.355	7.011	18.459	6.510	19.182	14.954	-3.532	-7.293	-6.435	-8.582	-10.282	-7.788	-10.822	-9.482	-9.164	-7.529	-6.633	-0.811	11.238	20.786	7.238	18.026	218.750
-6.756	-6.773	-7.866	-7.022	-5.441	-4.343	-0.305	7.044	18.316	6.353	18.758	14.494	-3.583	-7.176	-6.304	-8.398	-10.021	-7.712	-10.516	-9.291	-8.946	-7.373	-6.366	-0.772	11.359	20.668	7.131	17.703	222.656
-6.555	-6.593	-7.953	-6.851	-5.230	-4.353	-0.202	6.985	17.948	6.141	18.078	13.780	-3.560	-6.944	-6.118	-8.168	-9.696	-7.534	-10.115	-9.047	-8.627	-7.089	-6.013	-0.661	11.392	20.320	6.985	17.114	226.562
-6.312	-6.405	-7.960	-6.656	-4.984	-4.340	-0.031	6.855	17.414	5.930	17.224	12.886	-3.446	-6.610	-5.895	-7.928	-9.353	-7.271	-9.671	-8.788	-8.246	-6.698	-5.594	-0.467	11.339	19.799	6.848	16.329	230.469
-6.067	-6.250	-7.916	-6.461	-4.722	-4.301	0.216	6.677	16.762	5.766	16.274	11.889	-3.227	-6.188	-5.648	-7.705	-9.027	-6.942	-9.231	-8.544	-7.839	-6.224	-5.128	-0.186	11.199	19.158	6.755	15.420	234.375
-5.855	-6.157	-7.846	-6.289	-4.459	-4.226	0.540	6.470	16.035	5.676	15.298	10.861	-2.895	-5.692	-5.390	-7.516	-8.741	-6.565	-8.834	-8.331	-7.440	-5.698	-4.637	0.175	10.970	18.443	6.730	14.460	238.281
-5.699	-6.138	-7.768	-6.153	-4.201	-4.100	0.934	6.252	15.265	5.673	14.348	9.865	-2.452	-5.139	-5.135	-7.371	-8.508	-6.164	-8.504	-8.160	-7.074	-5.152	-4.145	0.605	10.654	17.695	6.784	13.513	242.188
-5.607	-6.189	-7.688	-6.060	-3.949	-3.913	1.383	6.031	14.476	5.747	13.462	8.949	-1.912	-4.547	-4.895	-7.270	-8.333	-5.760	-8.257	-8.030	-6.761	-4.618	-3.677	1.085	10.262	16.943	6.916	12.633	246.094
-5.572	-6.294	-7.605	-6.009	-3.705	-3.666	1.861	5.811	13.686	5.874	12.658	8.146	-1.294	-3.933	-4.681	-7.212	-8.214	-5.381	-8.094	-7.934	-6.508	-4.124	-3.256	1.591	9.813	16.214	7.118	11.861	250.000
-5.578	-6.430	-7.514	-5.994	-3.471	-3.375	2.341	5.594	12.911	6.021	11.939	7.475	-0.627	-3.317	-4.502	-7.190	-8.146	-5.048	-8.005	-7.863	-6.311	-3.689	-2.897	2.098	9.339	15.526	7.371	11.219	253.906
-5.605	-6.571	-7.406	-6.000	-3.254	-3.069	2.791	5.378	12.167	6.152	11.302	6.941	0.057	-2.719	-4.363	-7.198	-8.117	-4.781	-7.973	-7.808	-6.159	-3.322	-2.611	2.584	8.877	14.897	7.655	10.717	257.812
-5.635	-6.698	-7.279	-6.015	-3.064	-2.786	3.182	5.166	11.473	6.238	10.739	6.542	0.723	-2.156	-4.268	-7.231	-8.117	-4.589	-7.979	-7.760	-6.035	-3.027	-2.401	3.028	8.467	14.340	7.945	10.351	261.719
-5.662	-6.802	-7.133	-6.030	-2.916	-2.561	3.494	4.965	10.855	6.259	10.246	6.268	1.342	-1.645	-4.216	-7.288	-8.136	-4.473	-8.001	-7.720	-5.926	-2.802	-2.262	3.415	8.148	13.872	8.219	10.108	265.625
-5.688	-6.892	-6.976	-6.044	-2.823	-2.424	3.714	4.790	10.343	6.212	9.830	6.113	1.886	-1.202	-4.208	-7.371	-8.167	-4.426	-8.025	-7.692	-5.823	-2.640	-2.189	3.734	7.949	13.507	8.461	9.974	269.531
-5.727	-6.985	-6.821	-6.063	-2.797	-2.387	3.841	4.663	9.970	6.110	9.504	6.071	2.337	-0.840	-4.243	-7.486	-8.209	-4.438	-8.045	-7.685	-5.724	-2.539	-2.176	3.981	7.886	13.259	8.660	9.933	273.438
-5.801	-7.106	-6.684	-6.104	-2.842	-2.446	3.885	4.612	9.769	5.981	9.295	6.136	2.684	-0.568	-4.324	-7.640	-8.267	-4.496	-8.063	-7.715	-5.636	-2.496	-2.219	4.156	7.961	13.143	8.818	9.974	277.344
-5.934	-7.279	-6.583	-6.185	-2.956	-2.584	3.869	4.664	9.771	5.862	9.234	6.309	2.926	-0.393	-4.455	-7.844	-8.353	-4.595	-8.094	-7.794	-5.572	-2.513	-2.321	4.265	8.164	13.170	8.939	10.088	281.250
-6.145	-7.519	-6.530	-6.323	-3.132	-2.778	3.819	4.840	10.001	5.795	9.352	6.585	3.069	-0.314	-4.641	-8.104	-8.481	-4.735	-8.158	-7.933	-5.547	-2.591	-2.484	4.315	8.473	13.345	9.034	10.269	285.156
-6.443	-7.828	-6.536	-6.530	-3.354	-3.000	3.768	5.155	10.468	5.820	9.674	6.961	3.126	-0.326	-4.888	-8.426	-8.669	-4.923	-8.275	-8.141	-5.574	-2.731	-2.713	4.315	8.865	13.666	9.112	10.512	289.062
-6.821	-8.199	-6.604	-6.805	-3.602	-3.227	3.745	5.607	11.165	5.966	10.206	7.422	3.118	-0.412	-5.204	-8.811	-8.928	-5.168	-8.461	-8.416	-5.658	-2.928	-3.008	4.280	9.314	14.123	9.183	10.809	292.969
-7.263	-8.611	-6.731	-7.136	-3.854	-3.442	3.773	6.180	12.065	6.248	10.937	7.948	3.068	-0.551	-5.592	-9.251	-9.263	-5.479	-8.719	-8.750	-5.792	-3.173	-3.367	4.220	9.798	14.695	9.249	11.149	296.875
-7.742	-9.040	-6.908	-7.501	-4.087	-3.636	3.869	6.844	13.117	6.666	11.831	8.509	2.999	-0.714	-6.056	-9.735	-9.667	-5.857	-9.040	-9.127	-5.964	-3.452	-3.782	4.151	10.301	15.352	9.313	11.517	300.781
-8.229	-9.459	-7.121	-7.873	-4.281	-3.805	4.035	7.556	14.257	7.200	12.829	9.070	2.936	-0.870	-6.589	-10.242	-10.121	-6.295	-9.402	-9.523	-6.149	-3.746	-4.238	4.087	10.812	16.060	9.374	11.893	304.688
-8.701	-9.848	-7.354	-8.219	-4.422	-3.952	4.267	8.271	15.409	7.820	13.863	9.596	2.897	-0.993	-7.181	-10.752	-10.599	-6.777	-9.778	-9.913	-6.324	-4.036	-4.714	4.041	11.326	16.787	9.436	12.261	308.594
-9.146	-10.196	-7.593	-8.516	-4.505	-4.080	4.550	8.942	16.499	8.488	14.857	10.057	2.894	-1.060	-7.812	-11.240	-11.072	-7.285	-10.140	-10.272	-6.467	-4.306	-5.188	4.026	11.837	17.503	9.507	12.609	312.500
-9.561	-10.502	-7.827	-8.745	-4.533	-4.193	4.867	9.531	17.465	9.165	15.746	10.436	2.936	-1.062	-8.457	-11.689	-11.518	-7.799	-10.463	-10.580	-6.564	-4.542	-5.633	4.052	12.342	18.189	9.600	12.933	316.406
-9.958	-10.773	-8.050	-8.905	-4.519	-4.296	5.199	10.014	18.262	9.818	16.483	10.731	3.025	-0.998	-9.091	-12.090	-11.921	-8.302	-10.730	-10.830	-6.614	-4.739	-6.024	4.127	12.837	18.836	9.735	13.239	320.312
-10.350	-11.024	-8.260	-9.006	-4.483	-4.392	5.529	10.379	18.873	10.426	17.048	10.958	3.158	-0.882	-9.689	-12.441	-12.278	-8.783	-10.933	-11.022	-6.626	-4.891	-6.339	4.258	13.315	19.438	9.933	13.541	324.219
-10.755	-11.273	-8.462	-9.071	-4.447	-4.484	5.846	10.630	19.301	10.977	17.444	11.144	3.330	-0.734	-10.232	-12.750	-12.596	-9.235	-11.071	-11.169	-6.618	-5.000	-6.560	4.444	13.763	19.997	10.213	13.858	328.125
-11.179	-11.532	-8.662	-9.127	-4.434	-4.577	6.144	10.785	19.572	11.471	17.702	11.325	3.535	-0.578	-10.710	-13.029	-12.886	-9.657	-11.149	-11.288	-6.612	-5.063	-6.677	4.684	14.168	20.507	10.586	14.204	332.031
-11.618	-11.807	-8.866	-9.200	-4.456	-4.674	6.419	10.868	19.719	11.913	17.860	11.539	3.765	-0.435	-11.123	-13.292	-13.160	-10.045	-11.173	-11.399	-6.629	-5.078	-6.687	4.970	14.514	20.962	11.046	14.588	335.938
-12.051	-12.089	-9.077	-9.306	-4.517	-4.776	6.669	10.906	19.781	12.305	17.963	11.810	4.011	-0.321	-11.477	-13.542	-13.424	-10.399	-11.150	-11.513	-6.682	-5.040	-6.597	5.288	14.779	21.343	11.572	15.001	339.844
-12.451	-12.361	-9.289	-9.446	-4.606	-4.882	6.894	10.925	19.788	12.645	18.045	12.149	4.265	-0.240	-11.782	-13.778	-13.673	-10.714	-11.084	-11.633	-6.770	-4.946	-6.424	5.620	14.948	21.625	12.124	15.424	343.750
-12.787	-12.592	-9.490	-9.603	-4.704	-4.986	7.088	10.943	19.765	12.922	18.124	12.545	4.514	-0.188	-12.048	-13.986	-13.894	-10.983	-10.978	-11.750	-6.877	-4.794	-6.195	5.941	15.004	21.781	12.648	15.820	347.656
-13.035	-12.750	-9.664	-9.748	-4.780	-5.073	7.244	10.976	19.727	13.116	18.203	12.964	4.743	-0.153	-12.279	-14.145	-14.066	-11.199	-10.837	-11.844	-6.980	-4.585	-5.943	6.226	14.942	21.786	13.085	16.145	351.562
-13.187	-12.802	-9.789	-9.841	-4.806	-5.127	7.349	11.029	19.681	13.203	18.269	13.357	4.936	-0.122	-12.470	-14.231	-14.168	-11.353	-10.661	-11.892	-7.045	-4.330	-5.703	6.448	14.767	21.627	13.380	16.354	355.469
-13.251	-12.727	-9.848	-9.847	-4.761	-5.126	7.393	11.107	19.633	13.162	18.302	13.663	5.073	-0.087	-12.611	-14.225	-14.180	-11.440	-10.456	-11.872	-7.045	-4.042	-5.507	6.584	14.500	21.308	13.490	16.412	359.375
-13.251	-12.517	-9.828	-9.745	-4.637	-5.054	7.367	11.210	19.589	12.979	18.282	13.826	5.134	-0.047	-12.689	-14.116	-14.093	-11.458	-10.227	-11.772	-6.963	-3.743	-5.375	6.619	14.174	20.854	13.395	16.299	363.281
-13.220	-12.184	-9.725	-9.531	-4.444	-4.901	7.265	11.336	19.557	12.654	18.199	13.803	5.103	-0.013	-12.691	-13.905	-13.909	-11.412	-9.983	-11.595	-6.804	-3.453	-5.313	6.551	13.836	20.313	13.102	16.023	367.188
-13.190	-11.761	-9.547	-9.229	-4.210	-4.673	7.091	11.485	19.550	12.207	18.055	13.578	4.972	-0.003	-12.617	-13.610	-13.645	-11.314	-9.738	-11.360	-6.590	-3.196	-5.315	6.388	13.535	19.751	12.645	15.617	371.094
-13.187	-11.298	-9.314	-8.881	-3.973	-4.388	6.855	11.654	19.580	11.674	17.870	13.171	4.742	-0.041	-12.477	-13.267	-13.331	-11.179	-9.511	-11.103	-6.363	-2.991	-5.360	6.153	13.321	19.241	12.082	15.144	375.000
-13.227	-10.855	-9.057	-8.548	-3.778	-4.082	6.581	11.838	19.659	11.110	17.683	12.640	4.429	-0.149	-12.294	-12.918	-13.005	-11.028	-9.326	-10.868	-6.176	-2.856	-5.426	5.877	13.230	18.850	11.483	14.682	378.906
-13.312	-10.494	-8.810	-8.294	-3.670	-3.796	6.295	12.032	19.795	10.580	17.540	12.079	4.061	-0.340	-12.100	-12.614	-12.710	-10.879	-9.209	-10.704	-6.078	-2.801	-5.489	5.594	13.276	18.631	10.922	14.322	382.812
-13.432	-10.269	-8.608	-8.177	-3.680	-3.574	6.029	12.227	19.986	10.148	17.492	11.601	3.675	-0.615	-11.925	-12.400	-12.484	-10.748	-9.182	-10.651	-6.110	-2.832	-5.537	5.338	13.451	18.603	10.459	14.142	386.719
-13.569	-10.215	-8.478	-8.235	-3.825	-3.450	5.814	12.413	20.216	9.868	17.576	11.319	3.313	-0.961	-11.794	-12.307	-12.353	-10.640	-9.256	-10.735	-6.291	-2.944	-5.564	5.132	13.721	18.751	10.136	14.196	390.625
-13.697	-10.337	-8.432	-8.476	-4.100	-3.443	5.672	12.574	20.458	9.769	17.805	11.318	3.013	-1.351	-11.717	-12.346	-12.324	-10.553	-9.428	-10.956	-6.614	-3.127	-5.571	4.988	14.030	19.018	9.966	14.496	394.531
-13.791	-10.612	-8.463	-8.877	-4.480	-3.551	5.611	12.692	20.668	9.851	18.156	11.634	2.801	-1.750	-11.682	-12.499	-12.381	-10.467	-9.674	-11.288	-7.046	-3.357	-5.559	4.903	14.309	19.319	9.928	15.007	398.438
-13.827	-10.988	-8.551	-9.384	-4.922	-3.751	5.625	12.747	20.794	10.078	18.566	12.234	2.693	-2.118	-11.663	-12.728	-12.486	-10.354	-9.951	-11.681	-7.532	-3.603	-5.523	4.865	14.488	19.551	9.978	15.640	402.344
-13.788	-11.393	-8.658	-9.925	-5.373	-4.003	5.692	12.722	20.776	10.385	18.938	13.018	2.683	-2.417	-11.620	-12.972	-12.582	-10.172	-10.201	-12.070	-8.008	-3.826	-5.447	4.858	14.511	19.612	10.053	16.273	406.250
-13.667	-11.752	-8.743	-10.421	-5.780	-4.259	5.780	12.601	20.565	10.686	19.155	13.826	2.753	-2.616	-11.508	-13.167	-12.610	-9.878	-10.361	-12.384	-8.408	-3.983	-5.306	4.864	14.340	19.420	10.083	16.762	410.156
-13.467	-11.994	-8.767	-10.800	-6.092	-4.468	5.849	12.381	20.125	10.891	19.103	14.467	2.872	-2.699	-11.287	-13.252	-12.512	-9.434	-10.374	-12.566	-8.679	-4.035	-5.068	4.868	13.966	18.931	10.006	16.969	414.062
-13.194	-12.068	-8.698	-11.009	-6.271	-4.591	5.863	12.070	19.446	10.920	18.689	14.750	3.000	-2.665	-10.930	-13.180	-12.247	-8.817	-10.201	-12.576	-8.789	-3.953	-4.706	4.862	13.409	18.141	9.778	16.783	417.969
-12.861	-11.948	-8.518	-11.020	-6.298	-4.596	5.795	11.688	18.547	10.718	17.864	14.519	3.099	-2.529	-10.426	-12.929	-11.793	-8.021	-9.828	-12.401	-8.733	-3.723	-4.205	4.840	12.710	17.084	9.376	16.144	421.875
-12.477	-11.633	-8.221	-10.830	-6.169	-4.472	5.630	11.265	17.476	10.267	16.635	13.687	3.131	-2.319	-9.784	-12.501	-11.158	-7.065	-9.265	-12.058	-8.527	-3.350	-3.570	4.796	11.923	15.826	8.802	15.048	425.781
-12.045	-11.146	-7.817	-10.460	-5.896	-4.219	5.367	10.838	16.299	9.579	15.062	12.250	3.068	-2.071	-9.031	-11.920	-10.367	-5.990	-8.551	-11.584	-8.211	-2.861	-2.830	4.724	11.102	14.444	8.076	13.550	429.688
-11.568	-10.523	-7.323	-9.945	-5.503	-3.854	5.021	10.436	15.090	8.701	13.252	10.294	2.894	-1.824	-8.204	-11.226	-9.467	-4.849	-7.738	-11.028	-7.829	-2.296	-2.034	4.614	10.292	13.011	7.237	11.755	433.594
-11.042	-9.810	-6.765	-9.331	-5.022	-3.404	4.613	10.085	13.918	7.699	11.341	7.981	2.610	-1.608	-7.344	-10.465	-8.510	-3.705	-6.886	-10.440	-7.429	-1.702	-1.243	4.453	9.517	11.588	6.328	9.800	437.500
-10.465	-9.054	-6.171	-8.664	-4.486	-2.903	4.171	9.792	12.834	6.647	9.470	5.521	2.231	-1.441	-6.492	-9.683	-7.549	-2.615	-6.049	-9.861	-7.043	-1.126	-0.522	4.232	8.782	10.211	5.396	7.837	441.406
-9.840	-8.297	-5.572	-7.984	-3.924	-2.385	3.723	9.552	11.865	5.615	7.769	3.146	1.789	-1.327	-5.682	-8.917	-6.629	-1.630	-5.270	-9.318	-6.692	-0.609	0.082	3.946	8.072	8.894	4.483	6.007	445.312
-9.179	-7.573	-4.995	-7.324	-3.363	-1.884	3.297	9.344	11.010	4.661	6.333	1.068	1.323	-1.256	-4.941	-8.194	-5.785	-0.785	-4.577	-8.822	-6.375	-0.173	0.538	3.601	7.362	7.637	3.626	4.428	449.219
-8.500	-6.907	-4.468	-6.705	-2.821	-1.423	2.914	9.140	10.249	3.826	5.219	-0.546	0.881	-1.205	-4.285	-7.532	-5.039	-0.100	-3.981	-8.370	-6.083	0.172	0.841	3.210	6.626	6.434	2.856	3.182	453.125
-7.834	-6.315	-4.009	-6.137	-2.310	-1.016	2.591	8.911	9.546	3.133	4.442	-1.593	0.506	-1.151	-3.725	-6.938	-4.404	0.420	-3.484	-7.952	-5.797	0.433	1.008	2.794	5.846	5.283	2.193	2.309	457.031
-7.215	-5.805	-3.635	-5.625	-1.836	-0.666	2.342	8.634	8.867	2.591	3.981	-2.043	0.235	-1.070	-3.267	-6.416	-3.887	0.782	-3.081	-7.556	-5.504	0.626	1.071	2.383	5.019	4.197	1.653	1.807	460.938
-6.675	-5.380	-3.352	-5.170	-1.400	-0.366	2.174	8.300	8.188	2.198	3.794	-1.934	0.091	-0.945	-2.917	-5.969	-3.490	1.001	-2.765	-7.175	-5.194	0.769	1.063	2.003	4.160	3.200	1.240	1.643	464.844
-6.240	-5.038	-3.161	-4.771	-0.999	-0.104	2.090	7.915	7.506	1.946	3.823	-1.360	0.081	-0.772	-2.678	-5.601	-3.213	1.094	-2.533	-6.813	-4.872	0.881	1.015	1.679	3.301	2.328	0.953	1.755	468.750
-5.921	-4.774	-3.055	-4.429	-0.628	0.136	2.093	7.501	6.835	1.823	4.010	-0.450	0.198	-0.558	-2.552	-5.315	-3.056	1.081	-2.381	-6.481	-4.550	0.975	0.943	1.425	2.483	1.618	0.786	2.070	472.656
-5.715	-4.581	-3.021	-4.151	-0.286	0.364	2.174	7.088	6.205	1.817	4.302	0.652	0.420	-0.319	-2.536	-5.117	-3.014	0.983	-2.307	-6.197	-4.245	1.058	0.853	1.250	1.749	1.099	0.727	2.508	476.562
-5.607	-4.451	-3.043	-3.940	0.030	0.584	2.322	6.710	5.654	1.911	4.650	1.803	0.717	-0.076	-2.621	-5.009	-3.082	0.819	-2.309	-5.981	-3.977	1.135	0.745	1.151	1.143	0.789	0.761	2.997	480.469
-5.574	-4.376	-3.104	-3.804	0.317	0.791	2.517	6.394	5.212	2.083	5.015	2.879	1.054	0.151	-2.788	-4.992	-3.246	0.610	-2.381	-5.847	-3.758	1.205	0.616	1.120	0.696	0.687	0.873	3.473	484.375
-5.597	-4.349	-3.191	-3.745	0.568	0.972	2.733	6.154	4.900	2.308	5.364	3.786	1.395	0.345	-3.012	-5.059	-3.489	0.380	-2.510	-5.798	-3.593	1.272	0.469	1.147	0.428	0.776	1.049	3.894	488.281
-5.663	-4.363	-3.295	-3.762	0.772	1.110	2.942	5.987	4.719	2.555	5.671	4.470	1.712	0.499	-3.261	-5.197	-3.787	0.149	-2.683	-5.825	-3.478	1.337	0.317	1.220	0.345	1.026	1.276	4.235	492.188
-5.766	-4.416	-3.412	-3.848	0.918	1.186	3.116	5.877	4.652	2.794	5.918	4.913	1.981	0.612	-3.506	-5.388	-4.112	-0.062	-2.880	-5.909	-3.403	1.406	0.178	1.330	0.437	1.397	1.543	4.492	496.094
-5.904	-4.503	-3.541	-3.992	0.999	1.192	3.232	5.800	4.671	2.995	6.095	5.131	2.187	0.691	-3.723	-5.610	-4.435	-0.237	-3.083	-6.021	-3.352	1.483	0.073	1.468	0.679	1.845	1.839	4.677	500.000
-6.075	-4.619	-3.685	-4.175	1.012	1.128	3.278	5.725	4.741	3.136	6.201	5.169	2.324	0.745	-3.899	-5.838	-4.727	-0.367	-3.271	-6.129	-3.309	1.571	0.018	1.625	1.037	2.327	2.150	4.814	503.906
-6.269	-4.756	-3.842	-4.375	0.965	1.009	3.253	5.630	4.828	3.201	6.239	5.086	2.393	0.783	-4.032	-6.051	-4.966	-0.446	-3.427	-6.204	-3.257	1.671	0.022	1.792	1.463	2.798	2.458	4.926	507.812
-6.473	-4.903	-4.009	-4.566	0.875	0.862	3.170	5.501	4.903	3.187	6.218	4.941	2.403	0.815	-4.129	-6.228	-5.135	-0.477	-3.539	-6.222	-3.184	1.785	0.080	1.957	1.907	3.217	2.744	5.034	511.719
-6.665	-5.044	-4.177	-4.723	0.769	0.719	3.049	5.335	4.945	3.100	6.150	4.791	2.369	0.849	-4.202	-6.355	-5.226	-0.468	-3.603	-6.170	-3.077	1.911	0.182	2.108	2.315	3.541	2.983	5.146	515.625
-6.827	-5.160	-4.332	-4.824	0.679	0.613	2.915	5.142	4.941	2.959	6.044	4.671	2.306	0.891	-4.260	-6.422	-5.241	-0.431	-3.619	-6.043	-2.927	2.049	0.310	2.231	2.634	3.734	3.151	5.252	519.531
-6.940	-5.232	-4.457	-4.849	0.637	0.568	2.796	4.938	4.881	2.786	5.909	4.599	2.235	0.949	-4.306	-6.425	-5.187	-0.381	-3.593	-5.845	-2.726	2.196	0.449	2.315	2.822	3.762	3.229	5.333	523.438
-6.989	-5.243	-4.533	-4.788	0.668	0.602	2.714	4.739	4.758	2.605	5.745	4.568	2.173	1.031	-4.335	-6.363	-5.076	-0.331	-3.531	-5.586	-2.469	2.352	0.586	2.352	2.850	3.601	3.202	5.357	527.344
-6.966	-5.183	-4.545	-4.639	0.788	0.716	2.683	4.557	4.566	2.437	5.548	4.554	2.135	1.145	-4.336	-6.241	-4.921	-0.287	-3.437	-5.279	-2.152	2.516	0.715	2.342	2.704	3.241	3.069	5.290	531.250
-6.871	-5.049	-4.484	-4.412	0.995	0.901	2.707	4.397	4.299	2.293	5.311	4.523	2.132	1.300	-4.297	-6.063	-4.733	-0.251	-3.313	-4.939	-1.779	2.688	0.839	2.289	2.394	2.695	2.841	5.107	535.156
-6.714	-4.846	-4.350	-4.125	1.273	1.138	2.778	4.257	3.956	2.175	5.024	4.439	2.170	1.498	-4.208	-5.839	-4.520	-0.216	-3.154	-4.581	-1.361	2.869	0.965	2.209	1.949	1.998	2.540	4.795	539.062
-6.515	-4.589	-4.148	-3.801	1.593	1.401	2.878	4.127	3.538	2.074	4.680	4.273	2.247	1.734	-4.070	-5.580	-4.286	-0.168	-2.954	-4.218	-0.917	3.057	1.105	2.117	1.415	1.210	2.202	4.365	542.969
-6.298	-4.301	-3.898	-3.469	1.917	1.660	2.983	3.998	3.056	1.971	4.274	4.012	2.356	1.996	-3.887	-5.301	-4.033	-0.093	-2.709	-3.865	-0.473	3.248	1.265	2.034	0.852	0.406	1.868	3.846	546.875
-6.086	-4.006	-3.621	-3.156	2.205	1.887	3.064	3.858	2.530	1.844	3.814	3.662	2.483	2.266	-3.674	-5.016	-3.767	0.022	-2.418	-3.532	-0.061	3.432	1.443	1.976	0.321	-0.330	1.578	3.289	550.781
-5.901	-3.728	-3.344	-2.884	2.426	2.057	3.095	3.701	1.989	1.672	3.312	3.243	2.610	2.521	-3.449	-4.742	-3.495	0.178	-2.089	-3.231	0.291	3.594	1.627	1.953	-0.123	-0.922	1.368	2.752	554.688
-5.754	-3.490	-3.090	-2.666	2.561	2.157	3.057	3.530	1.465	1.443	2.790	2.785	2.716	2.739	-3.228	-4.495	-3.226	0.371	-1.738	-2.971	0.563	3.716	1.800	1.968	-0.442	-1.316	1.259	2.291	558.594
-5.651	-3.305	-2.877	-2.505	2.609	2.183	2.939	3.351	0.992	1.153	2.272	2.323	2.783	2.904	-3.025	-4.287	-2.973	0.587	-1.384	-2.755	0.745	3.784	1.940	2.015	-0.618	-1.487	1.259	1.947	562.500
-5.587	-3.180	-2.708	-2.398	2.582	2.145	2.745	3.179	0.599	0.811	1.781	1.884	2.796	3.008	-2.847	-4.124	-2.746	0.807	-1.052	-2.586	0.841	3.787	2.033	2.081	-0.660	-1.449	1.357	1.741	566.406
-5.554	-3.111	-2.580	-2.332	2.506	2.066	2.487	3.030	0.306	0.434	1.338	1.489	2.745	3.052	-2.696	-4.008	-2.549	1.016	-0.765	-2.460	0.867	3.726	2.074	2.148	-0.597	-1.248	1.525	1.664	570.312
-5.540	-3.084	-2.479	-2.294	2.408	1.968	2.189	2.922	0.121	0.046	0.960	1.145	2.628	3.043	-2.566	-3.930	-2.382	1.198	-0.535	-2.373	0.843	3.613	2.071	2.198	-0.476	-0.954	1.727	1.689	574.219
-5.533	-3.082	-2.389	-2.268	2.315	1.879	1.881	2.866	0.044	-0.324	0.661	0.853	2.455	2.994	-2.451	-3.879	-2.238	1.347	-0.368	-2.319	0.790	3.468	2.040	2.216	-0.346	-0.650	1.919	1.770	578.125
-5.526	-3.085	-2.294	-2.246	2.244	1.815	1.593	2.866	0.065	-0.646	0.452	0.610	2.239	2.921	-2.341	-3.843	-2.107	1.457	-0.258	-2.290	0.723	3.316	2.004	2.193	-0.253	-0.411	2.061	1.856	582.031
-5.519	-3.076	-2.188	-2.222	2.201	1.788	1.352	2.919	0.171	-0.891	0.345	0.413	2.003	2.838	-2.229	-3.808	-1.981	1.530	-0.190	-2.283	0.654	3.184	1.979	2.125	-0.231	-0.297	2.120	1.903	585.938
-5.513	-3.046	-2.072	-2.198	2.185	1.797	1.181	3.012	0.343	-1.035	0.348	0.266	1.774	2.759	-2.108	-3.768	-1.853	1.570	-0.147	-2.294	0.586	3.092	1.973	2.019	-0.296	-0.341	2.077	1.880	589.844
-5.516	-2.991	-1.954	-2.180	2.185	1.831	1.090	3.126	0.559	-1.062	0.463	0.173	1.577	2.692	-1.973	-3.721	-1.725	1.581	-0.111	-2.319	0.519	3.053	1.984	1.882	-0.451	-0.551	1.926	1.773	593.750
-5.530	-2.917	-1.848	-2.175	2.190	1.876	1.079	3.240	0.797	-0.970	0.683	0.143	1.434	2.645	-1.820	-3.667	-1.603	1.573	-0.072	-2.355	0.452	3.068	2.000	1.726	-0.686	-0.912	1.676	1.583	597.656
-5.548	-2.828	-1.765	-2.188	2.189	1.914	1.136	3.328	1.026	-0.769	0.986	0.179	1.357	2.615	-1.648	-3.610	-1.493	1.557	-0.027	-2.397	0.388	3.129	2.007	1.561	-0.986	-1.392	1.346	1.324	601.562
-5.554	-2.730	-1.713	-2.216	2.177	1.931	1.241	3.369	1.218	-0.491	1.332	0.276	1.350	2.603	-1.457	-3.548	-1.399	1.547	0.022	-2.438	0.327	3.226	1.998	1.394	-1.334	-1.955	0.963	1.017	605.469
-5.522	-2.623	-1.690	-2.249	2.155	1.918	1.369	3.347	1.337	-0.178	1.667	0.415	1.402	2.603	-1.252	-3.477	-1.320	1.559	0.066	-2.469	0.278	3.345	1.973	1.230	-1.716	-2.562	0.556	0.681	609.375
-5.424	-2.502	-1.684	-2.269	2.131	1.880	1.494	3.256	1.352	0.115	1.927	0.566	1.498	2.613	-1.038	-3.388	-1.249	1.606	0.094	-2.478	0.248	3.479	1.941	1.075	-2.121	-3.180	0.155	0.331	613.281
-5.241	-2.356	-1.677	-2.252	2.120	1.829	1.594	3.098	1.237	0.334	2.048	0.692	1.616	2.632	-0.821	-3.270	-1.174	1.698	0.099	-2.456	0.248	3.622	1.924	0.933	-2.539	-3.781	-0.215	-0.021	617.188
-4.969	-2.176	-1.652	-2.174	2.141	1.785	1.656	2.888	0.977	0.432	1.977	0.751	1.736	2.667	-0.604	-3.113	-1.084	1.834	0.077	-2.396	0.288	3.777	1.940	0.808	-2.960	-4.342	-0.534	-0.372	621.094
-4.625	-1.953	-1.592	-2.019	2.212	1.776	1.675	2.649	0.574	0.382	1.686	0.713	1.843	2.724	-0.392	-2.917	-0.969	2.006	0.029	-2.294	0.379	3.948	2.009	0.710	-3.369	-4.845	-0.789	-0.717	625.000
-4.249	-1.689	-1.491	-1.781	2.343	1.823	1.656	2.407	0.044	0.177	1.176	0.561	1.929	2.811	-0.185	-2.686	-0.830	2.196	-0.037	-2.154	0.524	4.141	2.138	0.648	-3.750	-5.273	-0.971	-1.052	628.906
-3.893	-1.396	-1.353	-1.473	2.536	1.937	1.609	2.184	-0.577	-0.166	0.479	0.300	1.994	2.935	0.015	-2.439	-0.675	2.384	-0.107	-1.987	0.721	4.358	2.323	0.631	-4.082	-5.612	-1.075	-1.366	632.812
-3.613	-1.099	-1.192	-1.120	2.777	2.114	1.546	2.000	-1.240	-0.607	-0.343	-0.045	2.045	3.094	0.208	-2.201	-0.518	2.549	-0.166	-1.808	0.959	4.595	2.550	0.668	-4.346	-5.846	-1.101	-1.645	636.719
-3.451	-0.830	-1.028	-0.762	3.040	2.331	1.479	1.865	-1.889	-1.094	-1.207	-0.432	2.092	3.279	0.388	-2.001	-0.379	2.676	-0.200	-1.640	1.216	4.842	2.797	0.763	-4.523	-5.964	-1.046	-1.867	640.625
-3.423	-0.622	-0.882	-0.445	3.289	2.554	1.416	1.780	-2.468	-1.572	-2.027	-0.807	2.146	3.473	0.546	-1.866	-0.276	2.755	-0.197	-1.505	1.466	5.083	3.039	0.914	-4.607	-5.960	-0.915	-2.010	644.531
-3.518	-0.502	-0.771	-0.211	3.485	2.743	1.360	1.742	-2.929	-1.991	-2.721	-1.122	2.213	3.653	0.669	-1.811	-0.220	2.788	-0.155	-1.422	1.678	5.293	3.251	1.112	-4.595	-5.836	-0.712	-2.057	648.438
-3.694	-0.484	-0.704	-0.091	3.595	2.861	1.311	1.741	-3.243	-2.314	-3.233	-1.341	2.294	3.797	0.745	-1.843	-0.217	2.782	-0.083	-1.403	1.826	5.452	3.419	1.340	-4.496	-5.608	-0.449	-2.001	652.344
-3.891	-0.565	-0.680	-0.098	3.599	2.888	1.263	1.767	-3.401	-2.529	-3.534	-1.449	2.382	3.885	0.766	-1.947	-0.263	2.755	0.003	-1.449	1.895	5.540	3.537	1.576	-4.327	-5.305	-0.141	-1.848	656.250
-4.045	-0.723	-0.687	-0.222	3.491	2.827	1.208	1.808	-3.416	-2.641	-3.632	-1.454	2.465	3.907	0.731	-2.100	-0.345	2.725	0.080	-1.551	1.881	5.547	3.606	1.793	-4.114	-4.970	0.187	-1.621	660.156
-4.104	-0.922	-0.706	-0.435	3.288	2.697	1.138	1.855	-3.321	-2.677	-3.563	-1.388	2.526	3.862	0.654	-2.267	-0.445	2.711	0.123	-1.687	1.793	5.474	3.635	1.965	-3.885	-4.653	0.506	-1.359	664.062
-4.039	-1.118	-0.719	-0.693	3.019	2.536	1.044	1.899	-3.157	-2.672	-3.384	-1.297	2.549	3.761	0.557	-2.411	-0.543	2.725	0.114	-1.830	1.656	5.334	3.631	2.068	-3.668	-4.403	0.782	-1.109	667.969
-3.850	-1.267	-0.707	-0.946	2.724	2.382	0.922	1.934	-2.972	-2.665	-3.160	-1.230	2.521	3.621	0.471	-2.497	-0.619	2.777	0.048	-1.949	1.497	5.149	3.605	2.088	-3.489	-4.266	0.981	-0.923	671.875
-3.562	-1.332	-0.660	-1.151	2.447	2.269	0.767	1.957	-2.804	-2.691	-2.950	-1.232	2.432	3.463	0.428	-2.498	-0.653	2.865	-0.063	-2.017	1.347	4.948	3.568	2.018	-3.367	-4.270	1.074	-0.847	675.781
-3.221	-1.291	-0.576	-1.276	2.223	2.216	0.583	1.963	-2.682	-2.771	-2.798	-1.335	2.284	3.308	0.451	-2.401	-0.631	2.983	-0.194	-2.015	1.231	4.760	3.530	1.863	-3.313	-4.424	1.040	-0.915	679.688
-2.878	-1.142	-0.461	-1.306	2.078	2.222	0.376	1.952	-2.617	-2.913	-2.726	-1.547	2.082	3.172	0.553	-2.206	-0.546	3.121	-0.312	-1.934	1.164	4.611	3.504	1.636	-3.328	-4.716	0.874	-1.142	683.594
-2.577	-0.898	-0.326	-1.248	2.025	2.269	0.159	1.926	-2.607	-3.104	-2.735	-1.859	1.839	3.065	0.728	-1.926	-0.396	3.266	-0.382	-1.777	1.151	4.519	3.499	1.359	-3.405	-5.118	0.590	-1.523	687.500
-2.350	-0.592	-0.187	-1.124	2.060	2.330	-0.050	1.885	-2.639	-3.323	-2.808	-2.241	1.574	2.990	0.956	-1.587	-0.189	3.406	-0.376	-1.562	1.187	4.488	3.521	1.053	-3.531	-5.589	0.215	-2.030	691.406
-2.206	-0.266	-0.057	-0.965	2.167	2.379	-0.232	1.833	-2.699	-3.535	-2.919	-2.652	1.309	2.946	1.208	-1.220	0.062	3.533	-0.285	-1.309	1.259	4.514	3.569	0.744	-3.689	-6.087	-0.212	-2.619	695.312
-2.137	0.037	0.055	-0.802	2.324	2.397	-0.366	1.772	-2.773	-3.706	-3.042	-3.046	1.065	2.926	1.451	-0.857	0.339	3.644	-0.109	-1.045	1.354	4.579	3.636	0.451	-3.865	-6.573	-0.646	-3.238	699.219
-2.121	0.279	0.144	-0.660	2.503	2.379	-0.437	1.703	-2.856	-3.805	-3.153	-3.384	0.863	2.926	1.661	-0.528	0.620	3.736	0.133	-0.791	1.461	4.665	3.709	0.192	-4.045	-7.016	-1.046	-3.834	703.125
-2.128	0.437	0.215	-0.551	2.677	2.336	-0.438	1.624	-2.952	-3.815	-3.244	-3.635	0.719	2.938	1.822	-0.252	0.888	3.815	0.415	-0.563	1.570	4.751	3.778	-0.023	-4.224	-7.403	-1.381	-4.359	707.031
-2.131	0.507	0.277	-0.478	2.825	2.289	-0.368	1.530	-3.076	-3.731	-3.314	-3.785	0.642	2.960	1.936	-0.038	1.131	3.884	0.712	-0.370	1.676	4.825	3.837	-0.188	-4.402	-7.729	-1.636	-4.783	710.938
-2.112	0.504	0.339	-0.430	2.933	2.261	-0.237	1.413	-3.250	-3.566	-3.377	-3.839	0.635	2.992	2.012	0.118	1.342	3.950	0.999	-0.212	1.779	4.882	3.886	-0.303	-4.582	-8.001	-1.806	-5.088	714.844
-2.061	0.458	0.411	-0.393	2.994	2.269	-0.065	1.264	-3.493	-3.347	-3.450	-3.815	0.696	3.036	2.068	0.230	1.525	4.019	1.261	-0.083	1.879	4.928	3.932	-0.367	-4.768	-8.226	-1.900	-5.275	718.750
-1.982	0.405	0.496	-0.354	3.011	2.319	0.126	1.077	-3.820	-3.109	-3.553	-3.742	0.816	3.096	2.120	0.317	1.685	4.094	1.493	0.027	1.977	4.973	3.988	-0.381	-4.959	-8.412	-1.928	-5.356	722.656
-1.886	0.377	0.590	-0.303	2.991	2.403	0.310	0.846	-4.231	-2.890	-3.700	-3.653	0.984	3.175	2.178	0.396	1.828	4.173	1.695	0.129	2.073	5.032	4.064	-0.346	-5.146	-8.555	-1.899	-5.349	726.562
-1.792	0.397	0.685	-0.236	2.943	2.501	0.466	0.575	-4.710	-2.720	-3.893	-3.575	1.187	3.278	2.243	0.481	1.960	4.251	1.869	0.230	2.167	5.112	4.163	-0.264	-5.312	-8.647	-1.821	-5.274	730.469
-1.719	0.470	0.770	-0.160	2.876	2.589	0.578	0.276	-5.223	-2.620	-4.121	-3.524	1.412	3.404	2.312	0.577	2.080	4.315	2.018	0.331	2.256	5.214	4.279	-0.135	-5.438	-8.671	-1.691	-5.150	734.375
-1.682	0.585	0.837	-0.083	2.797	2.640	0.637	-0.031	-5.720	-2.595	-4.362	-3.506	1.646	3.550	2.374	0.677	2.181	4.349	2.141	0.425	2.335	5.329	4.399	0.038	-5.500	-8.612	-1.506	-4.990	738.281
-1.692	0.717	0.877	-0.018	2.706	2.633	0.642	-0.319	-6.145	-2.636	-4.586	-3.511	1.877	3.703	2.417	0.769	2.249	4.340	2.232	0.502	2.395	5.438	4.498	0.250	-5.482	-8.456	-1.262	-4.800	742.188
-1.751	0.834	0.883	0.023	2.602	2.554	0.600	-0.557	-6.442	-2.721	-4.758	-3.519	2.094	3.849	2.433	0.836	2.272	4.274	2.285	0.546	2.426	5.522	4.551	0.494	-5.379	-8.196	-0.954	-4.582	746.094
-1.854	0.906	0.852	0.033	2.479	2.402	0.522	-0.721	-6.568	-2.823	-4.851	-3.507	2.286	3.972	2.412	0.863	2.235	4.148	2.291	0.542	2.420	5.563	4.540	0.761	-5.193	-7.839	-0.584	-4.335	750.000
-1.992	0.911	0.781	0.009	2.336	2.184	0.421	-0.791	-6.500	-2.913	-4.847	-3.453	2.449	4.057	2.352	0.839	2.134	3.965	2.249	0.484	2.372	5.551	4.456	1.041	-4.941	-7.400	-0.161	-4.058	753.906
-2.155	0.840	0.667	-0.046	2.172	1.918	0.311	-0.763	-6.241	-2.971	-4.744	-3.346	2.580	4.096	2.257	0.762	1.969	3.741	2.159	0.373	2.283	5.489	4.303	1.325	-4.647	-6.908	0.300	-3.752	757.812
-2.331	0.703	0.514	-0.124	1.994	1.628	0.205	-0.646	-5.819	-2.980	-4.558	-3.185	2.677	4.091	2.132	0.642	1.753	3.495	2.029	0.222	2.165	5.389	4.101	1.602	-4.342	-6.394	0.777	-3.427	761.719
-2.506	0.518	0.331	-0.214	1.812	1.341	0.114	-0.458	-5.286	-2.937	-4.315	-2.987	2.745	4.052	1.988	0.494	1.507	3.250	1.868	0.055	2.033	5.270	3.880	1.863	-4.060	-5.896	1.240	-3.099	765.625
-2.663	0.318	0.133	-0.304	1.643	1.085	0.044	-0.224	-4.702	-2.849	-4.050	-2.779	2.785	3.993	1.837	0.340	1.260	3.025	1.691	-0.104	1.910	5.154	3.669	2.094	-3.835	-5.451	1.655	-2.793	769.531
-2.779	0.135	-0.055	-0.381	1.502	0.879	0.002	0.031	-4.129	-2.728	-3.799	-2.595	2.799	3.934	1.689	0.201	1.040	2.832	1.511	-0.228	1.818	5.056	3.492	2.281	-3.695	-5.090	1.984	-2.538	773.438
-2.830	-0.004	-0.206	-0.438	1.403	0.735	-0.012	0.284	-3.616	-2.590	-3.588	-2.469	2.789	3.890	1.556	0.094	0.874	2.676	1.341	-0.300	1.775	4.987	3.360	2.411	-3.661	-4.837	2.194	-2.364	777.344
-2.792	-0.078	-0.294	-0.472	1.352	0.656	0.001	0.520	-3.199	-2.451	-3.437	-2.426	2.755	3.871	1.442	0.029	0.782	2.557	1.194	-0.309	1.794	4.950	3.274	2.472	-3.740	-4.704	2.256	-2.292	781.250
-2.649	-0.081	-0.302	-0.482	1.348	0.634	0.036	0.732	-2.888	-2.322	-3.351	-2.480	2.697	3.883	1.352	0.007	0.771	2.467	1.077	-0.256	1.878	4.939	3.224	2.460	-3.931	-4.689	2.163	-2.331	785.156
-2.402	-0.018	-0.229	-0.473	1.385	0.654	0.086	0.918	-2.675	-2.210	-3.325	-2.627	2.617	3.921	1.283	0.024	0.836	2.399	0.990	-0.150	2.020	4.946	3.197	2.382	-4.214	-4.773	1.927	-2.476	789.062
-2.070	0.093	-0.090	-0.451	1.449	0.699	0.144	1.084	-2.531	-2.116	-3.342	-2.847	2.523	3.981	1.231	0.068	0.958	2.340	0.928	-0.008	2.205	4.963	3.179	2.253	-4.561	-4.926	1.583	-2.699	792.969
-1.694	0.231	0.086	-0.423	1.526	0.751	0.204	1.240	-2.422	-2.035	-3.382	-3.108	2.421	4.052	1.186	0.125	1.110	2.282	0.878	0.151	2.411	4.983	3.161	2.102	-4.936	-5.107	1.188	-2.962	796.875
