FP1	F3	F7	FC3	C3	C5	P3	P7	PO7	PO3	O1	Oz	Pz	CPz	FP2	Fz	F4	F8	FC4	FCz	Cz	C4	C6	P4	P8	PO8	PO4	O2	time
-0.115	-0.870	-1.725	-2.751	-0.960	-0.582	0.115	0.604	0.684	0.290	0.681	1.600	-0.181	-0.677	-0.685	-1.044	-0.550	-0.304	-0.634	-1.447	-0.939	0.748	0.988	0.868	1.137	1.765	1.040	2.023	-199.219
0.021	-0.436	-1.197	-2.241	-0.741	-0.193	-0.024	0.476	0.196	-0.092	0.077	1.113	-0.133	-0.429	-0.384	-0.716	-0.276	-0.025	-0.362	-1.085	-0.485	0.686	0.942	0.602	0.856	1.440	0.540	1.488	-195.312
0.173	-0.033	-0.688	-1.751	-0.523	0.171	-0.174	0.350	-0.259	-0.461	-0.494	0.645	-0.108	-0.215	-0.089	-0.404	-0.036	0.223	-0.127	-0.750	-0.073	0.616	0.882	0.345	0.594	1.119	0.064	0.972	-191.406
0.345	0.315	-0.218	-1.302	-0.311	0.480	-0.342	0.223	-0.652	-0.803	-0.998	0.214	-0.123	-0.059	0.191	-0.120	0.150	0.423	0.048	-0.458	0.263	0.539	0.803	0.107	0.362	0.809	-0.362	0.491	-187.500
0.531	0.588	0.192	-0.910	-0.113	0.715	-0.525	0.097	-0.961	-1.103	-1.408	-0.166	-0.185	0.020	0.446	0.126	0.271	0.563	0.152	-0.225	0.498	0.457	0.707	-0.101	0.168	0.513	-0.711	0.062	-183.594
0.714	0.773	0.527	-0.593	0.064	0.869	-0.709	-0.019	-1.170	-1.343	-1.705	-0.482	-0.289	0.019	0.662	0.322	0.325	0.642	0.193	-0.060	0.620	0.376	0.605	-0.270	0.015	0.238	-0.965	-0.302	-179.688
0.868	0.868	0.776	-0.359	0.209	0.942	-0.873	-0.114	-1.272	-1.507	-1.874	-0.727	-0.421	-0.053	0.825	0.462	0.322	0.667	0.189	0.036	0.631	0.301	0.510	-0.392	-0.097	-0.009	-1.111	-0.589	-175.781
0.971	0.877	0.931	-0.214	0.310	0.941	-0.997	-0.178	-1.268	-1.583	-1.914	-0.897	-0.560	-0.176	0.924	0.542	0.279	0.649	0.170	0.071	0.548	0.240	0.438	-0.462	-0.174	-0.223	-1.146	-0.796	-171.875
1.006	0.811	0.990	-0.157	0.357	0.872	-1.062	-0.205	-1.167	-1.568	-1.827	-0.995	-0.683	-0.322	0.954	0.566	0.220	0.604	0.163	0.058	0.398	0.201	0.404	-0.476	-0.220	-0.396	-1.074	-0.925	-167.969
0.968	0.686	0.956	-0.181	0.340	0.740	-1.064	-0.192	-0.982	-1.468	-1.628	-1.027	-0.769	-0.467	0.915	0.541	0.165	0.546	0.189	0.013	0.216	0.187	0.418	-0.437	-0.239	-0.524	-0.911	-0.984	-164.062
0.861	0.521	0.840	-0.276	0.257	0.554	-1.005	-0.144	-0.731	-1.297	-1.333	-0.998	-0.806	-0.589	0.817	0.478	0.128	0.486	0.254	-0.050	0.032	0.200	0.478	-0.349	-0.233	-0.601	-0.674	-0.981	-160.156
0.699	0.331	0.658	-0.426	0.111	0.322	-0.901	-0.069	-0.432	-1.074	-0.965	-0.917	-0.792	-0.679	0.672	0.383	0.113	0.432	0.350	-0.125	-0.133	0.235	0.576	-0.221	-0.197	-0.619	-0.386	-0.924	-156.250
0.499	0.129	0.432	-0.615	-0.086	0.063	-0.767	0.027	-0.104	-0.818	-0.551	-0.789	-0.732	-0.738	0.496	0.261	0.111	0.384	0.451	-0.212	-0.270	0.283	0.695	-0.063	-0.125	-0.574	-0.067	-0.819	-152.344
0.279	-0.078	0.188	-0.823	-0.315	-0.201	-0.621	0.137	0.236	-0.547	-0.115	-0.622	-0.641	-0.772	0.305	0.111	0.104	0.340	0.529	-0.321	-0.383	0.332	0.809	0.109	-0.010	-0.464	0.258	-0.673	-148.438
0.057	-0.287	-0.051	-1.029	-0.553	-0.440	-0.472	0.259	0.573	-0.276	0.316	-0.425	-0.537	-0.793	0.113	-0.068	0.069	0.295	0.555	-0.463	-0.480	0.370	0.894	0.283	0.150	-0.293	0.566	-0.496	-144.531
-0.150	-0.495	-0.261	-1.213	-0.773	-0.624	-0.323	0.391	0.891	-0.013	0.714	-0.213	-0.434	-0.805	-0.069	-0.276	-0.010	0.244	0.515	-0.642	-0.570	0.387	0.929	0.442	0.348	-0.072	0.832	-0.302	-140.625
-0.333	-0.696	-0.429	-1.351	-0.949	-0.728	-0.172	0.530	1.173	0.233	1.053	-0.006	-0.344	-0.808	-0.229	-0.507	-0.136	0.183	0.407	-0.854	-0.653	0.382	0.903	0.574	0.566	0.176	1.032	-0.111	-136.719
-0.485	-0.879	-0.546	-1.423	-1.058	-0.741	-0.012	0.666	1.396	0.452	1.306	0.174	-0.270	-0.794	-0.360	-0.744	-0.296	0.114	0.250	-1.077	-0.722	0.360	0.817	0.671	0.774	0.428	1.144	0.056	-132.812
-0.599	-1.029	-0.608	-1.413	-1.083	-0.665	0.159	0.781	1.533	0.632	1.449	0.303	-0.210	-0.750	-0.455	-0.960	-0.461	0.044	0.076	-1.278	-0.759	0.334	0.681	0.729	0.942	0.655	1.155	0.177	-128.906
-0.670	-1.126	-0.619	-1.310	-1.013	-0.513	0.337	0.851	1.555	0.757	1.460	0.360	-0.156	-0.663	-0.508	-1.124	-0.591	-0.018	-0.077	-1.417	-0.743	0.324	0.513	0.749	1.039	0.835	1.059	0.239	-125.000
-0.696	-1.154	-0.582	-1.115	-0.847	-0.314	0.511	0.850	1.436	0.811	1.327	0.330	-0.098	-0.524	-0.520	-1.203	-0.647	-0.064	-0.173	-1.457	-0.655	0.347	0.336	0.739	1.045	0.951	0.868	0.237	-121.094
-0.675	-1.101	-0.505	-0.836	-0.595	-0.097	0.666	0.757	1.162	0.780	1.050	0.211	-0.027	-0.331	-0.489	-1.176	-0.599	-0.085	-0.184	-1.372	-0.486	0.414	0.171	0.707	0.954	0.995	0.603	0.176	-117.188
-0.609	-0.968	-0.394	-0.493	-0.278	0.106	0.781	0.564	0.741	0.659	0.644	0.015	0.062	-0.091	-0.422	-1.034	-0.435	-0.080	-0.104	-1.158	-0.243	0.525	0.035	0.662	0.775	0.970	0.300	0.073	-113.281
-0.504	-0.763	-0.258	-0.119	0.071	0.266	0.842	0.282	0.205	0.457	0.148	-0.235	0.169	0.178	-0.327	-0.790	-0.168	-0.047	0.056	-0.829	0.057	0.669	-0.063	0.613	0.532	0.879	-0.001	-0.055	-109.375
-0.369	-0.511	-0.109	0.251	0.413	0.365	0.840	-0.056	-0.391	0.194	-0.387	-0.504	0.286	0.454	-0.213	-0.471	0.170	0.007	0.265	-0.425	0.384	0.819	-0.120	0.561	0.255	0.734	-0.262	-0.186	-105.469
-0.220	-0.237	0.043	0.579	0.704	0.394	0.774	-0.404	-0.975	-0.098	-0.899	-0.755	0.402	0.708	-0.091	-0.117	0.534	0.077	0.484	0.006	0.701	0.946	-0.144	0.505	-0.022	0.543	-0.455	-0.303	-101.562
-0.075	0.027	0.184	0.835	0.909	0.357	0.651	-0.711	-1.474	-0.384	-1.330	-0.954	0.502	0.915	0.028	0.227	0.875	0.156	0.671	0.412	0.975	1.020	-0.143	0.438	-0.271	0.314	-0.568	-0.397	-97.656
0.049	0.258	0.306	1.000	1.004	0.269	0.486	-0.932	-1.826	-0.629	-1.636	-1.078	0.571	1.053	0.139	0.525	1.151	0.236	0.792	0.750	1.178	1.020	-0.130	0.353	-0.472	0.053	-0.605	-0.467	-93.750
0.136	0.441	0.403	1.071	0.986	0.153	0.293	-1.036	-1.994	-0.811	-1.793	-1.121	0.597	1.109	0.237	0.750	1.334	0.313	0.832	0.993	1.294	0.939	-0.113	0.245	-0.612	-0.232	-0.588	-0.521	-89.844
0.181	0.569	0.472	1.060	0.870	0.036	0.090	-1.014	-1.972	-0.917	-1.803	-1.088	0.576	1.080	0.319	0.890	1.414	0.382	0.792	1.134	1.321	0.790	-0.099	0.111	-0.694	-0.532	-0.547	-0.571	-85.938
0.185	0.647	0.515	0.989	0.689	-0.058	-0.105	-0.883	-1.781	-0.945	-1.687	-0.999	0.510	0.976	0.384	0.949	1.396	0.442	0.688	1.182	1.266	0.594	-0.090	-0.040	-0.724	-0.833	-0.510	-0.629	-82.031
0.160	0.679	0.534	0.885	0.482	-0.112	-0.278	-0.674	-1.467	-0.903	-1.480	-0.876	0.411	0.815	0.428	0.940	1.296	0.489	0.544	1.161	1.147	0.380	-0.086	-0.195	-0.715	-1.113	-0.496	-0.700	-78.125
0.119	0.673	0.533	0.774	0.288	-0.120	-0.414	-0.432	-1.084	-0.800	-1.214	-0.740	0.296	0.625	0.450	0.882	1.132	0.516	0.384	1.096	0.983	0.173	-0.088	-0.335	-0.682	-1.348	-0.511	-0.778	-74.219
0.082	0.635	0.513	0.676	0.137	-0.090	-0.504	-0.205	-0.688	-0.647	-0.917	-0.602	0.188	0.435	0.443	0.792	0.924	0.517	0.225	1.011	0.796	-0.010	-0.097	-0.439	-0.634	-1.511	-0.542	-0.845	-70.312
0.063	0.572	0.474	0.606	0.043	-0.040	-0.541	-0.034	-0.326	-0.451	-0.607	-0.463	0.106	0.270	0.405	0.686	0.683	0.483	0.075	0.923	0.603	-0.166	-0.117	-0.494	-0.580	-1.574	-0.565	-0.878	-66.406
0.073	0.489	0.415	0.569	0.007	0.005	-0.526	0.053	-0.030	-0.222	-0.290	-0.318	0.065	0.149	0.334	0.576	0.422	0.406	-0.065	0.841	0.418	-0.302	-0.154	-0.492	-0.521	-1.524	-0.553	-0.848	-62.500
0.112	0.398	0.335	0.568	0.016	0.020	-0.466	0.042	0.184	0.030	0.032	-0.157	0.071	0.081	0.231	0.471	0.150	0.282	-0.200	0.769	0.250	-0.434	-0.216	-0.438	-0.457	-1.354	-0.482	-0.734	-58.594
0.169	0.309	0.240	0.603	0.054	-0.015	-0.373	-0.062	0.313	0.293	0.356	0.027	0.120	0.062	0.106	0.377	-0.124	0.111	-0.335	0.706	0.106	-0.575	-0.308	-0.347	-0.389	-1.078	-0.339	-0.529	-54.688
0.225	0.236	0.133	0.670	0.103	-0.107	-0.259	-0.237	0.371	0.550	0.678	0.239	0.200	0.082	-0.032	0.296	-0.386	-0.101	-0.471	0.653	-0.016	-0.734	-0.433	-0.242	-0.315	-0.725	-0.130	-0.239	-50.781
0.254	0.187	0.024	0.766	0.149	-0.246	-0.136	-0.445	0.382	0.786	0.986	0.472	0.293	0.125	-0.171	0.231	-0.627	-0.343	-0.607	0.607	-0.115	-0.911	-0.585	-0.146	-0.238	-0.332	0.129	0.115	-46.875
0.235	0.162	-0.080	0.879	0.183	-0.409	-0.013	-0.641	0.376	0.991	1.266	0.716	0.379	0.173	-0.301	0.176	-0.832	-0.601	-0.738	0.568	-0.198	-1.093	-0.756	-0.081	-0.161	0.056	0.405	0.499	-42.969
0.155	0.154	-0.175	0.998	0.202	-0.567	0.106	-0.781	0.382	1.155	1.504	0.955	0.442	0.212	-0.415	0.126	-0.992	-0.852	-0.854	0.532	-0.271	-1.262	-0.928	-0.059	-0.088	0.395	0.661	0.872	-39.062
0.017	0.147	-0.257	1.102	0.205	-0.686	0.220	-0.829	0.428	1.276	1.686	1.171	0.470	0.231	-0.512	0.073	-1.098	-1.076	-0.945	0.494	-0.341	-1.394	-1.081	-0.083	-0.026	0.651	0.861	1.192	-35.156
-0.163	0.124	-0.325	1.173	0.191	-0.745	0.332	-0.765	0.529	1.354	1.805	1.346	0.456	0.226	-0.590	0.010	-1.143	-1.246	-1.000	0.449	-0.414	-1.469	-1.195	-0.148	0.018	0.798	0.975	1.423	-31.250
-0.353	0.069	-0.380	1.194	0.161	-0.732	0.444	-0.590	0.685	1.390	1.857	1.463	0.403	0.199	-0.646	-0.064	-1.122	-1.340	-1.006	0.392	-0.494	-1.476	-1.254	-0.243	0.034	0.822	0.981	1.538	-27.344
-0.516	-0.022	-0.418	1.160	0.119	-0.647	0.557	-0.324	0.881	1.386	1.841	1.508	0.318	0.157	-0.676	-0.145	-1.032	-1.342	-0.957	0.322	-0.584	-1.417	-1.255	-0.355	0.014	0.722	0.874	1.522	-23.438
-0.617	-0.143	-0.435	1.077	0.069	-0.502	0.672	-0.005	1.090	1.346	1.763	1.473	0.214	0.108	-0.672	-0.219	-0.875	-1.245	-0.849	0.242	-0.685	-1.309	-1.207	-0.472	-0.052	0.506	0.662	1.374	-19.531
-0.637	-0.276	-0.426	0.962	0.022	-0.311	0.785	0.322	1.274	1.271	1.627	1.356	0.107	0.062	-0.626	-0.272	-0.658	-1.055	-0.688	0.163	-0.792	-1.179	-1.130	-0.583	-0.166	0.193	0.366	1.108	-15.625
-0.572	-0.399	-0.385	0.844	-0.009	-0.090	0.894	0.610	1.398	1.165	1.441	1.164	0.015	0.028	-0.530	-0.288	-0.395	-0.795	-0.491	0.099	-0.901	-1.060	-1.054	-0.682	-0.326	-0.186	0.017	0.751	-11.719
-0.439	-0.486	-0.312	0.751	-0.013	0.145	0.992	0.822	1.429	1.033	1.214	0.908	-0.049	0.013	-0.378	-0.254	-0.105	-0.495	-0.280	0.068	-1.005	-0.980	-1.007	-0.765	-0.521	-0.596	-0.349	0.337	-7.812
-0.268	-0.518	-0.209	0.709	0.018	0.382	1.073	0.934	1.352	0.880	0.958	0.605	-0.075	0.020	-0.174	-0.167	0.189	-0.191	-0.078	0.084	-1.095	-0.958	-1.010	-0.827	-0.732	-0.995	-0.695	-0.094	-3.906
-0.090	-0.487	-0.089	0.729	0.083	0.605	1.128	0.941	1.165	0.714	0.686	0.278	-0.062	0.048	0.073	-0.028	0.466	0.086	0.090	0.156	-1.165	-0.994	-1.070	-0.866	-0.932	-1.345	-0.990	-0.504	0.000
0.070	-0.395	0.035	0.809	0.168	0.796	1.144	0.848	0.881	0.540	0.416	-0.051	-0.016	0.092	0.344	0.151	0.706	0.313	0.210	0.284	-1.210	-1.075	-1.177	-0.878	-1.093	-1.608	-1.212	-0.862	3.906
0.196	-0.262	0.144	0.930	0.251	0.933	1.109	0.675	0.531	0.363	0.166	-0.358	0.049	0.141	0.614	0.350	0.898	0.484	0.275	0.455	-1.233	-1.174	-1.307	-0.857	-1.184	-1.757	-1.347	-1.141	7.812
0.286	-0.113	0.224	1.058	0.301	0.994	1.008	0.446	0.152	0.186	-0.040	-0.616	0.114	0.180	0.855	0.544	1.036	0.602	0.287	0.644	-1.243	-1.260	-1.426	-0.800	-1.180	-1.776	-1.392	-1.321	11.719
0.345	0.021	0.263	1.157	0.286	0.966	0.833	0.186	-0.211	0.016	-0.176	-0.801	0.159	0.188	1.044	0.708	1.120	0.681	0.254	0.819	-1.258	-1.307	-1.500	-0.707	-1.068	-1.660	-1.353	-1.393	15.625
0.380	0.112	0.260	1.193	0.182	0.841	0.581	-0.079	-0.513	-0.139	-0.218	-0.889	0.164	0.147	1.159	0.820	1.156	0.735	0.188	0.949	-1.297	-1.298	-1.502	-0.581	-0.849	-1.420	-1.242	-1.351	19.531
0.395	0.141	0.218	1.144	-0.017	0.631	0.263	-0.325	-0.714	-0.267	-0.144	-0.861	0.119	0.040	1.194	0.864	1.152	0.777	0.104	1.007	-1.380	-1.235	-1.423	-0.432	-0.543	-1.084	-1.078	-1.200	23.438
0.395	0.101	0.144	1.006	-0.303	0.358	-0.099	-0.528	-0.784	-0.350	0.056	-0.712	0.020	-0.140	1.149	0.835	1.114	0.810	0.011	0.980	-1.517	-1.133	-1.271	-0.277	-0.190	-0.689	-0.881	-0.953	27.344
0.379	-0.002	0.049	0.796	-0.645	0.053	-0.471	-0.669	-0.707	-0.372	0.383	-0.446	-0.126	-0.388	1.039	0.738	1.047	0.831	-0.077	0.871	-1.706	-1.021	-1.075	-0.136	0.163	-0.281	-0.676	-0.632	31.250
0.350	-0.146	-0.057	0.546	-1.001	-0.249	-0.811	-0.731	-0.483	-0.318	0.818	-0.089	-0.304	-0.685	0.884	0.591	0.959	0.830	-0.154	0.700	-1.933	-0.934	-0.878	-0.031	0.462	0.098	-0.485	-0.268	35.156
0.309	-0.304	-0.164	0.298	-1.320	-0.511	-1.081	-0.704	-0.133	-0.184	1.321	0.314	-0.496	-1.003	0.711	0.421	0.856	0.798	-0.210	0.501	-2.170	-0.899	-0.724	0.019	0.666	0.408	-0.331	0.097	39.062
0.260	-0.444	-0.262	0.096	-1.558	-0.705	-1.250	-0.586	0.304	0.021	1.839	0.701	-0.681	-1.308	0.543	0.259	0.746	0.727	-0.238	0.314	-2.384	-0.936	-0.651	-0.000	0.751	0.629	-0.231	0.418	42.969
0.209	-0.539	-0.338	-0.023	-1.682	-0.814	-1.305	-0.389	0.777	0.272	2.309	1.004	-0.849	-1.568	0.402	0.136	0.641	0.619	-0.232	0.176	-2.546	-1.048	-0.680	-0.095	0.722	0.760	-0.193	0.653	46.875
0.161	-0.572	-0.378	-0.042	-1.681	-0.828	-1.253	-0.132	1.234	0.530	2.673	1.157	-0.996	-1.765	0.299	0.072	0.550	0.481	-0.189	0.113	-2.640	-1.224	-0.811	-0.260	0.614	0.827	-0.218	0.770	50.781
0.116	-0.541	-0.372	0.032	-1.571	-0.756	-1.123	0.158	1.629	0.752	2.897	1.120	-1.134	-1.894	0.231	0.072	0.477	0.325	-0.114	0.127	-2.668	-1.441	-1.022	-0.480	0.494	0.887	-0.290	0.764	54.688
0.069	-0.465	-0.315	0.162	-1.392	-0.617	-0.960	0.454	1.940	0.899	2.979	0.888	-1.283	-1.976	0.181	0.116	0.415	0.161	-0.022	0.197	-2.659	-1.674	-1.279	-0.731	0.445	1.024	-0.374	0.667	58.594
0.002	-0.385	-0.219	0.288	-1.209	-0.447	-0.812	0.731	2.181	0.956	2.966	0.502	-1.469	-2.049	0.118	0.165	0.344	-0.009	0.059	0.274	-2.659	-1.904	-1.544	-0.979	0.562	1.344	-0.421	0.552	62.500
-0.118	-0.359	-0.113	0.333	-1.094	-0.292	-0.722	0.983	2.401	0.931	2.953	0.052	-1.718	-2.166	-0.001	0.158	0.225	-0.192	0.086	0.292	-2.730	-2.126	-1.790	-1.187	0.931	1.964	-0.368	0.531	66.406
-0.334	-0.455	-0.046	0.219	-1.118	-0.201	-0.715	1.215	2.683	0.868	3.067	-0.333	-2.045	-2.383	-0.222	0.025	0.010	-0.410	0.004	0.175	-2.939	-2.352	-2.005	-1.319	1.620	2.998	-0.145	0.744	70.312
-0.693	-0.735	-0.077	-0.119	-1.338	-0.219	-0.788	1.450	3.135	0.839	3.453	-0.512	-2.450	-2.748	-0.591	-0.304	-0.356	-0.696	-0.246	-0.146	-3.342	-2.611	-2.201	-1.346	2.662	4.533	0.312	1.329	74.219
-1.237	-1.248	-0.271	-0.719	-1.779	-0.379	-0.912	1.723	3.862	0.931	4.236	-0.352	-2.909	-3.285	-1.142	-0.878	-0.924	-1.087	-0.717	-0.722	-3.971	-2.945	-2.407	-1.246	4.050	6.613	1.053	2.400	78.125
-1.990	-2.013	-0.677	-1.581	-2.432	-0.694	-1.033	2.071	4.951	1.230	5.499	0.237	-3.381	-3.990	-1.895	-1.722	-1.723	-1.621	-1.442	-1.568	-4.829	-3.392	-2.662	-1.009	5.732	9.223	2.099	4.014	82.031
-2.951	-3.017	-1.322	-2.667	-3.253	-1.154	-1.086	2.529	6.445	1.801	7.251	1.283	-3.806	-4.820	-2.847	-2.823	-2.760	-2.321	-2.424	-2.667	-5.879	-3.978	-3.002	-0.637	7.615	12.274	3.433	6.149	85.938
-4.090	-4.211	-2.195	-3.903	-4.170	-1.724	-1.005	3.117	8.332	2.672	9.425	2.739	-4.120	-5.703	-3.971	-4.132	-4.004	-3.191	-3.629	-3.959	-7.052	-4.704	-3.450	-0.145	9.577	15.611	5.002	8.700	89.844
-5.350	-5.513	-3.249	-5.195	-5.095	-2.356	-0.745	3.836	10.535	3.826	11.876	4.487	-4.266	-6.549	-5.215	-5.566	-5.393	-4.209	-4.988	-5.356	-8.258	-5.542	-4.003	0.444	11.479	19.020	6.714	11.484	93.750
-6.650	-6.825	-4.405	-6.437	-5.940	-2.989	-0.286	4.666	12.921	5.194	14.401	6.352	-4.209	-7.265	-6.506	-7.021	-6.837	-5.321	-6.402	-6.753	-9.392	-6.432	-4.631	1.096	13.183	22.253	8.449	14.260	97.656
-7.894	-8.040	-5.558	-7.530	-6.629	-3.565	0.354	5.561	15.314	6.666	16.770	8.131	-3.940	-7.769	-7.756	-8.383	-8.227	-6.447	-7.755	-8.036	-10.357	-7.295	-5.280	1.770	14.564	25.055	10.070	16.770	101.562
-8.986	-9.057	-6.598	-8.393	-7.106	-4.033	1.122	6.461	17.515	8.109	18.758	9.628	-3.480	-8.010	-8.866	-9.540	-9.448	-7.492	-8.933	-9.102	-11.071	-8.043	-5.879	2.417	15.524	27.193	11.443	18.767	105.469
-9.836	-9.791	-7.421	-8.968	-7.339	-4.354	1.941	7.290	19.329	9.382	20.178	10.677	-2.878	-7.967	-9.744	-10.395	-10.394	-8.351	-9.835	-9.866	-11.478	-8.596	-6.359	2.986	15.998	28.476	12.447	20.054	109.375
-10.376	-10.184	-7.942	-9.224	-7.316	-4.501	2.725	7.971	20.585	10.363	20.904	11.171	-2.198	-7.657	-10.308	-10.880	-10.980	-8.932	-10.388	-10.270	-11.551	-8.893	-6.661	3.428	15.948	28.780	12.992	20.508	113.281
-10.563	-10.204	-8.108	-9.156	-7.045	-4.459	3.394	8.434	21.161	10.966	20.885	11.072	-1.509	-7.123	-10.501	-10.955	-11.153	-9.163	-10.551	-10.283	-11.290	-8.899	-6.749	3.696	15.370	28.055	13.022	20.085	117.188
-10.385	-9.850	-7.902	-8.775	-6.543	-4.225	3.888	8.623	20.992	11.148	20.142	10.408	-0.872	-6.425	-10.296	-10.616	-10.896	-9.006	-10.318	-9.906	-10.717	-8.612	-6.616	3.757	14.288	26.327	12.526	18.829	121.094
-9.858	-9.148	-7.341	-8.111	-5.842	-3.807	4.173	8.501	20.078	10.913	18.762	9.265	-0.333	-5.628	-9.700	-9.890	-10.228	-8.461	-9.715	-9.167	-9.874	-8.059	-6.281	3.597	12.751	23.701	11.529	16.849	125.000
-9.028	-8.145	-6.476	-7.205	-4.978	-3.231	4.248	8.062	18.481	10.307	16.878	7.767	0.082	-4.794	-8.756	-8.831	-9.199	-7.567	-8.793	-8.115	-8.814	-7.287	-5.782	3.222	10.836	20.348	10.099	14.313	128.906
-7.960	-6.910	-5.383	-6.109	-3.998	-2.535	4.133	7.324	16.318	9.406	14.652	6.061	0.368	-3.970	-7.538	-7.516	-7.890	-6.398	-7.625	-6.820	-7.595	-6.359	-5.173	2.662	8.648	16.497	8.335	11.421	132.812
-6.740	-5.525	-4.152	-4.882	-2.954	-1.770	3.869	6.334	13.751	8.300	12.256	4.299	0.534	-3.190	-6.142	-6.035	-6.397	-5.055	-6.300	-5.362	-6.286	-5.349	-4.510	1.968	6.314	12.415	6.360	8.388	136.719
-5.454	-4.078	-2.885	-3.593	-1.904	-0.997	3.503	5.165	10.973	7.086	9.859	2.620	0.599	-2.477	-4.675	-4.486	-4.832	-3.656	-4.921	-3.833	-4.956	-4.331	-3.852	1.203	3.978	8.384	4.314	5.427	140.625
-4.191	-2.662	-1.678	-2.314	-0.907	-0.279	3.081	3.907	8.194	5.853	7.618	1.146	0.583	-1.846	-3.247	-2.968	-3.309	-2.322	-3.595	-2.325	-3.677	-3.383	-3.252	0.435	1.793	4.684	2.340	2.733	144.531
-3.027	-1.365	-0.617	-1.120	-0.021	0.324	2.643	2.659	5.620	4.680	5.667	-0.027	0.504	-1.312	-1.958	-1.575	-1.938	-1.165	-2.430	-0.933	-2.524	-2.575	-2.761	-0.278	-0.097	1.558	0.574	0.473	148.438
-2.025	-0.263	0.234	-0.085	0.702	0.765	2.212	1.522	3.444	3.632	4.119	-0.829	0.371	-0.894	-0.889	-0.395	-0.814	-0.276	-1.524	0.257	-1.568	-1.968	-2.418	-0.891	-1.568	-0.797	-0.872	-1.225	152.344
-1.231	0.579	0.833	0.727	1.215	1.010	1.803	0.587	1.823	2.759	3.060	-1.215	0.186	-0.617	-0.100	0.500	-0.017	0.282	-0.951	1.168	-0.872	-1.612	-2.254	-1.377	-2.526	-2.253	-1.918	-2.276	156.250
-0.673	1.118	1.164	1.263	1.485	1.046	1.414	-0.076	0.866	2.093	2.546	-1.165	-0.057	-0.509	0.376	1.058	0.405	0.481	-0.758	1.740	-0.489	-1.533	-2.285	-1.733	-2.920	-2.757	-2.518	-2.640	160.156
-0.362	1.330	1.233	1.491	1.489	0.880	1.036	-0.423	0.627	1.655	2.601	-0.682	-0.367	-0.595	0.533	1.245	0.432	0.330	-0.961	1.937	-0.449	-1.738	-2.508	-1.969	-2.743	-2.325	-2.669	-2.319	164.062
-0.294	1.212	1.068	1.401	1.219	0.535	0.657	-0.444	1.098	1.448	3.213	0.206	-0.750	-0.892	0.388	1.056	0.074	-0.134	-1.538	1.749	-0.760	-2.208	-2.906	-2.107	-2.030	-1.038	-2.399	-1.359	167.969
-0.452	0.783	0.703	1.004	0.686	0.046	0.262	-0.160	2.209	1.462	4.335	1.452	-1.211	-1.404	-0.021	0.513	-0.627	-0.848	-2.442	1.194	-1.404	-2.901	-3.440	-2.172	-0.848	0.974	-1.764	0.161	171.875
-0.811	0.080	0.181	0.334	-0.087	-0.543	-0.158	0.384	3.843	1.670	5.883	2.989	-1.745	-2.120	-0.638	-0.339	-1.606	-1.736	-3.596	0.316	-2.339	-3.761	-4.062	-2.187	0.703	3.547	-0.833	2.134	175.781
-1.338	-0.846	-0.459	-0.562	-1.057	-1.189	-0.603	1.121	5.849	2.036	7.749	4.733	-2.341	-3.011	-1.400	-1.430	-2.784	-2.718	-4.910	-0.819	-3.501	-4.718	-4.713	-2.166	2.512	6.498	0.315	4.433	179.688
-1.995	-1.937	-1.185	-1.623	-2.168	-1.850	-1.064	1.978	8.060	2.517	9.807	6.592	-2.978	-4.036	-2.237	-2.680	-4.073	-3.717	-6.286	-2.131	-4.815	-5.703	-5.332	-2.117	4.460	9.639	1.599	6.924	183.594
-2.739	-3.124	-1.968	-2.783	-3.354	-2.488	-1.520	2.885	10.313	3.066	11.927	8.466	-3.630	-5.140	-3.087	-4.002	-5.389	-4.669	-7.630	-3.531	-6.198	-6.652	-5.864	-2.039	6.429	12.791	2.946	9.468	187.500
-3.520	-4.342	-2.786	-3.976	-4.540	-3.073	-1.941	3.777	12.461	3.644	13.982	10.260	-4.262	-6.260	-3.893	-5.309	-6.655	-5.528	-8.860	-4.932	-7.566	-7.508	-6.264	-1.930	8.313	15.789	4.282	11.933	191.406
-4.284	-5.527	-3.614	-5.136	-5.651	-3.580	-2.290	4.604	14.389	4.217	15.865	11.884	-4.841	-7.326	-4.614	-6.525	-7.809	-6.263	-9.916	-6.256	-8.839	-8.229	-6.506	-1.782	10.024	18.492	5.545	14.201	195.312
-4.977	-6.621	-4.426	-6.205	-6.620	-3.994	-2.532	5.329	16.011	4.760	17.484	13.261	-5.328	-8.270	-5.221	-7.590	-8.805	-6.860	-10.760	-7.433	-9.950	-8.783	-6.580	-1.593	11.489	20.788	6.679	16.165	199.219
-5.550	-7.577	-5.188	-7.130	-7.388	-4.302	-2.633	5.927	17.278	5.260	18.776	14.332	-5.692	-9.029	-5.701	-8.459	-9.617	-7.321	-11.379	-8.411	-10.839	-9.155	-6.500	-1.363	12.660	22.597	7.638	17.746	203.125
-5.968	-8.358	-5.867	-7.871	-7.916	-4.503	-2.573	6.386	18.170	5.710	19.698	15.055	-5.905	-9.552	-6.050	-9.108	-10.232	-7.652	-11.776	-9.155	-11.469	-9.340	-6.296	-1.098	13.506	23.873	8.393	18.887	207.031
-6.213	-8.940	-6.431	-8.400	-8.189	-4.599	-2.345	6.703	18.691	6.111	20.236	15.411	-5.951	-9.805	-6.271	-9.530	-10.655	-7.871	-11.972	-9.649	-11.819	-9.347	-6.014	-0.806	14.019	24.603	8.927	19.561	210.938
-6.290	-9.317	-6.855	-8.707	-8.210	-4.598	-1.957	6.882	18.871	6.465	20.397	15.408	-5.823	-9.778	-6.375	-9.736	-10.898	-7.993	-11.993	-9.895	-11.890	-9.195	-5.703	-0.501	14.207	24.807	9.242	19.773	214.844
-6.230	-9.494	-7.128	-8.798	-8.005	-4.510	-1.430	6.938	18.750	6.777	20.212	15.074	-5.527	-9.479	-6.376	-9.751	-10.981	-8.037	-11.871	-9.913	-11.705	-8.911	-5.409	-0.193	14.097	24.536	9.358	19.559	218.750
-6.080	-9.496	-7.257	-8.694	-7.612	-4.348	-0.796	6.888	18.382	7.054	19.727	14.460	-5.076	-8.938	-6.291	-9.611	-10.927	-8.018	-11.640	-9.738	-11.299	-8.525	-5.167	0.112	13.731	23.868	9.312	18.981	222.656
-5.899	-9.358	-7.264	-8.435	-7.081	-4.127	-0.092	6.758	17.827	7.302	19.004	13.633	-4.492	-8.195	-6.141	-9.357	-10.762	-7.952	-11.333	-9.411	-10.720	-8.071	-4.996	0.411	13.164	22.900	9.152	18.126	226.562
-5.739	-9.129	-7.187	-8.070	-6.464	-3.861	0.642	6.575	17.145	7.527	18.111	12.671	-3.801	-7.300	-5.950	-9.033	-10.511	-7.854	-10.984	-8.982	-10.020	-7.580	-4.895	0.710	12.464	21.739	8.932	17.089	230.469
-5.634	-8.858	-7.069	-7.654	-5.816	-3.572	1.371	6.365	16.392	7.730	17.116	11.652	-3.032	-6.309	-5.738	-8.679	-10.202	-7.739	-10.622	-8.496	-9.248	-7.081	-4.850	1.014	11.699	20.495	8.703	15.969	234.375
-5.596	-8.592	-6.951	-7.239	-5.187	-3.285	2.061	6.151	15.621	7.911	16.083	10.647	-2.217	-5.273	-5.526	-8.330	-9.858	-7.619	-10.269	-7.993	-8.450	-6.596	-4.838	1.329	10.940	19.269	8.507	14.852	238.281
-5.617	-8.367	-6.864	-6.871	-4.620	-3.028	2.685	5.952	14.873	8.063	15.066	9.713	-1.388	-4.244	-5.328	-8.013	-9.503	-7.508	-9.938	-7.506	-7.664	-6.143	-4.835	1.660	10.247	18.146	8.367	13.809	242.188
-5.675	-8.205	-6.825	-6.578	-4.149	-2.827	3.220	5.776	14.180	8.177	14.105	8.890	-0.576	-3.265	-5.153	-7.742	-9.156	-7.415	-9.635	-7.056	-6.922	-5.734	-4.820	2.004	9.671	17.189	8.291	12.888	246.094
-5.741	-8.106	-6.831	-6.376	-3.794	-2.707	3.648	5.623	13.561	8.239	13.227	8.197	0.189	-2.375	-5.004	-7.523	-8.833	-7.343	-9.355	-6.656	-6.246	-5.376	-4.780	2.355	9.243	16.436	8.267	12.111	250.000
-5.788	-8.057	-6.868	-6.260	-3.564	-2.679	3.958	5.487	13.025	8.231	12.445	7.636	0.881	-1.599	-4.880	-7.353	-8.540	-7.292	-9.088	-6.310	-5.654	-5.066	-4.713	2.702	8.981	15.898	8.270	11.481	253.906
-5.798	-8.030	-6.909	-6.211	-3.449	-2.745	4.145	5.357	12.570	8.142	11.761	7.192	1.478	-0.954	-4.779	-7.222	-8.279	-7.255	-8.825	-6.016	-5.156	-4.800	-4.623	3.030	8.881	15.568	8.270	10.984	257.812
-5.764	-7.996	-6.927	-6.202	-3.432	-2.892	4.209	5.222	12.190	7.962	11.168	6.844	1.966	-0.443	-4.700	-7.119	-8.049	-7.222	-8.561	-5.770	-4.759	-4.567	-4.521	3.327	8.930	15.421	8.239	10.597	261.719
-5.695	-7.931	-6.902	-6.206	-3.484	-3.097	4.163	5.076	11.876	7.696	10.663	6.570	2.337	-0.060	-4.646	-7.037	-7.848	-7.184	-8.301	-5.568	-4.463	-4.359	-4.421	3.585	9.102	15.425	8.163	10.301	265.625
-5.609	-7.823	-6.824	-6.200	-3.575	-3.332	4.024	4.921	11.628	7.357	10.244	6.353	2.592	0.210	-4.625	-6.972	-7.676	-7.135	-8.057	-5.410	-4.264	-4.168	-4.338	3.798	9.368	15.546	8.038	10.077	269.531
-5.535	-7.676	-6.694	-6.169	-3.677	-3.564	3.822	4.770	11.452	6.976	9.919	6.188	2.736	0.381	-4.646	-6.927	-7.539	-7.077	-7.851	-5.296	-4.155	-3.993	-4.287	3.969	9.698	15.753	7.881	9.921	273.438
-5.499	-7.506	-6.527	-6.112	-3.770	-3.765	3.588	4.644	11.364	6.593	9.709	6.081	2.782	0.468	-4.721	-6.911	-7.448	-7.019	-7.705	-5.232	-4.127	-3.837	-4.275	4.103	10.066	16.021	7.718	9.835	277.344
-5.527	-7.341	-6.347	-6.036	-3.838	-3.916	3.360	4.573	11.385	6.255	9.639	6.045	2.743	0.481	-4.858	-6.937	-7.417	-6.977	-7.639	-5.225	-4.170	-3.711	-4.308	4.206	10.445	16.331	7.579	9.824	281.250
-5.634	-7.210	-6.179	-5.958	-3.878	-4.005	3.174	4.584	11.538	6.014	9.736	6.099	2.636	0.426	-5.060	-7.015	-7.459	-6.970	-7.666	-5.281	-4.272	-3.626	-4.384	4.284	10.810	16.666	7.492	9.896	285.156
-5.828	-7.141	-6.049	-5.896	-3.893	-4.031	3.060	4.702	11.843	5.914	10.023	6.257	2.479	0.310	-5.324	-7.154	-7.582	-7.017	-7.786	-5.400	-4.422	-3.589	-4.497	4.343	11.141	17.009	7.472	10.052	289.062
-6.106	-7.152	-5.977	-5.868	-3.891	-4.003	3.043	4.941	12.308	5.990	10.510	6.527	2.291	0.140	-5.641	-7.355	-7.783	-7.131	-7.992	-5.580	-4.606	-3.604	-4.640	4.386	11.419	17.345	7.523	10.285	292.969
-6.456	-7.250	-5.977	-5.887	-3.880	-3.933	3.136	5.300	12.927	6.260	11.189	6.903	2.095	-0.072	-5.998	-7.612	-8.053	-7.317	-8.267	-5.811	-4.809	-3.667	-4.804	4.415	11.631	17.658	7.633	10.579	296.875
-6.862	-7.430	-6.054	-5.960	-3.871	-3.840	3.341	5.766	13.682	6.721	12.035	7.369	1.909	-0.310	-6.377	-7.913	-8.375	-7.573	-8.586	-6.080	-5.019	-3.764	-4.982	4.431	11.771	17.934	7.781	10.911	300.781
-7.304	-7.679	-6.206	-6.087	-3.870	-3.740	3.647	6.310	14.534	7.352	13.000	7.895	1.754	-0.557	-6.763	-8.244	-8.728	-7.885	-8.922	-6.373	-5.225	-3.877	-5.161	4.437	11.847	18.164	7.943	11.255	304.688
-7.766	-7.981	-6.428	-6.262	-3.882	-3.650	4.034	6.896	15.439	8.113	14.023	8.446	1.644	-0.793	-7.140	-8.592	-9.092	-8.232	-9.249	-6.677	-5.419	-3.986	-5.333	4.440	11.874	18.346	8.097	11.587	308.594
-8.238	-8.317	-6.707	-6.477	-3.906	-3.582	4.470	7.482	16.341	8.954	15.037	8.984	1.590	-1.005	-7.499	-8.947	-9.450	-8.589	-9.542	-6.985	-5.601	-4.074	-5.487	4.445	11.878	18.486	8.233	11.887	312.500
-8.712	-8.676	-7.029	-6.724	-3.940	-3.543	4.922	8.028	17.188	9.817	15.976	9.474	1.596	-1.181	-7.834	-9.303	-9.795	-8.930	-9.784	-7.292	-5.772	-4.129	-5.613	4.461	11.888	18.595	8.347	12.146	316.406
-9.180	-9.048	-7.376	-6.995	-3.980	-3.536	5.356	8.502	17.933	10.645	16.782	9.891	1.662	-1.313	-8.146	-9.660	-10.120	-9.233	-9.964	-7.597	-5.934	-4.145	-5.704	4.496	11.931	18.690	8.450	12.360	320.312
-9.632	-9.429	-7.724	-7.279	-4.021	-3.557	5.743	8.881	18.537	11.386	17.414	10.214	1.782	-1.397	-8.438	-10.018	-10.425	-9.481	-10.076	-7.897	-6.090	-4.126	-5.758	4.556	12.025	18.783	8.554	12.532	324.219
-10.050	-9.814	-8.047	-7.569	-4.060	-3.600	6.064	9.156	18.976	11.995	17.846	10.438	1.945	-1.430	-8.713	-10.374	-10.711	-9.669	-10.124	-8.187	-6.236	-4.076	-5.772	4.642	12.174	18.878	8.671	12.666	328.125
-10.413	-10.198	-8.318	-7.851	-4.097	-3.650	6.308	9.330	19.240	12.443	18.076	10.567	2.141	-1.411	-8.975	-10.722	-10.976	-9.799	-10.112	-8.457	-6.367	-4.003	-5.751	4.750	12.366	18.968	8.803	12.765	332.031
-10.699	-10.571	-8.513	-8.110	-4.133	-3.693	6.478	9.415	19.334	12.713	18.114	10.615	2.356	-1.340	-9.218	-11.048	-11.213	-9.880	-10.050	-8.691	-6.473	-3.913	-5.696	4.871	12.580	19.038	8.943	12.829	335.938
-10.894	-10.914	-8.615	-8.329	-4.168	-3.712	6.583	9.435	19.279	12.806	17.989	10.606	2.577	-1.222	-9.436	-11.335	-11.415	-9.926	-9.952	-8.873	-6.545	-3.813	-5.613	4.992	12.782	19.060	9.074	12.851	339.844
-10.999	-11.204	-8.616	-8.491	-4.200	-3.691	6.635	9.415	19.105	12.735	17.737	10.568	2.790	-1.063	-9.619	-11.562	-11.568	-9.948	-9.830	-8.988	-6.573	-3.708	-5.507	5.094	12.942	19.006	9.172	12.822	343.750
-11.031	-11.416	-8.519	-8.578	-4.227	-3.623	6.651	9.383	18.854	12.523	17.398	10.530	2.983	-0.877	-9.757	-11.711	-11.659	-9.955	-9.696	-9.024	-6.556	-3.601	-5.380	5.159	13.033	18.852	9.210	12.731	347.656
-11.018	-11.525	-8.341	-8.578	-4.245	-3.506	6.642	9.364	18.571	12.200	17.014	10.510	3.142	-0.682	-9.846	-11.767	-11.677	-9.952	-9.563	-8.979	-6.497	-3.495	-5.235	5.169	13.041	18.584	9.167	12.568	351.562
-10.990	-11.516	-8.104	-8.486	-4.247	-3.348	6.614	9.380	18.301	11.799	16.622	10.516	3.253	-0.502	-9.886	-11.724	-11.616	-9.936	-9.437	-8.858	-6.406	-3.395	-5.072	5.109	12.965	18.202	9.030	12.328	355.469
-10.973	-11.387	-7.836	-8.303	-4.229	-3.164	6.570	9.447	18.082	11.353	16.255	10.541	3.303	-0.358	-9.886	-11.588	-11.478	-9.903	-9.323	-8.676	-6.298	-3.304	-4.893	4.972	12.823	17.729	8.798	12.016	359.375
-10.984	-11.156	-7.568	-8.048	-4.190	-2.971	6.508	9.573	17.949	10.894	15.940	10.563	3.280	-0.273	-9.863	-11.375	-11.271	-9.851	-9.223	-8.453	-6.190	-3.224	-4.699	4.759	12.644	17.204	8.482	11.645	363.281
-11.027	-10.855	-7.325	-7.751	-4.134	-2.790	6.426	9.762	17.926	10.452	15.702	10.553	3.176	-0.265	-9.836	-11.113	-11.018	-9.778	-9.138	-8.215	-6.104	-3.156	-4.497	4.484	12.471	16.685	8.109	11.243	367.188
-11.099	-10.536	-7.130	-7.455	-4.075	-2.637	6.322	10.013	18.028	10.056	15.563	10.486	2.986	-0.345	-9.826	-10.841	-10.746	-9.689	-9.071	-7.994	-6.060	-3.103	-4.295	4.173	12.352	16.240	7.716	10.850	371.094
-11.198	-10.257	-6.996	-7.213	-4.029	-2.525	6.199	10.317	18.261	9.735	15.542	10.351	2.716	-0.516	-9.853	-10.603	-10.495	-9.594	-9.032	-7.824	-6.080	-3.064	-4.101	3.858	12.334	15.937	7.351	10.519	375.000
-11.325	-10.080	-6.931	-7.077	-4.021	-2.462	6.065	10.665	18.621	9.515	15.659	10.161	2.380	-0.773	-9.931	-10.445	-10.306	-9.507	-9.031	-7.740	-6.183	-3.040	-3.926	3.580	12.452	15.837	7.062	10.309	378.906
-11.488	-10.053	-6.939	-7.093	-4.072	-2.448	5.934	11.039	19.095	9.417	15.926	9.960	2.003	-1.101	-10.072	-10.408	-10.220	-9.445	-9.084	-7.772	-6.383	-3.032	-3.778	3.372	12.723	15.977	6.898	10.280	382.812
-11.695	-10.209	-7.018	-7.288	-4.201	-2.480	5.824	11.423	19.660	9.460	16.349	9.813	1.620	-1.478	-10.280	-10.523	-10.268	-9.422	-9.201	-7.944	-6.685	-3.040	-3.663	3.264	13.135	16.360	6.894	10.478	386.719
-11.953	-10.551	-7.165	-7.664	-4.411	-2.551	5.754	11.794	20.282	9.653	16.918	9.796	1.271	-1.872	-10.552	-10.799	-10.465	-9.447	-9.387	-8.259	-7.084	-3.062	-3.585	3.266	13.652	16.953	7.067	10.928	390.625
-12.261	-11.056	-7.372	-8.193	-4.697	-2.649	5.739	12.130	20.915	9.991	17.603	9.978	0.998	-2.248	-10.876	-11.223	-10.800	-9.518	-9.634	-8.701	-7.556	-3.092	-3.545	3.375	14.208	17.676	7.407	11.616	394.531
-12.604	-11.672	-7.625	-8.824	-5.034	-2.763	5.788	12.408	21.502	10.451	18.350	10.398	0.838	-2.571	-11.223	-11.754	-11.238	-9.620	-9.917	-9.232	-8.063	-3.121	-3.541	3.569	14.721	18.416	7.880	12.489	398.438
-12.957	-12.327	-7.903	-9.486	-5.391	-2.878	5.900	12.607	21.978	10.995	19.082	11.051	0.812	-2.810	-11.557	-12.328	-11.720	-9.724	-10.198	-9.792	-8.554	-3.134	-3.570	3.815	15.101	19.032	8.426	13.452	402.344
-13.284	-12.940	-8.176	-10.101	-5.726	-2.980	6.060	12.709	22.274	11.564	19.704	11.881	0.926	-2.944	-11.827	-12.868	-12.169	-9.788	-10.426	-10.309	-8.976	-3.114	-3.620	4.070	15.267	19.384	8.968	14.381	406.250
-13.544	-13.433	-8.409	-10.596	-6.001	-3.054	6.246	12.700	22.325	12.091	20.114	12.781	1.167	-2.963	-11.982	-13.293	-12.508	-9.764	-10.551	-10.709	-9.277	-3.046	-3.678	4.293	15.159	19.352	9.425	15.137	410.156
-13.698	-13.740	-8.559	-10.914	-6.181	-3.086	6.428	12.573	22.083	12.501	20.218	13.609	1.500	-2.870	-11.977	-13.533	-12.666	-9.607	-10.529	-10.931	-9.421	-2.917	-3.721	4.449	14.751	18.860	9.720	15.591	414.062
-13.713	-13.819	-8.588	-11.016	-6.241	-3.061	6.571	12.330	21.521	12.729	19.940	14.209	1.880	-2.679	-11.780	-13.541	-12.596	-9.282	-10.332	-10.932	-9.384	-2.718	-3.725	4.513	14.057	17.888	9.797	15.638	417.969
-13.569	-13.652	-8.465	-10.890	-6.170	-2.968	6.646	11.977	20.639	12.719	19.236	14.436	2.252	-2.409	-11.382	-13.298	-12.277	-8.770	-9.951	-10.695	-9.167	-2.448	-3.661	4.477	13.128	16.482	9.625	15.220	421.875
-13.260	-13.247	-8.174	-10.544	-5.965	-2.799	6.628	11.528	19.468	12.440	18.103	14.179	2.565	-2.085	-10.796	-12.815	-11.719	-8.079	-9.396	-10.230	-8.782	-2.114	-3.508	4.343	12.043	14.740	9.204	14.330	425.781
-12.793	-12.635	-7.716	-10.003	-5.635	-2.556	6.502	11.002	18.064	11.884	16.578	13.379	2.775	-1.726	-10.057	-12.129	-10.959	-7.235	-8.697	-9.568	-8.253	-1.725	-3.250	4.128	10.897	12.798	8.556	13.011	429.688
-12.184	-11.862	-7.115	-9.306	-5.195	-2.245	6.265	10.418	16.499	11.068	14.736	12.043	2.854	-1.349	-9.211	-11.294	-10.050	-6.285	-7.891	-8.753	-7.612	-1.293	-2.885	3.857	9.778	10.800	7.729	11.349	433.594
-11.457	-10.982	-6.410	-8.497	-4.668	-1.881	5.925	9.799	14.854	10.031	12.683	10.241	2.791	-0.966	-8.313	-10.373	-9.057	-5.285	-7.023	-7.842	-6.889	-0.832	-2.422	3.555	8.756	8.883	6.778	9.461	437.500
-10.643	-10.049	-5.651	-7.620	-4.075	-1.481	5.500	9.167	13.211	8.829	10.545	8.100	2.594	-0.584	-7.415	-9.427	-8.043	-4.295	-6.136	-6.890	-6.116	-0.353	-1.883	3.248	7.873	7.149	5.766	7.479	441.406
-9.779	-9.112	-4.892	-6.718	-3.440	-1.064	5.015	8.545	11.642	7.530	8.453	5.789	2.285	-0.210	-6.561	-8.510	-7.067	-3.367	-5.270	-5.947	-5.326	0.132	-1.298	2.955	7.136	5.660	4.750	5.534	445.312
-8.913	-8.212	-4.184	-5.825	-2.787	-0.648	4.501	7.953	10.204	6.208	6.529	3.494	1.899	0.150	-5.782	-7.665	-6.174	-2.547	-4.461	-5.059	-4.547	0.610	-0.706	2.690	6.523	4.434	3.780	3.746	449.219
-8.094	-7.379	-3.568	-4.971	-2.138	-0.247	3.989	7.409	8.939	4.932	4.876	1.400	1.477	0.493	-5.098	-6.917	-5.397	-1.865	-3.737	-4.257	-3.808	1.069	-0.148	2.456	5.991	3.455	2.894	2.211	453.125
-7.371	-6.632	-3.074	-4.180	-1.513	0.127	3.513	6.925	7.870	3.771	3.569	-0.331	1.063	0.812	-4.517	-6.283	-4.752	-1.337	-3.120	-3.563	-3.136	1.495	0.335	2.254	5.492	2.684	2.123	0.997	457.031
-6.783	-5.984	-2.717	-3.466	-0.933	0.461	3.100	6.508	7.004	2.779	2.646	-1.583	0.700	1.107	-4.046	-5.764	-4.246	-0.969	-2.624	-2.987	-2.550	1.873	0.708	2.079	4.984	2.076	1.488	0.141	460.938
-6.359	-5.436	-2.504	-2.845	-0.416	0.746	2.774	6.155	6.336	2.002	2.115	-2.290	0.425	1.377	-3.683	-5.356	-3.873	-0.755	-2.255	-2.528	-2.062	2.191	0.946	1.926	4.440	1.590	0.999	-0.351	464.844
-6.106	-4.990	-2.426	-2.324	0.023	0.972	2.552	5.859	5.848	1.468	1.946	-2.447	0.267	1.627	-3.431	-5.047	-3.623	-0.683	-2.012	-2.177	-1.672	2.441	1.036	1.793	3.854	1.199	0.665	-0.499	468.750
-6.014	-4.639	-2.470	-1.909	0.376	1.132	2.443	5.606	5.513	1.190	2.086	-2.100	0.249	1.864	-3.287	-4.825	-3.479	-0.733	-1.885	-1.919	-1.375	2.619	0.985	1.680	3.242	0.894	0.484	-0.345	472.656
-6.057	-4.379	-2.617	-1.601	0.641	1.222	2.449	5.378	5.299	1.161	2.464	-1.342	0.378	2.095	-3.248	-4.677	-3.423	-0.886	-1.858	-1.738	-1.155	2.726	0.815	1.593	2.633	0.678	0.453	0.052	476.562
-6.193	-4.202	-2.843	-1.398	0.820	1.241	2.562	5.161	5.170	1.356	2.999	-0.295	0.650	2.325	-3.303	-4.592	-3.439	-1.120	-1.913	-1.619	-0.993	2.773	0.564	1.539	2.067	0.562	0.561	0.623	480.469
-6.376	-4.105	-3.126	-1.293	0.921	1.195	2.768	4.940	5.090	1.733	3.612	0.907	1.046	2.555	-3.437	-4.563	-3.512	-1.414	-2.027	-1.551	-0.872	2.772	0.277	1.530	1.585	0.562	0.799	1.297	484.375
-6.562	-4.080	-3.445	-1.277	0.955	1.092	3.044	4.706	5.027	2.237	4.232	2.133	1.535	2.783	-3.629	-4.584	-3.628	-1.747	-2.180	-1.527	-0.772	2.739	0.002	1.576	1.221	0.685	1.150	2.011	488.281
-6.720	-4.120	-3.779	-1.336	0.936	0.947	3.361	4.454	4.954	2.805	4.800	3.272	2.072	3.000	-3.854	-4.652	-3.777	-2.102	-2.350	-1.543	-0.681	2.693	-0.217	1.686	1.001	0.928	1.600	2.708	492.188
-6.830	-4.214	-4.109	-1.458	0.876	0.779	3.687	4.185	4.854	3.375	5.277	4.240	2.608	3.198	-4.088	-4.762	-3.947	-2.458	-2.521	-1.598	-0.590	2.647	-0.352	1.859	0.933	1.275	2.124	3.351	496.094
-6.892	-4.348	-4.417	-1.628	0.791	0.608	3.990	3.908	4.724	3.890	5.643	4.991	3.094	3.365	-4.309	-4.909	-4.127	-2.800	-2.679	-1.689	-0.499	2.610	-0.388	2.089	1.006	1.694	2.693	3.915	500.000
-6.918	-4.503	-4.684	-1.828	0.694	0.453	4.246	3.638	4.575	4.313	5.895	5.512	3.487	3.494	-4.502	-5.088	-4.309	-3.111	-2.818	-1.814	-0.414	2.585	-0.332	2.358	1.191	2.140	3.270	4.387	503.906
-6.927	-4.660	-4.895	-2.045	0.598	0.333	4.442	3.399	4.427	4.619	6.047	5.822	3.755	3.577	-4.655	-5.291	-4.487	-3.379	-2.934	-1.969	-0.344	2.569	-0.209	2.639	1.442	2.558	3.811	4.762	507.812
-6.937	-4.801	-5.040	-2.261	0.515	0.262	4.576	3.216	4.309	4.807	6.123	5.959	3.887	3.616	-4.765	-5.509	-4.656	-3.592	-3.031	-2.147	-0.301	2.553	-0.054	2.903	1.704	2.892	4.267	5.039	511.719
-6.961	-4.914	-5.117	-2.463	0.458	0.254	4.660	3.115	4.249	4.892	6.150	5.970	3.891	3.619	-4.832	-5.734	-4.812	-3.742	-3.114	-2.341	-0.292	2.529	0.096	3.119	1.918	3.090	4.597	5.217	515.625
-7.003	-4.992	-5.129	-2.640	0.437	0.315	4.715	3.117	4.264	4.900	6.149	5.906	3.796	3.599	-4.861	-5.954	-4.952	-3.824	-3.192	-2.540	-0.320	2.494	0.209	3.263	2.037	3.111	4.768	5.292	519.531
-7.055	-5.036	-5.091	-2.782	0.462	0.451	4.766	3.230	4.357	4.860	6.133	5.807	3.643	3.579	-4.857	-6.158	-5.072	-3.833	-3.267	-2.729	-0.376	2.447	0.269	3.324	2.027	2.932	4.762	5.257	523.438
-7.099	-5.051	-5.020	-2.884	0.540	0.657	4.835	3.447	4.512	4.800	6.102	5.699	3.482	3.579	-4.825	-6.333	-5.162	-3.772	-3.340	-2.892	-0.444	2.398	0.277	3.302	1.874	2.551	4.580	5.108	527.344
-7.112	-5.045	-4.935	-2.944	0.671	0.921	4.935	3.747	4.696	4.735	6.045	5.593	3.357	3.618	-4.765	-6.463	-5.215	-3.646	-3.403	-3.013	-0.501	2.362	0.248	3.212	1.586	1.988	4.241	4.842	531.250
-7.070	-5.025	-4.851	-2.964	0.849	1.225	5.065	4.091	4.864	4.672	5.943	5.486	3.302	3.707	-4.680	-6.536	-5.218	-3.465	-3.445	-3.076	-0.524	2.357	0.209	3.073	1.188	1.279	3.776	4.466	535.156
-6.961	-4.993	-4.776	-2.945	1.062	1.541	5.211	4.436	4.970	4.603	5.777	5.366	3.333	3.846	-4.569	-6.541	-5.162	-3.241	-3.449	-3.070	-0.498	2.397	0.187	2.913	0.721	0.479	3.228	3.995	539.062
-6.784	-4.949	-4.710	-2.893	1.290	1.842	5.347	4.736	4.975	4.513	5.533	5.217	3.443	4.024	-4.433	-6.470	-5.043	-2.988	-3.404	-2.991	-0.414	2.491	0.203	2.757	0.234	-0.347	2.643	3.456	542.969
-6.556	-4.887	-4.643	-2.813	1.514	2.103	5.441	4.952	4.856	4.379	5.207	5.026	3.606	4.221	-4.278	-6.326	-4.862	-2.721	-3.301	-2.843	-0.276	2.638	0.266	2.628	-0.219	-1.127	2.070	2.890	546.875
-6.308	-4.802	-4.564	-2.712	1.711	2.304	5.459	5.056	4.604	4.178	4.807	4.784	3.782	4.412	-4.113	-6.117	-4.628	-2.454	-3.139	-2.639	-0.097	2.829	0.372	2.538	-0.585	-1.789	1.551	2.342	550.781
-6.073	-4.690	-4.458	-2.596	1.868	2.434	5.373	5.035	4.231	3.889	4.347	4.493	3.925	4.569	-3.948	-5.860	-4.352	-2.198	-2.923	-2.399	0.100	3.047	0.505	2.495	-0.822	-2.268	1.122	1.862	554.688
-5.885	-4.551	-4.315	-2.474	1.974	2.493	5.166	4.894	3.762	3.497	3.851	4.158	3.990	4.669	-3.793	-5.575	-4.053	-1.958	-2.665	-2.145	0.293	3.271	0.646	2.495	-0.901	-2.517	0.801	1.490	558.594
-5.767	-4.391	-4.130	-2.356	2.028	2.489	4.834	4.651	3.230	2.998	3.344	3.790	3.942	4.694	-3.656	-5.286	-3.746	-1.734	-2.381	-1.902	0.458	3.481	0.777	2.523	-0.811	-2.511	0.597	1.253	562.500
-5.724	-4.220	-3.909	-2.250	2.035	2.437	4.392	4.337	2.677	2.400	2.850	3.402	3.764	4.635	-3.540	-5.014	-3.450	-1.524	-2.089	-1.686	0.579	3.658	0.888	2.562	-0.560	-2.254	0.503	1.157	566.406
-5.748	-4.052	-3.664	-2.162	2.006	2.353	3.865	3.989	2.144	1.728	2.393	3.010	3.456	4.494	-3.444	-4.777	-3.177	-1.320	-1.807	-1.512	0.648	3.789	0.977	2.589	-0.178	-1.782	0.501	1.190	570.312
-5.814	-3.902	-3.413	-2.096	1.953	2.253	3.295	3.644	1.667	1.019	1.997	2.627	3.039	4.281	-3.363	-4.584	-2.938	-1.118	-1.554	-1.381	0.665	3.866	1.048	2.580	0.286	-1.160	0.564	1.319	574.219
-5.892	-3.777	-3.176	-2.052	1.890	2.152	2.726	3.338	1.278	0.319	1.679	2.267	2.546	4.020	-3.290	-4.433	-2.737	-0.916	-1.344	-1.287	0.638	3.886	1.107	2.518	0.771	-0.474	0.658	1.501	578.125
-5.947	-3.679	-2.968	-2.023	1.827	2.060	2.203	3.099	0.995	-0.318	1.453	1.944	2.024	3.737	-3.215	-4.314	-2.573	-0.715	-1.186	-1.218	0.583	3.853	1.161	2.390	1.208	0.177	0.748	1.684	582.031
-5.953	-3.602	-2.801	-2.001	1.776	1.985	1.765	2.942	0.826	-0.846	1.326	1.671	1.520	3.463	-3.131	-4.208	-2.437	-0.518	-1.080	-1.156	0.519	3.777	1.214	2.192	1.527	0.700	0.798	1.821	585.938
-5.896	-3.532	-2.675	-1.974	1.741	1.933	1.440	2.872	0.760	-1.226	1.294	1.455	1.078	3.228	-3.032	-4.095	-2.317	-0.329	-1.018	-1.086	0.462	3.671	1.269	1.932	1.669	1.012	0.781	1.874	589.844
-5.773	-3.455	-2.582	-1.932	1.726	1.909	1.243	2.880	0.776	-1.437	1.342	1.301	0.731	3.052	-2.913	-3.956	-2.197	-0.149	-0.987	-0.995	0.432	3.555	1.327	1.627	1.595	1.060	0.680	1.820	593.750
-5.590	-3.357	-2.511	-1.868	1.729	1.916	1.175	2.945	0.839	-1.477	1.443	1.210	0.501	2.951	-2.771	-3.777	-2.063	0.021	-0.970	-0.877	0.440	3.447	1.389	1.300	1.290	0.825	0.491	1.651	597.656
-5.367	-3.229	-2.445	-1.779	1.748	1.954	1.221	3.039	0.907	-1.367	1.561	1.175	0.392	2.925	-2.603	-3.553	-1.906	0.182	-0.951	-0.733	0.496	3.363	1.457	0.978	0.766	0.320	0.222	1.379	601.562
-5.123	-3.068	-2.370	-1.665	1.778	2.024	1.358	3.129	0.935	-1.143	1.652	1.185	0.393	2.969	-2.407	-3.290	-1.720	0.336	-0.921	-0.566	0.603	3.314	1.535	0.686	0.061	-0.411	-0.105	1.026	605.469
-4.877	-2.877	-2.276	-1.530	1.817	2.120	1.555	3.185	0.885	-0.852	1.674	1.223	0.484	3.069	-2.179	-2.997	-1.507	0.484	-0.878	-0.384	0.760	3.300	1.624	0.444	-0.767	-1.301	-0.461	0.622	609.375
-4.644	-2.660	-2.158	-1.380	1.863	2.236	1.782	3.184	0.732	-0.545	1.591	1.269	0.636	3.205	-1.915	-2.687	-1.272	0.627	-0.828	-0.192	0.959	3.314	1.721	0.259	-1.655	-2.276	-0.815	0.198	613.281
-4.423	-2.425	-2.019	-1.216	1.921	2.364	2.007	3.117	0.468	-0.270	1.382	1.302	0.818	3.357	-1.615	-2.373	-1.023	0.761	-0.780	0.008	1.187	3.340	1.820	0.129	-2.540	-3.263	-1.139	-0.223	617.188
-4.202	-2.176	-1.864	-1.040	1.995	2.496	2.203	2.989	0.103	-0.066	1.036	1.296	0.999	3.508	-1.281	-2.061	-0.767	0.882	-0.743	0.213	1.431	3.365	1.912	0.043	-3.366	-4.206	-1.416	-0.627	621.094
-3.960	-1.919	-1.700	-0.850	2.090	2.624	2.351	2.814	-0.334	0.040	0.562	1.231	1.156	3.644	-0.921	-1.756	-0.513	0.989	-0.721	0.426	1.675	3.376	1.988	-0.015	-4.095	-5.066	-1.642	-1.011	625.000
-3.674	-1.657	-1.532	-0.646	2.208	2.742	2.436	2.617	-0.807	0.033	-0.020	1.089	1.270	3.755	-0.551	-1.460	-0.265	1.081	-0.711	0.644	1.905	3.371	2.045	-0.062	-4.700	-5.826	-1.824	-1.384	628.906
-3.331	-1.392	-1.365	-0.431	2.342	2.847	2.452	2.423	-1.274	-0.088	-0.677	0.860	1.334	3.839	-0.190	-1.173	-0.029	1.163	-0.700	0.864	2.111	3.359	2.085	-0.109	-5.171	-6.483	-1.981	-1.759	632.812
-2.934	-1.131	-1.197	-0.211	2.481	2.938	2.398	2.254	-1.698	-0.312	-1.369	0.544	1.346	3.900	0.139	-0.900	0.189	1.242	-0.676	1.076	2.288	3.357	2.118	-0.161	-5.505	-7.047	-2.131	-2.150	636.719
-2.504	-0.878	-1.027	0.001	2.608	3.015	2.278	2.123	-2.051	-0.620	-2.056	0.154	1.315	3.945	0.420	-0.649	0.383	1.324	-0.624	1.268	2.434	3.383	2.160	-0.214	-5.707	-7.523	-2.291	-2.562	640.625
-2.078	-0.643	-0.854	0.192	2.702	3.077	2.102	2.038	-2.318	-0.987	-2.695	-0.288	1.253	3.985	0.643	-0.434	0.542	1.414	-0.543	1.426	2.553	3.452	2.224	-0.260	-5.788	-7.916	-2.469	-2.989	644.531
-1.702	-0.437	-0.683	0.346	2.743	3.119	1.884	1.994	-2.494	-1.381	-3.250	-0.749	1.174	4.028	0.809	-0.269	0.658	1.513	-0.438	1.538	2.646	3.568	2.321	-0.287	-5.757	-8.216	-2.661	-3.416	648.438
-1.414	-0.271	-0.520	0.450	2.716	3.135	1.636	1.982	-2.589	-1.775	-3.694	-1.193	1.092	4.073	0.923	-0.169	0.722	1.620	-0.327	1.591	2.711	3.721	2.457	-0.287	-5.625	-8.406	-2.856	-3.812	652.344
-1.244	-0.158	-0.373	0.494	2.615	3.114	1.374	1.989	-2.619	-2.143	-4.007	-1.584	1.015	4.115	0.996	-0.141	0.731	1.735	-0.231	1.582	2.742	3.887	2.625	-0.257	-5.401	-8.467	-3.040	-4.144	656.250
-1.198	-0.105	-0.250	0.476	2.441	3.050	1.110	1.999	-2.603	-2.466	-4.181	-1.892	0.946	4.140	1.037	-0.187	0.685	1.854	-0.173	1.509	2.731	4.032	2.812	-0.203	-5.096	-8.381	-3.195	-4.377	660.156
-1.260	-0.113	-0.158	0.400	2.207	2.942	0.855	1.998	-2.564	-2.730	-4.216	-2.096	0.884	4.131	1.055	-0.296	0.592	1.976	-0.166	1.380	2.667	4.126	3.003	-0.134	-4.729	-8.143	-3.311	-4.486	664.062
-1.397	-0.179	-0.099	0.276	1.931	2.795	0.615	1.976	-2.519	-2.930	-4.121	-2.185	0.824	4.070	1.051	-0.453	0.466	2.097	-0.210	1.206	2.545	4.144	3.176	-0.066	-4.323	-7.767	-3.383	-4.457	667.969
-1.561	-0.293	-0.068	0.119	1.636	2.621	0.396	1.923	-2.484	-3.066	-3.915	-2.160	0.759	3.951	1.029	-0.632	0.326	2.214	-0.291	1.006	2.370	4.076	3.315	-0.013	-3.913	-7.290	-3.411	-4.296	671.875
-1.704	-0.442	-0.058	-0.053	1.345	2.436	0.201	1.835	-2.471	-3.145	-3.621	-2.035	0.684	3.776	0.995	-0.809	0.193	2.321	-0.383	0.802	2.155	3.932	3.406	0.010	-3.538	-6.766	-3.402	-4.024	675.781
-1.785	-0.608	-0.060	-0.226	1.075	2.255	0.030	1.711	-2.489	-3.177	-3.273	-1.829	0.597	3.561	0.959	-0.960	0.089	2.411	-0.450	0.614	1.922	3.736	3.445	-0.005	-3.240	-6.261	-3.367	-3.679	679.688
-1.781	-0.770	-0.062	-0.384	0.837	2.089	-0.117	1.549	-2.546	-3.176	-2.905	-1.570	0.503	3.332	0.937	-1.065	0.032	2.483	-0.459	0.463	1.703	3.525	3.433	-0.058	-3.054	-5.841	-3.318	-3.307	683.594
-1.685	-0.906	-0.052	-0.518	0.638	1.945	-0.241	1.351	-2.654	-3.155	-2.557	-1.288	0.411	3.121	0.946	-1.112	0.034	2.533	-0.384	0.364	1.525	3.336	3.383	-0.140	-3.001	-5.560	-3.266	-2.955	687.500
-1.513	-0.994	-0.018	-0.619	0.479	1.827	-0.342	1.120	-2.820	-3.128	-2.265	-1.012	0.333	2.959	0.999	-1.094	0.099	2.564	-0.214	0.326	1.411	3.205	3.313	-0.237	-3.085	-5.453	-3.220	-2.663	691.406
-1.294	-1.014	0.049	-0.680	0.365	1.737	-0.419	0.860	-3.052	-3.107	-2.061	-0.769	0.285	2.868	1.101	-1.010	0.223	2.583	0.045	0.352	1.373	3.154	3.246	-0.327	-3.298	-5.528	-3.184	-2.462	695.312
-1.059	-0.950	0.155	-0.691	0.298	1.673	-0.472	0.579	-3.350	-3.099	-1.967	-0.580	0.279	2.861	1.248	-0.862	0.400	2.599	0.374	0.443	1.412	3.189	3.201	-0.393	-3.615	-5.775	-3.164	-2.368	699.219
-0.837	-0.797	0.300	-0.644	0.287	1.639	-0.500	0.289	-3.704	-3.105	-1.992	-0.459	0.324	2.936	1.430	-0.657	0.615	2.620	0.739	0.593	1.518	3.302	3.194	-0.422	-4.008	-6.161	-3.162	-2.384	703.125
-0.648	-0.559	0.478	-0.532	0.340	1.635	-0.501	0.004	-4.096	-3.122	-2.130	-0.411	0.421	3.078	1.631	-0.401	0.856	2.650	1.107	0.794	1.672	3.471	3.225	-0.410	-4.448	-6.645	-3.177	-2.499	707.031
-0.499	-0.254	0.677	-0.357	0.459	1.660	-0.473	-0.258	-4.495	-3.136	-2.362	-0.433	0.565	3.265	1.832	-0.105	1.109	2.693	1.444	1.035	1.854	3.670	3.287	-0.362	-4.908	-7.180	-3.211	-2.695	710.938
-0.389	0.090	0.875	-0.129	0.640	1.709	-0.415	-0.481	-4.865	-3.129	-2.655	-0.515	0.743	3.469	2.017	0.214	1.363	2.743	1.726	1.300	2.039	3.869	3.361	-0.292	-5.360	-7.720	-3.261	-2.949	714.844
-0.310	0.432	1.051	0.126	0.866	1.768	-0.330	-0.650	-5.165	-3.081	-2.969	-0.639	0.944	3.663	2.172	0.536	1.605	2.796	1.938	1.571	2.209	4.045	3.426	-0.216	-5.779	-8.221	-3.321	-3.232	718.750
-0.256	0.732	1.180	0.373	1.106	1.818	-0.219	-0.756	-5.362	-2.973	-3.263	-0.787	1.153	3.826	2.288	0.836	1.826	2.844	2.078	1.824	2.345	4.180	3.463	-0.148	-6.138	-8.646	-3.384	-3.520	722.656
-0.224	0.950	1.244	0.573	1.325	1.838	-0.089	-0.797	-5.435	-2.795	-3.504	-0.944	1.360	3.945	2.362	1.087	2.017	2.885	2.153	2.037	2.433	4.266	3.460	-0.096	-6.408	-8.963	-3.442	-3.792	726.562
-0.213	1.063	1.234	0.692	1.486	1.808	0.049	-0.782	-5.379	-2.552	-3.674	-1.100	1.557	4.017	2.398	1.271	2.174	2.919	2.178	2.191	2.466	4.302	3.416	-0.063	-6.564	-9.153	-3.486	-4.034	730.469
-0.224	1.061	1.157	0.710	1.562	1.718	0.182	-0.727	-5.214	-2.264	-3.776	-1.256	1.739	4.050	2.404	1.374	2.294	2.952	2.175	2.279	2.447	4.297	3.339	-0.045	-6.591	-9.209	-3.513	-4.242	734.375
-0.260	0.955	1.026	0.630	1.541	1.575	0.292	-0.658	-4.978	-1.969	-3.831	-1.422	1.901	4.059	2.396	1.401	2.377	2.987	2.165	2.305	2.384	4.267	3.247	-0.033	-6.485	-9.136	-3.521	-4.419	738.281
-0.320	0.778	0.866	0.475	1.434	1.398	0.364	-0.602	-4.720	-1.710	-3.876	-1.612	2.039	4.066	2.388	1.366	2.430	3.026	2.173	2.288	2.297	4.234	3.163	-0.020	-6.260	-8.954	-3.516	-4.573	742.188
-0.399	0.569	0.702	0.288	1.271	1.219	0.382	-0.587	-4.495	-1.536	-3.948	-1.840	2.147	4.090	2.390	1.297	2.461	3.066	2.219	2.257	2.211	4.222	3.107	-0.001	-5.946	-8.694	-3.503	-4.713	746.094
-0.488	0.377	0.552	0.118	1.094	1.070	0.338	-0.629	-4.343	-1.479	-4.080	-2.114	2.215	4.145	2.403	1.223	2.477	3.100	2.317	2.245	2.150	4.255	3.094	0.027	-5.583	-8.390	-3.492	-4.843	750.000
-0.576	0.240	0.428	0.010	0.947	0.982	0.233	-0.736	-4.290	-1.557	-4.285	-2.431	2.239	4.236	2.420	1.173	2.488	3.114	2.474	2.282	2.132	4.353	3.128	0.064	-5.214	-8.073	-3.487	-4.961	753.906
-0.648	0.185	0.328	-0.007	0.865	0.970	0.080	-0.896	-4.336	-1.760	-4.554	-2.771	2.214	4.355	2.425	1.162	2.501	3.098	2.685	2.385	2.167	4.522	3.205	0.107	-4.879	-7.767	-3.488	-5.057	757.812
-0.696	0.215	0.243	0.071	0.869	1.030	-0.100	-1.087	-4.455	-2.051	-4.855	-3.103	2.144	4.489	2.396	1.197	2.516	3.041	2.933	2.551	2.253	4.755	3.307	0.153	-4.607	-7.487	-3.487	-5.115	761.719
-0.716	0.314	0.159	0.227	0.957	1.143	-0.276	-1.275	-4.602	-2.376	-5.139	-3.387	2.039	4.619	2.315	1.268	2.531	2.937	3.191	2.763	2.379	5.027	3.408	0.198	-4.412	-7.237	-3.472	-5.116	765.625
-0.716	0.446	0.061	0.422	1.108	1.280	-0.412	-1.422	-4.724	-2.667	-5.347	-3.583	1.919	4.728	2.171	1.356	2.536	2.787	3.424	2.990	2.530	5.301	3.476	0.241	-4.294	-7.009	-3.424	-5.042	769.531
-0.711	0.564	-0.063	0.609	1.290	1.403	-0.479	-1.497	-4.765	-2.858	-5.425	-3.655	1.807	4.809	1.964	1.435	2.520	2.591	3.592	3.196	2.692	5.530	3.482	0.282	-4.239	-6.792	-3.322	-4.882	773.438
-0.723	0.621	-0.221	0.742	1.464	1.478	-0.450	-1.476	-4.683	-2.896	-5.330	-3.581	1.728	4.861	1.705	1.482	2.469	2.354	3.660	3.348	2.852	5.669	3.398	0.322	-4.228	-6.568	-3.153	-4.629	777.344
-0.770	0.580	-0.413	0.788	1.595	1.483	-0.315	-1.353	-4.453	-2.750	-5.041	-3.355	1.704	4.889	1.417	1.482	2.373	2.082	3.599	3.424	3.002	5.683	3.208	0.366	-4.235	-6.322	-2.907	-4.285	781.250
-0.863	0.421	-0.638	0.729	1.660	1.407	-0.075	-1.134	-4.074	-2.416	-4.563	-2.990	1.744	4.904	1.120	1.427	2.228	1.782	3.401	3.418	3.142	5.558	2.910	0.416	-4.240	-6.044	-2.585	-3.858	785.156
-1.002	0.148	-0.887	0.569	1.654	1.253	0.252	-0.837	-3.565	-1.919	-3.924	-2.511	1.848	4.916	0.831	1.320	2.035	1.461	3.075	3.336	3.271	5.301	2.515	0.472	-4.227	-5.727	-2.199	-3.365	789.062
-1.179	-0.216	-1.152	0.330	1.583	1.038	0.641	-0.489	-2.962	-1.304	-3.170	-1.957	2.004	4.933	0.560	1.173	1.806	1.127	2.653	3.199	3.392	4.942	2.049	0.536	-4.190	-5.376	-1.766	-2.827	792.969
-1.380	-0.632	-1.426	0.046	1.473	0.791	1.059	-0.118	-2.312	-0.630	-2.363	-1.371	2.188	4.957	0.303	1.003	1.556	0.786	2.182	3.031	3.510	4.529	1.549	0.604	-4.131	-5.000	-1.309	-2.269	796.875
