FP1	F3	F7	FC3	C3	C5	P3	P7	PO7	PO3	O1	Oz	Pz	CPz	FP2	Fz	F4	F8	FC4	FCz	Cz	C4	C6	P4	P8	PO8	PO4	O2	time
-1.004	0.210	-0.451	0.289	0.303	0.961	0.283	-0.594	-0.484	-0.512	-0.183	-0.338	0.855	1.008	0.339	0.529	0.118	-0.638	0.756	0.386	1.029	0.450	0.126	-0.140	-0.389	0.098	0.440	-0.211	-199.219
-0.625	0.104	-0.354	0.193	0.175	0.965	0.160	-0.355	-0.431	-0.480	-0.258	-0.365	0.662	0.835	0.254	0.577	0.174	-0.498	0.728	0.555	0.987	0.434	-0.017	-0.104	-0.419	0.049	0.347	-0.279	-195.312
-0.282	-0.003	-0.263	0.095	0.052	0.944	0.041	-0.145	-0.369	-0.446	-0.320	-0.390	0.469	0.665	0.185	0.617	0.229	-0.357	0.701	0.701	0.939	0.416	-0.145	-0.076	-0.442	0.003	0.258	-0.345	-191.406
-0.002	-0.109	-0.184	-0.005	-0.060	0.882	-0.071	0.019	-0.291	-0.405	-0.354	-0.407	0.279	0.504	0.140	0.640	0.280	-0.224	0.672	0.804	0.883	0.393	-0.248	-0.058	-0.453	-0.039	0.174	-0.400	-187.500
0.196	-0.215	-0.119	-0.103	-0.156	0.767	-0.169	0.130	-0.193	-0.354	-0.350	-0.411	0.102	0.361	0.117	0.640	0.320	-0.107	0.642	0.851	0.815	0.368	-0.319	-0.053	-0.448	-0.073	0.100	-0.439	-183.594
0.303	-0.317	-0.071	-0.198	-0.233	0.594	-0.249	0.187	-0.077	-0.292	-0.302	-0.397	-0.051	0.244	0.111	0.614	0.343	-0.019	0.611	0.840	0.740	0.347	-0.352	-0.055	-0.424	-0.100	0.040	-0.458	-179.688
0.324	-0.409	-0.044	-0.282	-0.292	0.370	-0.307	0.200	0.048	-0.219	-0.213	-0.362	-0.168	0.161	0.113	0.563	0.345	0.032	0.581	0.778	0.663	0.339	-0.347	-0.059	-0.382	-0.119	-0.001	-0.453	-175.781
0.273	-0.487	-0.037	-0.351	-0.331	0.109	-0.344	0.186	0.169	-0.140	-0.093	-0.305	-0.239	0.117	0.113	0.490	0.324	0.041	0.553	0.678	0.592	0.350	-0.304	-0.055	-0.323	-0.128	-0.020	-0.424	-171.875
0.169	-0.548	-0.051	-0.398	-0.354	-0.164	-0.363	0.163	0.268	-0.063	0.045	-0.230	-0.260	0.114	0.102	0.403	0.279	0.009	0.527	0.558	0.535	0.385	-0.230	-0.041	-0.251	-0.127	-0.017	-0.374	-167.969
0.035	-0.590	-0.082	-0.419	-0.361	-0.425	-0.370	0.146	0.333	0.002	0.183	-0.143	-0.234	0.145	0.078	0.308	0.215	-0.053	0.504	0.436	0.496	0.441	-0.135	-0.015	-0.171	-0.111	0.006	-0.307	-164.062
-0.108	-0.614	-0.126	-0.410	-0.355	-0.647	-0.373	0.148	0.355	0.047	0.308	-0.051	-0.170	0.201	0.041	0.214	0.136	-0.133	0.480	0.324	0.476	0.509	-0.032	0.020	-0.089	-0.076	0.045	-0.229	-160.156
-0.245	-0.621	-0.181	-0.374	-0.337	-0.811	-0.376	0.175	0.332	0.067	0.406	0.035	-0.082	0.268	-0.002	0.129	0.050	-0.213	0.455	0.231	0.471	0.575	0.064	0.061	-0.008	-0.019	0.094	-0.146	-156.250
-0.368	-0.613	-0.241	-0.316	-0.309	-0.909	-0.380	0.225	0.270	0.059	0.470	0.109	0.011	0.330	-0.043	0.057	-0.034	-0.278	0.426	0.163	0.475	0.626	0.140	0.101	0.067	0.060	0.146	-0.066	-152.344
-0.471	-0.592	-0.304	-0.243	-0.271	-0.944	-0.381	0.288	0.182	0.028	0.498	0.164	0.098	0.376	-0.074	0.003	-0.110	-0.316	0.392	0.118	0.480	0.650	0.185	0.139	0.134	0.160	0.198	0.005	-148.438
-0.555	-0.562	-0.364	-0.165	-0.225	-0.925	-0.376	0.348	0.083	-0.016	0.491	0.198	0.167	0.400	-0.088	-0.033	-0.171	-0.321	0.354	0.094	0.481	0.641	0.196	0.172	0.190	0.274	0.246	0.061	-144.531
-0.619	-0.524	-0.418	-0.091	-0.170	-0.871	-0.355	0.386	-0.014	-0.062	0.457	0.212	0.218	0.403	-0.083	-0.053	-0.215	-0.298	0.312	0.090	0.477	0.602	0.178	0.204	0.234	0.389	0.287	0.101	-140.625
-0.665	-0.481	-0.459	-0.028	-0.108	-0.799	-0.314	0.383	-0.098	-0.096	0.404	0.210	0.252	0.394	-0.063	-0.060	-0.245	-0.256	0.265	0.101	0.469	0.541	0.141	0.238	0.265	0.493	0.323	0.128	-136.719
-0.690	-0.433	-0.483	0.022	-0.040	-0.722	-0.248	0.327	-0.164	-0.109	0.343	0.198	0.277	0.386	-0.034	-0.059	-0.264	-0.210	0.215	0.126	0.464	0.471	0.097	0.280	0.281	0.570	0.351	0.149	-132.812
-0.690	-0.380	-0.483	0.060	0.035	-0.649	-0.161	0.212	-0.212	-0.095	0.283	0.182	0.300	0.388	-0.005	-0.054	-0.276	-0.174	0.159	0.162	0.467	0.402	0.055	0.330	0.283	0.610	0.372	0.174	-128.906
-0.663	-0.322	-0.455	0.092	0.113	-0.584	-0.059	0.043	-0.246	-0.058	0.232	0.166	0.322	0.405	0.017	-0.047	-0.285	-0.156	0.099	0.204	0.477	0.345	0.022	0.384	0.269	0.606	0.381	0.213	-125.000
-0.604	-0.258	-0.398	0.124	0.190	-0.528	0.044	-0.164	-0.270	-0.005	0.195	0.151	0.342	0.433	0.030	-0.038	-0.289	-0.159	0.033	0.247	0.491	0.301	0.000	0.432	0.242	0.560	0.375	0.269	-121.094
-0.515	-0.188	-0.316	0.162	0.262	-0.480	0.132	-0.385	-0.289	0.048	0.174	0.137	0.351	0.458	0.033	-0.026	-0.284	-0.178	-0.034	0.283	0.500	0.272	-0.014	0.461	0.204	0.476	0.350	0.342	-117.188
-0.398	-0.113	-0.217	0.205	0.321	-0.438	0.191	-0.591	-0.302	0.088	0.166	0.123	0.338	0.463	0.030	-0.009	-0.263	-0.204	-0.099	0.305	0.490	0.252	-0.022	0.457	0.160	0.368	0.301	0.427	-113.281
-0.262	-0.038	-0.113	0.250	0.361	-0.403	0.211	-0.753	-0.308	0.101	0.170	0.107	0.294	0.432	0.024	0.015	-0.221	-0.226	-0.158	0.306	0.450	0.235	-0.029	0.410	0.116	0.249	0.231	0.514	-109.375
-0.119	0.036	-0.015	0.290	0.376	-0.374	0.186	-0.850	-0.305	0.081	0.180	0.088	0.212	0.355	0.019	0.045	-0.154	-0.235	-0.204	0.279	0.372	0.216	-0.037	0.317	0.079	0.133	0.142	0.594	-105.469
0.018	0.105	0.068	0.315	0.363	-0.350	0.123	-0.869	-0.289	0.029	0.191	0.068	0.096	0.232	0.016	0.077	-0.066	-0.225	-0.236	0.223	0.256	0.189	-0.045	0.185	0.057	0.030	0.040	0.656	-101.562
0.137	0.168	0.130	0.320	0.325	-0.331	0.032	-0.811	-0.261	-0.045	0.196	0.050	-0.046	0.073	0.014	0.106	0.033	-0.195	-0.252	0.140	0.110	0.149	-0.054	0.028	0.051	-0.052	-0.067	0.695	-97.656
0.231	0.228	0.172	0.305	0.270	-0.314	-0.070	-0.687	-0.221	-0.127	0.192	0.034	-0.198	-0.105	0.014	0.124	0.128	-0.149	-0.253	0.037	-0.053	0.095	-0.060	-0.133	0.062	-0.115	-0.171	0.706	-93.750
0.294	0.288	0.201	0.275	0.208	-0.294	-0.163	-0.517	-0.173	-0.197	0.172	0.023	-0.342	-0.279	0.014	0.124	0.206	-0.089	-0.243	-0.076	-0.214	0.027	-0.062	-0.279	0.085	-0.163	-0.267	0.688	-89.844
0.325	0.353	0.224	0.239	0.151	-0.266	-0.231	-0.326	-0.121	-0.241	0.135	0.017	-0.457	-0.430	0.013	0.103	0.253	-0.020	-0.227	-0.189	-0.356	-0.052	-0.058	-0.395	0.112	-0.206	-0.350	0.641	-85.938
0.326	0.422	0.249	0.207	0.111	-0.223	-0.263	-0.139	-0.065	-0.247	0.082	0.014	-0.531	-0.541	0.012	0.058	0.262	0.056	-0.211	-0.290	-0.465	-0.137	-0.049	-0.469	0.133	-0.251	-0.419	0.567	-82.031
0.304	0.492	0.282	0.189	0.093	-0.161	-0.254	0.019	-0.010	-0.210	0.015	0.014	-0.553	-0.605	0.010	-0.007	0.233	0.136	-0.199	-0.369	-0.534	-0.223	-0.035	-0.501	0.138	-0.305	-0.469	0.468	-78.125
0.266	0.556	0.324	0.185	0.098	-0.077	-0.206	0.129	0.043	-0.137	-0.059	0.013	-0.521	-0.619	0.005	-0.085	0.174	0.220	-0.193	-0.419	-0.563	-0.305	-0.022	-0.493	0.121	-0.368	-0.500	0.347	-74.219
0.225	0.602	0.371	0.191	0.119	0.024	-0.125	0.179	0.091	-0.035	-0.132	0.011	-0.442	-0.589	-0.002	-0.164	0.096	0.304	-0.195	-0.437	-0.554	-0.380	-0.013	-0.453	0.081	-0.434	-0.509	0.212	-70.312
0.189	0.617	0.415	0.198	0.147	0.134	-0.023	0.167	0.131	0.078	-0.195	0.009	-0.327	-0.523	-0.011	-0.234	0.018	0.386	-0.204	-0.425	-0.519	-0.447	-0.012	-0.389	0.023	-0.492	-0.494	0.071	-66.406
0.166	0.595	0.444	0.195	0.169	0.240	0.089	0.103	0.161	0.189	-0.241	0.010	-0.193	-0.435	-0.023	-0.285	-0.048	0.458	-0.221	-0.391	-0.468	-0.504	-0.020	-0.311	-0.044	-0.529	-0.453	-0.066	-62.500
0.161	0.532	0.449	0.171	0.175	0.328	0.201	0.006	0.179	0.283	-0.264	0.014	-0.057	-0.338	-0.035	-0.313	-0.088	0.514	-0.244	-0.347	-0.414	-0.550	-0.037	-0.225	-0.106	-0.532	-0.387	-0.185	-58.594
0.175	0.434	0.425	0.121	0.158	0.387	0.304	-0.099	0.188	0.350	-0.263	0.024	0.064	-0.244	-0.049	-0.319	-0.101	0.546	-0.273	-0.305	-0.371	-0.586	-0.058	-0.137	-0.151	-0.493	-0.301	-0.276	-54.688
0.204	0.312	0.375	0.047	0.116	0.410	0.390	-0.183	0.188	0.385	-0.241	0.039	0.155	-0.167	-0.065	-0.310	-0.090	0.550	-0.311	-0.280	-0.349	-0.613	-0.076	-0.054	-0.167	-0.412	-0.201	-0.332	-50.781
0.245	0.186	0.306	-0.044	0.052	0.400	0.455	-0.224	0.185	0.388	-0.205	0.058	0.207	-0.117	-0.083	-0.298	-0.068	0.524	-0.357	-0.284	-0.358	-0.632	-0.084	0.018	-0.147	-0.295	-0.097	-0.348	-46.875
0.292	0.076	0.231	-0.139	-0.024	0.364	0.492	-0.206	0.182	0.364	-0.165	0.079	0.216	-0.103	-0.105	-0.293	-0.047	0.471	-0.410	-0.323	-0.403	-0.644	-0.076	0.076	-0.095	-0.155	0.001	-0.328	-42.969
0.340	-0.000	0.166	-0.224	-0.102	0.317	0.500	-0.128	0.180	0.321	-0.130	0.098	0.184	-0.126	-0.130	-0.304	-0.038	0.394	-0.468	-0.394	-0.486	-0.652	-0.048	0.114	-0.018	-0.009	0.081	-0.282	-39.062
0.382	-0.030	0.120	-0.283	-0.168	0.277	0.477	-0.003	0.180	0.266	-0.111	0.112	0.118	-0.186	-0.152	-0.331	-0.046	0.304	-0.522	-0.487	-0.599	-0.656	-0.000	0.132	0.070	0.123	0.132	-0.222	-35.156
0.412	-0.012	0.098	-0.310	-0.214	0.259	0.427	0.146	0.179	0.208	-0.113	0.117	0.027	-0.274	-0.166	-0.368	-0.068	0.214	-0.566	-0.587	-0.732	-0.659	0.063	0.127	0.152	0.222	0.148	-0.164	-31.250
0.426	0.048	0.099	-0.299	-0.232	0.276	0.355	0.291	0.175	0.155	-0.138	0.111	-0.077	-0.380	-0.164	-0.406	-0.096	0.142	-0.592	-0.675	-0.868	-0.660	0.135	0.101	0.213	0.274	0.126	-0.123	-27.344
0.422	0.135	0.117	-0.254	-0.221	0.331	0.270	0.405	0.164	0.112	-0.184	0.093	-0.183	-0.494	-0.135	-0.433	-0.121	0.104	-0.595	-0.735	-0.991	-0.659	0.204	0.054	0.245	0.271	0.070	-0.106	-23.438
0.401	0.229	0.140	-0.182	-0.184	0.419	0.183	0.467	0.145	0.084	-0.243	0.065	-0.282	-0.603	-0.077	-0.441	-0.134	0.112	-0.576	-0.757	-1.088	-0.652	0.262	-0.010	0.241	0.214	-0.014	-0.115	-19.531
0.366	0.313	0.162	-0.097	-0.126	0.525	0.107	0.469	0.124	0.077	-0.302	0.033	-0.367	-0.700	0.012	-0.426	-0.135	0.169	-0.540	-0.739	-1.152	-0.639	0.303	-0.089	0.204	0.111	-0.112	-0.148	-15.625
0.325	0.370	0.174	-0.009	-0.057	0.626	0.052	0.415	0.108	0.096	-0.347	0.003	-0.432	-0.776	0.121	-0.388	-0.122	0.272	-0.495	-0.689	-1.179	-0.615	0.321	-0.176	0.139	-0.025	-0.213	-0.198	-11.719
0.286	0.394	0.175	0.070	0.016	0.701	0.031	0.322	0.107	0.143	-0.364	-0.014	-0.474	-0.828	0.237	-0.333	-0.103	0.406	-0.449	-0.615	-1.173	-0.581	0.316	-0.269	0.052	-0.176	-0.305	-0.258	-7.812
0.259	0.383	0.167	0.134	0.086	0.736	0.050	0.215	0.132	0.221	-0.342	-0.013	-0.491	-0.851	0.339	-0.270	-0.082	0.548	-0.411	-0.532	-1.141	-0.537	0.289	-0.360	-0.048	-0.327	-0.378	-0.325	-3.906
0.251	0.343	0.155	0.183	0.147	0.724	0.111	0.120	0.188	0.326	-0.276	0.012	-0.480	-0.845	0.410	-0.206	-0.065	0.673	-0.385	-0.450	-1.091	-0.487	0.245	-0.447	-0.156	-0.464	-0.428	-0.397	0.000
0.265	0.286	0.146	0.219	0.196	0.671	0.212	0.059	0.273	0.449	-0.170	0.059	-0.443	-0.808	0.435	-0.147	-0.054	0.753	-0.370	-0.376	-1.031	-0.434	0.189	-0.523	-0.265	-0.580	-0.452	-0.474	3.906
0.302	0.224	0.145	0.249	0.234	0.589	0.343	0.047	0.376	0.577	-0.034	0.124	-0.380	-0.743	0.410	-0.097	-0.050	0.772	-0.367	-0.313	-0.966	-0.385	0.125	-0.587	-0.371	-0.671	-0.452	-0.553	7.812
0.358	0.170	0.156	0.279	0.261	0.498	0.490	0.085	0.479	0.695	0.114	0.196	-0.297	-0.650	0.340	-0.057	-0.051	0.719	-0.370	-0.261	-0.900	-0.346	0.058	-0.635	-0.470	-0.739	-0.432	-0.628	11.719
0.425	0.131	0.180	0.316	0.279	0.412	0.638	0.168	0.564	0.787	0.257	0.268	-0.201	-0.537	0.238	-0.026	-0.057	0.599	-0.378	-0.217	-0.838	-0.323	-0.012	-0.668	-0.560	-0.785	-0.396	-0.691	15.625
0.495	0.114	0.214	0.360	0.288	0.344	0.774	0.281	0.613	0.840	0.378	0.329	-0.102	-0.412	0.123	-0.003	-0.065	0.427	-0.386	-0.181	-0.783	-0.322	-0.084	-0.687	-0.638	-0.813	-0.346	-0.729	19.531
0.559	0.117	0.254	0.412	0.288	0.298	0.884	0.404	0.615	0.847	0.466	0.373	-0.013	-0.286	0.014	0.014	-0.071	0.227	-0.395	-0.153	-0.742	-0.345	-0.159	-0.693	-0.699	-0.820	-0.287	-0.733	23.438
0.609	0.136	0.297	0.465	0.275	0.276	0.960	0.520	0.569	0.807	0.512	0.395	0.052	-0.173	-0.074	0.024	-0.076	0.026	-0.404	-0.136	-0.719	-0.393	-0.236	-0.686	-0.739	-0.800	-0.221	-0.693	27.344
0.634	0.163	0.334	0.511	0.248	0.277	0.996	0.615	0.485	0.726	0.520	0.392	0.079	-0.084	-0.135	0.027	-0.079	-0.150	-0.415	-0.136	-0.721	-0.462	-0.313	-0.667	-0.751	-0.743	-0.150	-0.609	31.250
0.626	0.188	0.360	0.541	0.205	0.304	0.994	0.681	0.383	0.617	0.498	0.366	0.059	-0.033	-0.170	0.019	-0.083	-0.280	-0.429	-0.159	-0.754	-0.549	-0.388	-0.635	-0.726	-0.636	-0.076	-0.482	35.156
0.573	0.198	0.366	0.546	0.144	0.362	0.959	0.719	0.294	0.499	0.465	0.321	-0.011	-0.024	-0.191	-0.005	-0.091	-0.353	-0.451	-0.211	-0.820	-0.647	-0.455	-0.590	-0.659	-0.466	0.000	-0.315	39.062
0.463	0.183	0.348	0.517	0.068	0.456	0.904	0.741	0.258	0.396	0.448	0.265	-0.130	-0.061	-0.216	-0.049	-0.112	-0.370	-0.486	-0.295	-0.922	-0.754	-0.512	-0.535	-0.543	-0.224	0.082	-0.113	42.969
0.288	0.131	0.301	0.447	-0.020	0.588	0.846	0.763	0.318	0.338	0.477	0.212	-0.286	-0.144	-0.268	-0.120	-0.156	-0.344	-0.541	-0.415	-1.057	-0.867	-0.560	-0.477	-0.377	0.093	0.172	0.122	46.875
0.045	0.033	0.220	0.335	-0.114	0.750	0.803	0.803	0.516	0.351	0.584	0.180	-0.467	-0.266	-0.365	-0.225	-0.235	-0.299	-0.625	-0.572	-1.227	-0.991	-0.603	-0.425	-0.166	0.483	0.277	0.390	50.781
-0.257	-0.116	0.105	0.178	-0.211	0.929	0.796	0.877	0.881	0.459	0.799	0.186	-0.653	-0.421	-0.520	-0.370	-0.362	-0.265	-0.747	-0.766	-1.428	-1.128	-0.644	-0.386	0.082	0.935	0.403	0.696	54.688
-0.603	-0.316	-0.045	-0.021	-0.309	1.102	0.836	0.991	1.422	0.673	1.136	0.248	-0.828	-0.599	-0.737	-0.561	-0.543	-0.271	-0.911	-0.995	-1.660	-1.281	-0.689	-0.365	0.354	1.427	0.557	1.041	58.594
-0.968	-0.563	-0.229	-0.259	-0.408	1.250	0.928	1.142	2.123	0.990	1.596	0.379	-0.974	-0.790	-1.008	-0.800	-0.780	-0.342	-1.118	-1.257	-1.919	-1.449	-0.740	-0.361	0.632	1.931	0.740	1.424	62.500
-1.322	-0.847	-0.440	-0.526	-0.511	1.352	1.066	1.314	2.938	1.393	2.158	0.581	-1.079	-0.982	-1.317	-1.087	-1.064	-0.484	-1.363	-1.549	-2.200	-1.626	-0.796	-0.370	0.898	2.415	0.948	1.839	66.406
-1.636	-1.152	-0.668	-0.812	-0.623	1.401	1.233	1.489	3.802	1.847	2.780	0.848	-1.136	-1.165	-1.638	-1.417	-1.379	-0.692	-1.635	-1.866	-2.499	-1.802	-0.852	-0.380	1.133	2.845	1.171	2.269	70.312
-1.886	-1.457	-0.895	-1.103	-0.745	1.399	1.409	1.645	4.637	2.312	3.412	1.163	-1.143	-1.330	-1.945	-1.781	-1.704	-0.942	-1.919	-2.203	-2.805	-1.968	-0.905	-0.382	1.318	3.190	1.398	2.693	74.219
-2.063	-1.744	-1.101	-1.385	-0.879	1.354	1.572	1.767	5.370	2.747	3.998	1.507	-1.103	-1.470	-2.211	-2.165	-2.018	-1.200	-2.200	-2.552	-3.111	-2.115	-0.953	-0.364	1.441	3.430	1.615	3.090	78.125
-2.169	-1.994	-1.269	-1.644	-1.024	1.282	1.703	1.845	5.947	3.120	4.492	1.860	-1.022	-1.582	-2.421	-2.553	-2.299	-1.431	-2.466	-2.906	-3.408	-2.241	-0.998	-0.319	1.498	3.564	1.815	3.447	82.031
-2.222	-2.197	-1.386	-1.872	-1.175	1.196	1.793	1.882	6.339	3.411	4.862	2.208	-0.911	-1.666	-2.568	-2.927	-2.535	-1.606	-2.706	-3.254	-3.688	-2.345	-1.043	-0.242	1.493	3.607	1.999	3.757	85.938
-2.244	-2.351	-1.452	-2.064	-1.328	1.105	1.842	1.883	6.540	3.620	5.099	2.541	-0.777	-1.721	-2.655	-3.272	-2.719	-1.711	-2.913	-3.587	-3.945	-2.431	-1.095	-0.132	1.441	3.591	2.177	4.029	89.844
-2.264	-2.464	-1.475	-2.220	-1.476	1.008	1.856	1.861	6.571	3.758	5.213	2.859	-0.625	-1.748	-2.695	-3.571	-2.853	-1.747	-3.086	-3.892	-4.172	-2.504	-1.159	0.011	1.366	3.561	2.365	4.279	93.750
-2.304	-2.548	-1.473	-2.345	-1.613	0.897	1.849	1.824	6.458	3.844	5.223	3.162	-0.458	-1.743	-2.706	-3.816	-2.943	-1.731	-3.222	-4.157	-4.357	-2.564	-1.235	0.184	1.294	3.559	2.583	4.526	97.656
-2.374	-2.617	-1.464	-2.443	-1.734	0.762	1.836	1.780	6.234	3.901	5.159	3.451	-0.273	-1.700	-2.701	-3.998	-2.999	-1.686	-3.321	-4.367	-4.489	-2.609	-1.318	0.387	1.250	3.618	2.845	4.784	101.562
-2.475	-2.682	-1.462	-2.517	-1.833	0.591	1.831	1.728	5.924	3.947	5.042	3.722	-0.064	-1.611	-2.691	-4.112	-3.028	-1.635	-3.380	-4.507	-4.553	-2.633	-1.399	0.613	1.249	3.752	3.154	5.060	105.469
-2.594	-2.742	-1.476	-2.563	-1.901	0.379	1.844	1.660	5.544	3.995	4.889	3.964	0.174	-1.468	-2.676	-4.155	-3.036	-1.593	-3.395	-4.565	-4.533	-2.626	-1.464	0.859	1.294	3.950	3.503	5.342	109.375
-2.709	-2.785	-1.503	-2.574	-1.931	0.130	1.881	1.562	5.101	4.047	4.705	4.158	0.444	-1.263	-2.651	-4.126	-3.021	-1.562	-3.357	-4.526	-4.415	-2.578	-1.497	1.116	1.367	4.176	3.869	5.607	113.281
-2.790	-2.790	-1.532	-2.537	-1.913	-0.143	1.943	1.415	4.589	4.097	4.482	4.280	0.747	-0.993	-2.601	-4.021	-2.974	-1.531	-3.258	-4.383	-4.189	-2.477	-1.483	1.373	1.439	4.377	4.219	5.820	117.188
-2.805	-2.729	-1.548	-2.434	-1.838	-0.418	2.020	1.198	3.999	4.129	4.202	4.300	1.077	-0.660	-2.510	-3.838	-2.875	-1.479	-3.085	-4.130	-3.850	-2.312	-1.410	1.617	1.469	4.490	4.510	5.939	121.094
-2.723	-2.574	-1.529	-2.249	-1.698	-0.667	2.098	0.888	3.315	4.117	3.843	4.188	1.418	-0.269	-2.356	-3.572	-2.704	-1.381	-2.827	-3.763	-3.402	-2.072	-1.267	1.833	1.412	4.453	4.700	5.923	125.000
-2.523	-2.302	-1.456	-1.969	-1.490	-0.858	2.157	0.469	2.525	4.030	3.378	3.921	1.752	0.167	-2.119	-3.214	-2.435	-1.213	-2.472	-3.284	-2.852	-1.753	-1.051	2.004	1.230	4.215	4.751	5.738	128.906
-2.192	-1.903	-1.315	-1.593	-1.219	-0.966	2.173	-0.068	1.625	3.836	2.789	3.483	2.052	0.634	-1.786	-2.760	-2.047	-0.962	-2.012	-2.698	-2.216	-1.352	-0.766	2.118	0.897	3.748	4.637	5.370	132.812
-1.736	-1.377	-1.098	-1.126	-0.895	-0.972	2.127	-0.719	0.627	3.510	2.073	2.876	2.292	1.111	-1.347	-2.204	-1.530	-0.626	-1.451	-2.017	-1.517	-0.876	-0.425	2.161	0.409	3.050	4.348	4.820	136.719
-1.177	-0.743	-0.807	-0.587	-0.539	-0.873	2.006	-1.465	-0.440	3.039	1.245	2.120	2.447	1.575	-0.809	-1.553	-0.890	-0.215	-0.804	-1.260	-0.785	-0.342	-0.050	2.127	-0.217	2.152	3.893	4.115	140.625
-0.549	-0.033	-0.457	-0.007	-0.176	-0.684	1.809	-2.272	-1.526	2.434	0.344	1.253	2.498	2.005	-0.191	-0.822	-0.150	0.245	-0.099	-0.457	-0.054	0.223	0.331	2.013	-0.943	1.109	3.304	3.299	144.531
0.102	0.710	-0.071	0.578	0.164	-0.430	1.547	-3.091	-2.563	1.726	-0.572	0.334	2.441	2.376	0.468	-0.045	0.645	0.725	0.617	0.352	0.637	0.780	0.683	1.825	-1.716	0.002	2.626	2.432	148.438
0.728	1.433	0.320	1.124	0.453	-0.150	1.245	-3.861	-3.474	0.975	-1.431	-0.568	2.280	2.669	1.119	0.733	1.435	1.186	1.288	1.115	1.247	1.283	0.971	1.574	-2.475	-1.076	1.919	1.587	152.344
1.284	2.080	0.680	1.588	0.666	0.114	0.935	-4.517	-4.176	0.255	-2.150	-1.378	2.037	2.868	1.704	1.452	2.151	1.593	1.854	1.777	1.736	1.685	1.166	1.280	-3.157	-2.032	1.250	0.836	156.250
1.727	2.595	0.974	1.933	0.783	0.320	0.657	-4.994	-4.598	-0.351	-2.651	-2.018	1.744	2.961	2.165	2.046	2.723	1.909	2.258	2.280	2.068	1.942	1.246	0.970	-3.708	-2.779	0.685	0.250	160.156
2.026	2.931	1.171	2.125	0.788	0.433	0.444	-5.239	-4.683	-0.762	-2.866	-2.421	1.440	2.944	2.452	2.453	3.092	2.103	2.458	2.572	2.214	2.021	1.201	0.670	-4.084	-3.247	0.282	-0.109	164.062
2.156	3.052	1.248	2.145	0.676	0.429	0.329	-5.216	-4.397	-0.914	-2.747	-2.535	1.166	2.817	2.531	2.622	3.217	2.149	2.428	2.616	2.156	1.908	1.031	0.409	-4.258	-3.390	0.090	-0.197	167.969
2.106	2.944	1.192	1.985	0.447	0.298	0.330	-4.916	-3.737	-0.769	-2.272	-2.332	0.960	2.590	2.388	2.526	3.082	2.034	2.167	2.393	1.892	1.606	0.750	0.208	-4.220	-3.189	0.135	0.011	171.875
1.875	2.612	1.002	1.650	0.111	0.051	0.454	-4.359	-2.730	-0.321	-1.448	-1.808	0.847	2.278	2.032	2.161	2.698	1.753	1.699	1.912	1.434	1.139	0.380	0.081	-3.980	-2.657	0.423	0.515	175.781
1.473	2.084	0.687	1.163	-0.316	-0.291	0.696	-3.587	-1.429	0.405	-0.316	-0.989	0.841	1.903	1.488	1.555	2.103	1.315	1.064	1.202	0.812	0.547	-0.055	0.030	-3.566	-1.832	0.938	1.292	179.688
0.922	1.406	0.266	0.554	-0.808	-0.691	1.041	-2.665	0.089	1.356	1.059	0.075	0.943	1.494	0.798	0.756	1.356	0.743	0.319	0.317	0.067	-0.118	-0.527	0.050	-3.017	-0.776	1.642	2.296	183.594
0.250	0.633	-0.237	-0.137	-1.331	-1.104	1.467	-1.664	1.735	2.459	2.589	1.313	1.141	1.081	0.014	-0.168	0.525	0.067	-0.477	-0.677	-0.747	-0.800	-1.009	0.131	-2.381	0.438	2.480	3.468	187.500
-0.506	-0.178	-0.795	-0.869	-1.852	-1.486	1.946	-0.661	3.412	3.631	4.177	2.644	1.413	0.696	-0.814	-1.148	-0.326	-0.675	-1.264	-1.709	-1.573	-1.447	-1.478	0.261	-1.706	1.732	3.393	4.739	191.406
-1.306	-0.981	-1.378	-1.603	-2.337	-1.800	2.449	0.281	5.030	4.791	5.726	3.983	1.734	0.363	-1.642	-2.119	-1.143	-1.440	-1.995	-2.717	-2.357	-2.013	-1.912	0.429	-1.033	3.036	4.321	6.042	195.312
-2.106	-1.742	-1.961	-2.309	-2.760	-2.024	2.948	1.110	6.513	5.865	7.149	5.256	2.073	0.102	-2.432	-3.034	-1.889	-2.192	-2.637	-3.649	-3.052	-2.466	-2.293	0.630	-0.392	4.293	5.212	7.313	199.219
-2.866	-2.445	-2.523	-2.966	-3.104	-2.157	3.417	1.795	7.805	6.801	8.380	6.403	2.404	-0.075	-3.160	-3.861	-2.548	-2.898	-3.172	-4.473	-3.626	-2.788	-2.606	0.860	0.202	5.464	6.028	8.503	203.125
-3.551	-3.089	-3.050	-3.564	-3.364	-2.216	3.836	2.323	8.874	7.564	9.378	7.384	2.704	-0.166	-3.808	-4.593	-3.122	-3.534	-3.598	-5.172	-4.060	-2.976	-2.837	1.120	0.747	6.529	6.749	9.575	207.031
-4.137	-3.679	-3.533	-4.098	-3.544	-2.235	4.191	2.696	9.712	8.146	10.130	8.181	2.960	-0.177	-4.368	-5.231	-3.623	-4.082	-3.926	-5.746	-4.353	-3.040	-2.980	1.409	1.246	7.478	7.368	10.507	210.938
-4.612	-4.226	-3.971	-4.569	-3.657	-2.254	4.474	2.931	10.331	8.557	10.646	8.793	3.167	-0.115	-4.837	-5.788	-4.067	-4.536	-4.172	-6.202	-4.513	-3.000	-3.034	1.727	1.708	8.313	7.890	11.288	214.844
-4.980	-4.734	-4.368	-4.977	-3.718	-2.308	4.687	3.051	10.755	8.826	10.959	9.232	3.333	0.009	-5.219	-6.274	-4.469	-4.893	-4.353	-6.550	-4.554	-2.878	-3.002	2.069	2.138	9.040	8.328	11.919	218.750
-5.254	-5.203	-4.727	-5.321	-3.740	-2.416	4.841	3.084	11.017	8.990	11.112	9.521	3.473	0.187	-5.524	-6.697	-4.837	-5.160	-4.485	-6.799	-4.495	-2.696	-2.896	2.429	2.534	9.662	8.699	12.405	222.656
-5.459	-5.626	-5.055	-5.596	-3.733	-2.577	4.955	3.053	11.148	9.091	11.152	9.683	3.610	0.416	-5.767	-7.057	-5.174	-5.348	-4.576	-6.952	-4.349	-2.469	-2.729	2.801	2.888	10.180	9.020	12.756	226.562
-5.620	-5.993	-5.355	-5.800	-3.697	-2.774	5.051	2.981	11.179	9.170	11.122	9.747	3.774	0.699	-5.963	-7.348	-5.477	-5.474	-4.632	-7.010	-4.127	-2.208	-2.520	3.177	3.185	10.592	9.306	12.984	230.469
-5.763	-6.297	-5.634	-5.928	-3.629	-2.974	5.153	2.879	11.129	9.258	11.053	9.739	3.992	1.042	-6.128	-7.563	-5.738	-5.557	-4.651	-6.974	-3.832	-1.916	-2.288	3.554	3.411	10.896	9.570	13.104	234.375
-5.910	-6.534	-5.900	-5.982	-3.523	-3.141	5.283	2.755	11.011	9.378	10.964	9.683	4.289	1.455	-6.272	-7.697	-5.949	-5.620	-4.632	-6.842	-3.464	-1.595	-2.050	3.931	3.556	11.092	9.822	13.131	238.281
-6.075	-6.709	-6.164	-5.968	-3.372	-3.244	5.455	2.608	10.826	9.539	10.861	9.602	4.681	1.945	-6.404	-7.751	-6.105	-5.683	-4.572	-6.622	-3.023	-1.244	-1.821	4.313	3.620	11.188	10.073	13.087	242.188
-6.260	-6.831	-6.435	-5.898	-3.175	-3.266	5.674	2.430	10.573	9.741	10.741	9.517	5.174	2.513	-6.525	-7.728	-6.202	-5.766	-4.474	-6.321	-2.509	-0.864	-1.611	4.706	3.611	11.199	10.331	12.995	246.094
-6.464	-6.914	-6.724	-5.785	-2.937	-3.203	5.935	2.215	10.243	9.970	10.595	9.443	5.756	3.152	-6.638	-7.637	-6.239	-5.878	-4.340	-5.952	-1.927	-0.461	-1.425	5.116	3.549	11.147	10.604	12.878	250.000
-6.673	-6.969	-7.037	-5.643	-2.665	-3.071	6.220	1.953	9.832	10.210	10.411	9.386	6.407	3.851	-6.742	-7.489	-6.220	-6.024	-4.171	-5.525	-1.281	-0.039	-1.260	5.544	3.458	11.056	10.893	12.754	253.906
-6.873	-7.001	-7.378	-5.483	-2.373	-2.893	6.510	1.638	9.338	10.438	10.180	9.343	7.093	4.589	-6.837	-7.290	-6.145	-6.195	-3.971	-5.050	-0.584	0.395	-1.112	5.988	3.359	10.946	11.192	12.634	257.812
-7.044	-7.007	-7.741	-5.310	-2.073	-2.700	6.776	1.271	8.763	10.629	9.893	9.300	7.774	5.342	-6.919	-7.042	-6.014	-6.374	-3.735	-4.529	0.155	0.836	-0.971	6.436	3.271	10.828	11.486	12.516	261.719
-7.171	-6.976	-8.115	-5.122	-1.773	-2.518	6.995	0.858	8.119	10.760	9.543	9.235	8.406	6.085	-6.981	-6.741	-5.826	-6.538	-3.460	-3.959	0.922	1.283	-0.828	6.871	3.202	10.699	11.751	12.385	265.625
-7.242	-6.892	-8.480	-4.913	-1.479	-2.368	7.146	0.412	7.422	10.810	9.129	9.121	8.949	6.794	-7.016	-6.379	-5.578	-6.662	-3.137	-3.335	1.703	1.734	-0.671	7.274	3.152	10.549	11.958	12.219	269.531
-7.251	-6.739	-8.815	-4.671	-1.191	-2.263	7.220	-0.048	6.696	10.762	8.651	8.931	9.371	7.445	-7.014	-5.948	-5.268	-6.725	-2.762	-2.653	2.481	2.189	-0.493	7.622	3.110	10.360	12.078	11.991	273.438
-7.203	-6.506	-9.097	-4.387	-0.907	-2.203	7.215	-0.497	5.967	10.605	8.115	8.645	9.653	8.025	-6.966	-5.447	-4.899	-6.714	-2.332	-1.913	3.240	2.647	-0.290	7.898	3.064	10.113	12.086	11.677	277.344
-7.108	-6.192	-9.306	-4.053	-0.619	-2.183	7.139	-0.912	5.261	10.336	7.528	8.251	9.788	8.525	-6.869	-4.879	-4.479	-6.626	-1.852	-1.126	3.965	3.103	-0.062	8.090	3.001	9.795	11.968	11.264	281.250
-6.985	-5.805	-9.431	-3.668	-0.322	-2.187	7.011	-1.274	4.605	9.962	6.907	7.751	9.783	8.943	-6.725	-4.259	-4.024	-6.466	-1.332	-0.308	4.640	3.549	0.185	8.195	2.913	9.404	11.725	10.750	285.156
-6.855	-5.366	-9.466	-3.239	-0.012	-2.198	6.848	-1.566	4.019	9.497	6.269	7.156	9.657	9.282	-6.544	-3.606	-3.553	-6.249	-0.792	0.515	5.253	3.975	0.442	8.216	2.794	8.947	11.370	10.150	289.062
-6.735	-4.902	-9.417	-2.781	0.310	-2.195	6.673	-1.781	3.517	8.966	5.635	6.491	9.434	9.548	-6.346	-2.946	-3.087	-5.992	-0.251	1.314	5.797	4.370	0.693	8.164	2.647	8.442	10.927	9.490	292.969
-6.633	-4.443	-9.296	-2.313	0.639	-2.157	6.501	-1.919	3.102	8.395	5.025	5.787	9.142	9.748	-6.149	-2.303	-2.644	-5.716	0.266	2.062	6.265	4.722	0.923	8.056	2.477	7.910	10.427	8.804	296.875
-6.548	-4.017	-9.121	-1.860	0.964	-2.068	6.342	-1.986	2.768	7.818	4.458	5.076	8.804	9.886	-5.975	-1.700	-2.238	-5.437	0.741	2.734	6.656	5.023	1.119	7.910	2.293	7.375	9.902	8.127	300.781
-6.473	-3.649	-8.912	-1.443	1.271	-1.921	6.201	-1.989	2.502	7.265	3.948	4.393	8.446	9.964	-5.839	-1.154	-1.874	-5.174	1.157	3.312	6.967	5.269	1.273	7.748	2.103	6.861	9.383	7.492	304.688
-6.397	-3.350	-8.688	-1.081	1.544	-1.716	6.077	-1.941	2.289	6.763	3.506	3.767	8.086	9.985	-5.748	-0.676	-1.558	-4.939	1.502	3.786	7.201	5.458	1.384	7.588	1.919	6.386	8.896	6.923	308.594
-6.312	-3.126	-8.467	-0.788	1.769	-1.464	5.965	-1.849	2.113	6.335	3.137	3.223	7.742	9.950	-5.705	-0.271	-1.289	-4.746	1.769	4.156	7.360	5.594	1.457	7.447	1.752	5.964	8.462	6.437	312.500
-6.217	-2.971	-8.262	-0.569	1.938	-1.186	5.861	-1.724	1.965	5.994	2.842	2.776	7.429	9.865	-5.701	0.060	-1.070	-4.605	1.956	4.427	7.450	5.684	1.502	7.337	1.610	5.605	8.093	6.039	316.406
-6.117	-2.872	-8.080	-0.422	2.047	-0.906	5.759	-1.572	1.839	5.741	2.621	2.434	7.159	9.736	-5.725	0.321	-0.899	-4.520	2.068	4.608	7.477	5.736	1.533	7.261	1.504	5.313	7.795	5.727	320.312
-6.025	-2.811	-7.925	-0.340	2.099	-0.654	5.658	-1.400	1.736	5.569	2.466	2.192	6.937	9.572	-5.764	0.517	-0.776	-4.487	2.112	4.712	7.448	5.758	1.561	7.218	1.440	5.088	7.565	5.489	324.219
-5.953	-2.772	-7.794	-0.310	2.103	-0.451	5.557	-1.212	1.662	5.462	2.368	2.037	6.764	9.380	-5.801	0.653	-0.697	-4.494	2.099	4.751	7.369	5.754	1.595	7.198	1.421	4.923	7.396	5.309	328.125
-5.914	-2.741	-7.683	-0.320	2.068	-0.312	5.456	-1.010	1.625	5.399	2.315	1.949	6.631	9.168	-5.824	0.737	-0.657	-4.523	2.047	4.732	7.247	5.727	1.640	7.188	1.447	4.810	7.269	5.166	332.031
-5.915	-2.710	-7.587	-0.358	2.004	-0.236	5.361	-0.794	1.634	5.356	2.296	1.902	6.525	8.939	-5.824	0.773	-0.645	-4.552	1.974	4.664	7.085	5.677	1.700	7.172	1.514	4.739	7.166	5.040	335.938
-5.960	-2.680	-7.504	-0.414	1.920	-0.213	5.274	-0.563	1.695	5.317	2.299	1.872	6.427	8.695	-5.798	0.765	-0.652	-4.563	1.898	4.551	6.884	5.602	1.775	7.134	1.619	4.700	7.066	4.917	339.844
-6.046	-2.662	-7.436	-0.484	1.822	-0.219	5.199	-0.317	1.816	5.269	2.317	1.841	6.318	8.437	-5.749	0.716	-0.669	-4.543	1.835	4.395	6.646	5.500	1.863	7.064	1.755	4.687	6.951	4.784	343.750
-6.163	-2.669	-7.383	-0.567	1.712	-0.228	5.137	-0.056	1.998	5.210	2.346	1.795	6.184	8.164	-5.686	0.629	-0.690	-4.490	1.794	4.199	6.373	5.371	1.963	6.956	1.919	4.697	6.811	4.641	347.656
-6.300	-2.717	-7.349	-0.667	1.591	-0.219	5.086	0.218	2.241	5.145	2.387	1.737	6.014	7.875	-5.622	0.503	-0.713	-4.411	1.777	3.965	6.067	5.216	2.070	6.809	2.110	4.731	6.645	4.493	351.562
-6.443	-2.820	-7.332	-0.789	1.460	-0.178	5.042	0.498	2.538	5.080	2.444	1.674	5.806	7.571	-5.571	0.337	-0.741	-4.322	1.776	3.695	5.731	5.038	2.178	6.625	2.327	4.792	6.459	4.353	355.469
-6.576	-2.985	-7.332	-0.941	1.316	-0.105	4.998	0.779	2.876	5.023	2.523	1.625	5.565	7.255	-5.547	0.132	-0.778	-4.236	1.781	3.392	5.372	4.844	2.282	6.413	2.569	4.883	6.267	4.239	359.375
-6.687	-3.212	-7.345	-1.128	1.158	-0.014	4.945	1.055	3.242	4.979	2.628	1.607	5.301	6.931	-5.558	-0.110	-0.831	-4.167	1.773	3.062	4.999	4.640	2.373	6.181	2.832	5.004	6.083	4.167	363.281
-6.765	-3.490	-7.362	-1.354	0.987	0.078	4.878	1.321	3.620	4.948	2.760	1.637	5.027	6.605	-5.606	-0.386	-0.903	-4.121	1.738	2.713	4.622	4.433	2.445	5.935	3.107	5.151	5.920	4.151	367.188
-6.805	-3.801	-7.375	-1.613	0.806	0.149	4.793	1.571	3.996	4.925	2.916	1.722	4.754	6.285	-5.685	-0.686	-0.997	-4.099	1.662	2.357	4.254	4.228	2.490	5.681	3.381	5.318	5.784	4.198	371.094
-6.809	-4.119	-7.376	-1.896	0.621	0.188	4.690	1.805	4.358	4.900	3.089	1.861	4.490	5.972	-5.784	-1.001	-1.116	-4.094	1.536	2.002	3.906	4.027	2.500	5.419	3.638	5.495	5.675	4.307	375.000
-6.782	-4.422	-7.357	-2.187	0.441	0.190	4.572	2.019	4.703	4.866	3.273	2.045	4.237	5.671	-5.888	-1.317	-1.260	-4.096	1.356	1.660	3.587	3.828	2.472	5.149	3.862	5.678	5.586	4.469	378.906
-6.733	-4.687	-7.313	-2.465	0.276	0.163	4.445	2.209	5.027	4.817	3.460	2.260	3.993	5.383	-5.984	-1.624	-1.430	-4.096	1.126	1.337	3.303	3.629	2.402	4.870	4.040	5.861	5.508	4.673	382.812
-6.672	-4.899	-7.243	-2.713	0.138	0.125	4.313	2.366	5.330	4.752	3.646	2.489	3.753	5.108	-6.061	-1.913	-1.629	-4.084	0.852	1.040	3.054	3.427	2.292	4.583	4.165	6.043	5.435	4.904	386.719
-6.609	-5.053	-7.152	-2.913	0.034	0.094	4.181	2.483	5.607	4.676	3.825	2.718	3.512	4.849	-6.115	-2.178	-1.855	-4.053	0.550	0.770	2.838	3.219	2.147	4.295	4.236	6.224	5.361	5.146	390.625
-6.551	-5.147	-7.044	-3.054	-0.028	0.087	4.052	2.547	5.845	4.593	3.988	2.932	3.265	4.611	-6.141	-2.413	-2.101	-4.000	0.240	0.532	2.653	3.007	1.978	4.015	4.258	6.401	5.288	5.380	394.531
-6.500	-5.186	-6.926	-3.133	-0.049	0.112	3.926	2.551	6.027	4.506	4.121	3.117	3.015	4.400	-6.137	-2.617	-2.356	-3.920	-0.057	0.328	2.496	2.798	1.803	3.756	4.240	6.563	5.216	5.587	398.438
-6.448	-5.174	-6.803	-3.151	-0.032	0.169	3.802	2.491	6.128	4.416	4.205	3.255	2.764	4.226	-6.099	-2.783	-2.601	-3.808	-0.318	0.162	2.366	2.600	1.642	3.529	4.191	6.694	5.144	5.749	402.344
-6.385	-5.116	-6.676	-3.114	0.018	0.250	3.677	2.371	6.122	4.313	4.217	3.327	2.519	4.091	-6.025	-2.906	-2.814	-3.662	-0.524	0.035	2.266	2.427	1.518	3.340	4.120	6.769	5.065	5.845	406.250
-6.291	-5.015	-6.540	-3.032	0.093	0.344	3.547	2.202	5.992	4.186	4.138	3.318	2.284	3.998	-5.906	-2.982	-2.975	-3.478	-0.664	-0.052	2.196	2.286	1.449	3.192	4.031	6.759	4.967	5.858	410.156
-6.146	-4.871	-6.390	-2.913	0.188	0.438	3.409	2.005	5.732	4.018	3.956	3.211	2.064	3.942	-5.739	-3.005	-3.066	-3.257	-0.733	-0.098	2.156	2.183	1.444	3.076	3.924	6.637	4.833	5.775	414.062
-5.932	-4.683	-6.214	-2.765	0.297	0.526	3.263	1.806	5.350	3.799	3.668	3.002	1.862	3.914	-5.520	-2.971	-3.080	-3.001	-0.738	-0.103	2.146	2.116	1.501	2.979	3.795	6.381	4.643	5.588	417.969
-5.639	-4.449	-6.004	-2.591	0.420	0.604	3.110	1.628	4.869	3.521	3.287	2.694	1.682	3.902	-5.252	-2.875	-3.015	-2.715	-0.690	-0.067	2.164	2.080	1.606	2.880	3.635	5.978	4.382	5.297	421.875
-5.267	-4.171	-5.750	-2.393	0.558	0.675	2.952	1.488	4.319	3.191	2.838	2.304	1.527	3.895	-4.941	-2.717	-2.880	-2.409	-0.601	0.014	2.207	2.065	1.736	2.759	3.434	5.431	4.043	4.910	425.781
-4.829	-3.853	-5.451	-2.170	0.714	0.745	2.795	1.389	3.738	2.823	2.351	1.860	1.399	3.886	-4.598	-2.500	-2.687	-2.093	-0.486	0.145	2.273	2.063	1.865	2.600	3.187	4.755	3.630	4.443	429.688
-4.349	-3.504	-5.111	-1.924	0.889	0.820	2.644	1.324	3.159	2.445	1.866	1.399	1.305	3.871	-4.237	-2.230	-2.454	-1.780	-0.355	0.329	2.358	2.067	1.967	2.397	2.889	3.976	3.161	3.921	433.594
-3.862	-3.138	-4.742	-1.659	1.079	0.912	2.506	1.276	2.612	2.091	1.418	0.967	1.246	3.848	-3.874	-1.923	-2.196	-1.485	-0.215	0.562	2.457	2.075	2.023	2.153	2.545	3.133	2.664	3.375	437.500
-3.402	-2.774	-4.363	-1.388	1.277	1.029	2.385	1.222	2.119	1.793	1.040	0.608	1.223	3.821	-3.520	-1.598	-1.932	-1.220	-0.073	0.831	2.560	2.087	2.025	1.882	2.167	2.268	2.175	2.840	441.406
-2.998	-2.432	-3.997	-1.128	1.467	1.175	2.286	1.145	1.696	1.582	0.757	0.359	1.230	3.789	-3.189	-1.282	-1.677	-0.993	0.068	1.116	2.656	2.102	1.972	1.604	1.772	1.426	1.731	2.355	445.312
-2.670	-2.132	-3.667	-0.902	1.630	1.347	2.207	1.034	1.352	1.475	0.585	0.249	1.260	3.754	-2.888	-1.001	-1.444	-0.811	0.200	1.387	2.732	2.120	1.875	1.343	1.382	0.649	1.362	1.951	449.219
-2.427	-1.891	-3.394	-0.731	1.747	1.536	2.149	0.886	1.090	1.473	0.524	0.283	1.299	3.714	-2.627	-0.779	-1.246	-0.672	0.320	1.615	2.778	2.136	1.748	1.117	1.020	-0.024	1.086	1.656	453.125
-2.265	-1.719	-3.190	-0.631	1.802	1.722	2.105	0.710	0.907	1.563	0.565	0.449	1.332	3.671	-2.408	-0.630	-1.087	-0.569	0.421	1.779	2.788	2.143	1.606	0.937	0.705	-0.568	0.910	1.483	457.031
-2.174	-1.617	-3.058	-0.609	1.789	1.885	2.072	0.519	0.794	1.714	0.682	0.713	1.346	3.624	-2.235	-0.554	-0.968	-0.493	0.503	1.869	2.769	2.137	1.468	0.805	0.450	-0.969	0.822	1.431	460.938
-2.137	-1.577	-2.995	-0.658	1.714	2.001	2.042	0.327	0.736	1.887	0.838	1.023	1.329	3.576	-2.104	-0.533	-0.881	-0.430	0.571	1.893	2.732	2.113	1.351	0.716	0.259	-1.229	0.799	1.481	464.844
-2.135	-1.584	-2.988	-0.756	1.591	2.054	2.007	0.147	0.713	2.033	0.990	1.316	1.270	3.532	-2.008	-0.539	-0.811	-0.366	0.633	1.875	2.700	2.077	1.270	0.656	0.129	-1.366	0.807	1.600	468.750
-2.145	-1.616	-3.016	-0.873	1.446	2.037	1.960	-0.012	0.702	2.111	1.095	1.531	1.166	3.496	-1.935	-0.536	-0.740	-0.286	0.706	1.852	2.694	2.034	1.237	0.608	0.047	-1.412	0.807	1.740	472.656
-2.147	-1.646	-3.059	-0.974	1.307	1.955	1.895	-0.145	0.682	2.088	1.114	1.614	1.014	3.471	-1.869	-0.486	-0.650	-0.180	0.803	1.861	2.735	1.997	1.258	0.554	-0.000	-1.408	0.763	1.851	476.562
-2.123	-1.652	-3.092	-1.027	1.203	1.828	1.806	-0.251	0.638	1.948	1.024	1.531	0.817	3.458	-1.796	-0.365	-0.525	-0.039	0.936	1.931	2.833	1.976	1.332	0.480	-0.030	-1.396	0.644	1.880	480.469
-2.063	-1.617	-3.096	-1.010	1.157	1.683	1.696	-0.330	0.564	1.693	0.815	1.271	0.585	3.456	-1.706	-0.161	-0.361	0.139	1.108	2.078	2.985	1.978	1.451	0.376	-0.055	-1.413	0.436	1.789	484.375
-1.961	-1.534	-3.057	-0.914	1.180	1.554	1.567	-0.385	0.464	1.346	0.499	0.847	0.334	3.460	-1.596	0.115	-0.161	0.352	1.310	2.294	3.178	2.004	1.599	0.240	-0.084	-1.482	0.137	1.561	488.281
-1.825	-1.407	-2.973	-0.750	1.271	1.470	1.428	-0.415	0.350	0.942	0.103	0.300	0.084	3.465	-1.471	0.435	0.058	0.588	1.522	2.553	3.382	2.048	1.758	0.080	-0.114	-1.605	-0.236	1.200	492.188
-1.668	-1.253	-2.847	-0.542	1.416	1.449	1.293	-0.420	0.239	0.524	-0.334	-0.316	-0.142	3.466	-1.344	0.758	0.270	0.829	1.717	2.814	3.566	2.101	1.908	-0.087	-0.138	-1.765	-0.648	0.741	496.094
-1.509	-1.096	-2.696	-0.322	1.590	1.497	1.173	-0.400	0.149	0.134	-0.767	-0.934	-0.319	3.460	-1.231	1.039	0.446	1.050	1.863	3.031	3.698	2.148	2.030	-0.240	-0.144	-1.930	-1.057	0.234	500.000
-1.367	-0.958	-2.538	-0.126	1.763	1.601	1.079	-0.354	0.094	-0.191	-1.152	-1.490	-0.430	3.445	-1.148	1.241	0.558	1.224	1.935	3.167	3.756	2.177	2.114	-0.354	-0.117	-2.060	-1.415	-0.255	503.906
-1.262	-0.861	-2.394	0.017	1.906	1.739	1.020	-0.286	0.080	-0.425	-1.454	-1.928	-0.466	3.425	-1.106	1.340	0.585	1.323	1.921	3.199	3.732	2.178	2.151	-0.406	-0.046	-2.117	-1.678	-0.663	507.812
-1.204	-0.814	-2.284	0.090	1.991	1.881	0.997	-0.202	0.107	-0.555	-1.648	-2.212	-0.428	3.403	-1.110	1.333	0.522	1.327	1.821	3.128	3.633	2.147	2.146	-0.383	0.070	-2.072	-1.816	-0.937	511.719
-1.197	-0.816	-2.218	0.091	2.005	1.998	1.007	-0.113	0.168	-0.584	-1.725	-2.325	-0.331	3.381	-1.160	1.237	0.375	1.226	1.656	2.971	3.479	2.088	2.107	-0.286	0.226	-1.914	-1.812	-1.044	515.625
-1.230	-0.856	-2.201	0.031	1.943	2.067	1.045	-0.031	0.253	-0.528	-1.691	-2.272	-0.198	3.359	-1.245	1.083	0.167	1.027	1.458	2.763	3.295	2.007	2.046	-0.127	0.409	-1.651	-1.671	-0.976	519.531
-1.285	-0.918	-2.231	-0.067	1.812	2.074	1.100	0.033	0.353	-0.410	-1.560	-2.079	-0.057	3.332	-1.355	0.909	-0.069	0.747	1.263	2.543	3.108	1.916	1.980	0.070	0.598	-1.309	-1.415	-0.748	523.438
-1.341	-0.986	-2.301	-0.180	1.630	2.016	1.161	0.069	0.458	-0.261	-1.360	-1.782	0.063	3.292	-1.475	0.750	-0.298	0.420	1.105	2.345	2.938	1.827	1.920	0.277	0.776	-0.923	-1.078	-0.393	527.344
-1.377	-1.047	-2.398	-0.283	1.421	1.901	1.221	0.076	0.564	-0.109	-1.120	-1.427	0.141	3.229	-1.591	0.632	-0.488	0.086	1.007	2.190	2.793	1.750	1.875	0.462	0.925	-0.533	-0.704	0.043	531.250
-1.381	-1.093	-2.509	-0.361	1.210	1.742	1.269	0.059	0.670	0.021	-0.868	-1.059	0.161	3.130	-1.692	0.564	-0.616	-0.216	0.976	2.083	2.670	1.688	1.847	0.602	1.039	-0.171	-0.335	0.514	535.156
-1.351	-1.124	-2.615	-0.407	1.017	1.557	1.302	0.028	0.775	0.110	-0.628	-0.717	0.121	2.986	-1.769	0.541	-0.677	-0.452	1.002	2.014	2.559	1.641	1.836	0.682	1.121	0.138	-0.007	0.978	539.062
-1.292	-1.146	-2.698	-0.425	0.858	1.363	1.318	-0.002	0.880	0.150	-0.417	-0.430	0.027	2.795	-1.819	0.542	-0.680	-0.601	1.063	1.960	2.442	1.600	1.837	0.698	1.181	0.383	0.257	1.401	542.969
-1.216	-1.167	-2.744	-0.426	0.739	1.173	1.317	-0.017	0.984	0.143	-0.246	-0.216	-0.106	2.561	-1.841	0.542	-0.647	-0.657	1.128	1.894	2.304	1.555	1.843	0.655	1.236	0.566	0.444	1.758	546.875
-1.134	-1.194	-2.741	-0.425	0.658	0.995	1.304	-0.006	1.085	0.097	-0.116	-0.083	-0.258	2.297	-1.839	0.516	-0.606	-0.627	1.170	1.793	2.135	1.496	1.850	0.567	1.299	0.697	0.555	2.033	550.781
-1.055	-1.233	-2.684	-0.435	0.609	0.835	1.284	0.038	1.180	0.026	-0.028	-0.026	-0.406	2.022	-1.816	0.449	-0.586	-0.532	1.169	1.643	1.937	1.412	1.853	0.454	1.380	0.788	0.599	2.214	554.688
-0.983	-1.287	-2.579	-0.462	0.579	0.699	1.265	0.113	1.262	-0.055	0.021	-0.040	-0.533	1.761	-1.778	0.335	-0.604	-0.399	1.119	1.444	1.720	1.299	1.852	0.334	1.482	0.850	0.591	2.298	558.594
-0.915	-1.352	-2.434	-0.508	0.560	0.594	1.254	0.211	1.318	-0.136	0.030	-0.114	-0.628	1.538	-1.726	0.186	-0.667	-0.256	1.023	1.210	1.504	1.160	1.847	0.222	1.596	0.890	0.544	2.280	562.500
-0.846	-1.418	-2.259	-0.560	0.544	0.529	1.253	0.320	1.333	-0.211	-0.005	-0.241	-0.690	1.371	-1.659	0.026	-0.766	-0.127	0.900	0.969	1.312	1.003	1.843	0.130	1.705	0.904	0.468	2.163	566.406
-0.763	-1.468	-2.064	-0.601	0.531	0.514	1.262	0.425	1.287	-0.284	-0.094	-0.415	-0.723	1.274	-1.575	-0.112	-0.878	-0.030	0.775	0.752	1.166	0.841	1.840	0.060	1.790	0.884	0.369	1.955	570.312
-0.654	-1.482	-1.855	-0.606	0.522	0.557	1.277	0.509	1.161	-0.363	-0.248	-0.632	-0.740	1.248	-1.469	-0.192	-0.973	0.032	0.672	0.594	1.085	0.691	1.842	0.005	1.830	0.816	0.244	1.667	574.219
-0.507	-1.439	-1.633	-0.552	0.521	0.662	1.288	0.559	0.943	-0.462	-0.478	-0.890	-0.751	1.286	-1.339	-0.184	-1.019	0.063	0.617	0.522	1.077	0.568	1.849	-0.042	1.806	0.685	0.090	1.316	578.125
-0.314	-1.323	-1.398	-0.421	0.531	0.828	1.283	0.564	0.629	-0.594	-0.788	-1.184	-0.766	1.375	-1.182	-0.068	-0.991	0.075	0.623	0.556	1.142	0.487	1.862	-0.094	1.712	0.480	-0.098	0.923	582.031
-0.076	-1.129	-1.153	-0.209	0.555	1.045	1.252	0.518	0.229	-0.763	-1.170	-1.506	-0.788	1.496	-1.003	0.159	-0.874	0.083	0.698	0.697	1.269	0.455	1.884	-0.159	1.547	0.198	-0.319	0.510	585.938
0.201	-0.866	-0.900	0.076	0.588	1.300	1.189	0.422	-0.234	-0.970	-1.606	-1.842	-0.814	1.629	-0.806	0.481	-0.670	0.101	0.837	0.933	1.439	0.476	1.917	-0.240	1.322	-0.158	-0.568	0.098	589.844
0.500	-0.553	-0.650	0.409	0.626	1.576	1.094	0.283	-0.726	-1.203	-2.064	-2.168	-0.837	1.759	-0.600	0.870	-0.397	0.137	1.025	1.239	1.629	0.546	1.962	-0.332	1.059	-0.571	-0.830	-0.293	593.750
0.800	-0.225	-0.414	0.753	0.660	1.851	0.974	0.115	-1.204	-1.442	-2.507	-2.458	-0.851	1.871	-0.396	1.282	-0.086	0.194	1.239	1.575	1.815	0.651	2.020	-0.425	0.781	-1.018	-1.085	-0.644	597.656
1.077	0.084	-0.203	1.068	0.681	2.105	0.841	-0.067	-1.631	-1.666	-2.893	-2.685	-0.847	1.957	-0.205	1.671	0.223	0.270	1.453	1.898	1.973	0.775	2.089	-0.506	0.515	-1.469	-1.307	-0.944	601.562
1.308	0.339	-0.027	1.316	0.683	2.319	0.708	-0.245	-1.975	-1.853	-3.187	-2.824	-0.825	2.011	-0.035	1.994	0.487	0.363	1.639	2.167	2.085	0.898	2.166	-0.562	0.285	-1.889	-1.475	-1.183	605.469
1.479	0.513	0.112	1.470	0.662	2.474	0.587	-0.407	-2.219	-1.984	-3.366	-2.862	-0.786	2.030	0.106	2.218	0.674	0.467	1.773	2.347	2.138	0.998	2.244	-0.583	0.113	-2.249	-1.571	-1.357	609.375
1.584	0.596	0.215	1.521	0.620	2.560	0.486	-0.542	-2.365	-2.052	-3.419	-2.796	-0.736	2.015	0.213	2.327	0.761	0.575	1.837	2.418	2.129	1.060	2.317	-0.565	0.011	-2.522	-1.589	-1.465	613.281
1.628	0.589	0.290	1.475	0.562	2.573	0.411	-0.645	-2.427	-2.057	-3.353	-2.638	-0.683	1.966	0.286	2.321	0.744	0.678	1.826	2.374	2.062	1.073	2.378	-0.508	-0.016	-2.694	-1.534	-1.509	617.188
1.626	0.507	0.346	1.354	0.496	2.520	0.363	-0.715	-2.428	-2.007	-3.189	-2.412	-0.632	1.887	0.324	2.216	0.634	0.762	1.743	2.226	1.946	1.031	2.422	-0.420	0.030	-2.760	-1.422	-1.497	621.094
1.599	0.373	0.393	1.191	0.432	2.419	0.345	-0.752	-2.396	-1.916	-2.955	-2.149	-0.591	1.785	0.330	2.042	0.452	0.811	1.599	2.001	1.800	0.939	2.444	-0.311	0.137	-2.727	-1.274	-1.434	625.000
1.571	0.213	0.441	1.021	0.381	2.296	0.357	-0.756	-2.351	-1.801	-2.684	-1.883	-0.562	1.668	0.306	1.832	0.229	0.811	1.411	1.732	1.642	0.801	2.439	-0.194	0.286	-2.614	-1.120	-1.332	628.906
1.559	0.051	0.495	0.875	0.348	2.183	0.396	-0.725	-2.307	-1.678	-2.406	-1.644	-0.549	1.546	0.255	1.621	-0.004	0.753	1.199	1.457	1.493	0.628	2.406	-0.082	0.455	-2.448	-0.983	-1.200	632.812
1.575	-0.090	0.560	0.775	0.339	2.106	0.459	-0.653	-2.268	-1.562	-2.147	-1.456	-0.552	1.426	0.185	1.441	-0.219	0.635	0.982	1.214	1.369	0.428	2.345	0.009	0.619	-2.259	-0.886	-1.048	636.719
1.622	-0.197	0.635	0.729	0.351	2.082	0.537	-0.539	-2.227	-1.462	-1.924	-1.331	-0.573	1.318	0.103	1.313	-0.392	0.468	0.780	1.030	1.280	0.215	2.257	0.068	0.755	-2.079	-0.840	-0.889	640.625
1.695	-0.263	0.718	0.733	0.376	2.113	0.623	-0.380	-2.177	-1.383	-1.746	-1.269	-0.610	1.226	0.021	1.249	-0.508	0.272	0.607	0.923	1.230	0.001	2.151	0.085	0.844	-1.936	-0.850	-0.733	644.531
1.783	-0.285	0.806	0.774	0.404	2.187	0.706	-0.182	-2.108	-1.327	-1.615	-1.261	-0.662	1.153	-0.049	1.252	-0.557	0.075	0.476	0.896	1.215	-0.197	2.036	0.057	0.873	-1.851	-0.908	-0.590	648.438
1.871	-0.271	0.890	0.828	0.421	2.282	0.777	0.048	-2.014	-1.293	-1.528	-1.291	-0.725	1.099	-0.096	1.314	-0.545	-0.092	0.394	0.937	1.225	-0.366	1.927	-0.013	0.838	-1.832	-0.998	-0.468	652.344
1.947	-0.229	0.962	0.874	0.416	2.368	0.830	0.294	-1.897	-1.277	-1.476	-1.337	-0.791	1.062	-0.113	1.415	-0.481	-0.206	0.359	1.021	1.248	-0.492	1.839	-0.116	0.748	-1.873	-1.100	-0.372	656.250
2.000	-0.176	1.011	0.892	0.381	2.417	0.861	0.535	-1.768	-1.276	-1.452	-1.376	-0.852	1.041	-0.098	1.533	-0.387	-0.249	0.368	1.119	1.270	-0.567	1.784	-0.235	0.622	-1.955	-1.188	-0.304	660.156
2.026	-0.126	1.032	0.870	0.315	2.411	0.869	0.751	-1.646	-1.287	-1.447	-1.389	-0.900	1.036	-0.058	1.643	-0.286	-0.219	0.407	1.200	1.281	-0.591	1.770	-0.349	0.485	-2.047	-1.240	-0.261	664.062
2.022	-0.093	1.020	0.805	0.223	2.341	0.856	0.918	-1.552	-1.307	-1.458	-1.364	-0.927	1.045	-0.002	1.724	-0.202	-0.125	0.462	1.240	1.273	-0.570	1.796	-0.435	0.365	-2.118	-1.238	-0.236	667.969
1.991	-0.085	0.978	0.704	0.116	2.215	0.822	1.018	-1.511	-1.336	-1.486	-1.298	-0.927	1.071	0.062	1.760	-0.151	0.014	0.517	1.226	1.249	-0.515	1.858	-0.474	0.286	-2.138	-1.171	-0.220	671.875
1.940	-0.108	0.915	0.583	0.006	2.049	0.771	1.041	-1.538	-1.369	-1.530	-1.196	-0.899	1.114	0.124	1.749	-0.142	0.172	0.562	1.160	1.214	-0.444	1.944	-0.454	0.259	-2.091	-1.042	-0.205	675.781
1.877	-0.159	0.842	0.458	-0.095	1.866	0.708	0.981	-1.639	-1.402	-1.590	-1.066	-0.841	1.175	0.182	1.695	-0.173	0.322	0.587	1.052	1.179	-0.373	2.036	-0.373	0.285	-1.979	-0.861	-0.186	679.688
1.814	-0.233	0.775	0.347	-0.176	1.691	0.640	0.849	-1.806	-1.426	-1.659	-0.920	-0.757	1.253	0.235	1.609	-0.234	0.440	0.591	0.924	1.155	-0.320	2.119	-0.240	0.349	-1.822	-0.648	-0.159	683.594
1.760	-0.322	0.724	0.264	-0.230	1.546	0.577	0.662	-2.014	-1.427	-1.725	-0.770	-0.648	1.342	0.283	1.507	-0.309	0.510	0.572	0.798	1.153	-0.300	2.174	-0.073	0.427	-1.649	-0.426	-0.123	687.500
1.723	-0.415	0.696	0.215	-0.254	1.447	0.531	0.451	-2.226	-1.391	-1.771	-0.621	-0.518	1.435	0.324	1.402	-0.386	0.524	0.534	0.689	1.174	-0.324	2.189	0.103	0.491	-1.495	-0.217	-0.076	691.406
1.704	-0.507	0.694	0.201	-0.248	1.408	0.513	0.254	-2.400	-1.305	-1.777	-0.475	-0.374	1.519	0.354	1.302	-0.455	0.484	0.475	0.607	1.212	-0.400	2.154	0.261	0.517	-1.387	-0.040	-0.018	695.312
1.702	-0.590	0.714	0.216	-0.216	1.433	0.531	0.111	-2.496	-1.161	-1.725	-0.330	-0.223	1.579	0.367	1.209	-0.517	0.397	0.394	0.547	1.254	-0.534	2.064	0.376	0.491	-1.341	0.092	0.053	699.219
1.711	-0.662	0.750	0.251	-0.163	1.525	0.588	0.056	-2.488	-0.961	-1.606	-0.184	-0.076	1.598	0.358	1.120	-0.577	0.279	0.284	0.496	1.279	-0.725	1.921	0.429	0.408	-1.357	0.173	0.138	703.125
1.723	-0.721	0.797	0.295	-0.097	1.674	0.679	0.114	-2.362	-0.717	-1.418	-0.034	0.056	1.561	0.323	1.029	-0.645	0.145	0.139	0.437	1.265	-0.969	1.730	0.408	0.277	-1.421	0.204	0.236	707.031
1.732	-0.768	0.850	0.337	-0.026	1.862	0.795	0.292	-2.127	-0.450	-1.171	0.117	0.162	1.462	0.264	0.931	-0.731	0.010	-0.043	0.354	1.192	-1.254	1.502	0.312	0.114	-1.511	0.191	0.344	710.938
1.733	-0.805	0.904	0.369	0.040	2.064	0.921	0.579	-1.809	-0.186	-0.886	0.266	0.232	1.302	0.189	0.825	-0.838	-0.111	-0.258	0.239	1.054	-1.562	1.255	0.153	-0.060	-1.605	0.142	0.455	714.844
1.724	-0.837	0.954	0.385	0.091	2.248	1.042	0.944	-1.447	0.047	-0.592	0.405	0.265	1.095	0.109	0.717	-0.961	-0.210	-0.491	0.093	0.853	-1.867	1.011	-0.051	-0.225	-1.684	0.069	0.560	718.750
1.710	-0.867	0.995	0.384	0.122	2.385	1.146	1.342	-1.087	0.227	-0.317	0.525	0.264	0.861	0.043	0.615	-1.087	-0.282	-0.721	-0.070	0.609	-2.141	0.795	-0.274	-0.363	-1.739	-0.018	0.647	722.656
1.697	-0.898	1.023	0.365	0.128	2.451	1.222	1.720	-0.773	0.342	-0.092	0.617	0.241	0.631	0.006	0.531	-1.199	-0.325	-0.920	-0.227	0.353	-2.358	0.631	-0.489	-0.464	-1.766	-0.105	0.704	726.562
1.689	-0.930	1.030	0.331	0.107	2.436	1.266	2.028	-0.542	0.389	0.063	0.680	0.212	0.432	0.011	0.474	-1.277	-0.342	-1.059	-0.358	0.119	-2.495	0.539	-0.668	-0.526	-1.772	-0.181	0.723	730.469
1.692	-0.962	1.017	0.287	0.064	2.345	1.282	2.227	-0.415	0.378	0.139	0.714	0.197	0.291	0.060	0.450	-1.309	-0.336	-1.120	-0.442	-0.060	-2.546	0.527	-0.793	-0.552	-1.762	-0.234	0.702	734.375
1.703	-0.988	0.982	0.239	0.008	2.193	1.278	2.295	-0.396	0.329	0.138	0.727	0.213	0.222	0.143	0.456	-1.290	-0.313	-1.094	-0.470	-0.160	-2.513	0.590	-0.852	-0.551	-1.746	-0.253	0.644	738.281
1.720	-1.003	0.930	0.193	-0.050	2.004	1.269	2.236	-0.473	0.266	0.075	0.732	0.276	0.233	0.244	0.487	-1.224	-0.281	-0.990	-0.442	-0.171	-2.414	0.710	-0.844	-0.537	-1.728	-0.230	0.561	742.188
1.735	-1.003	0.868	0.155	-0.095	1.805	1.270	2.074	-0.620	0.211	-0.029	0.740	0.392	0.321	0.338	0.534	-1.126	-0.249	-0.828	-0.368	-0.095	-2.274	0.860	-0.777	-0.524	-1.712	-0.161	0.465	746.094
1.739	-0.984	0.803	0.128	-0.114	1.615	1.296	1.847	-0.806	0.183	-0.150	0.762	0.564	0.476	0.402	0.585	-1.014	-0.227	-0.634	-0.264	0.053	-2.119	1.010	-0.664	-0.525	-1.701	-0.047	0.377	750.000
1.726	-0.950	0.745	0.115	-0.100	1.446	1.356	1.604	-1.002	0.194	-0.267	0.806	0.784	0.681	0.419	0.630	-0.908	-0.224	-0.439	-0.148	0.250	-1.971	1.132	-0.521	-0.548	-1.693	0.106	0.314	753.906
1.688	-0.908	0.695	0.110	-0.052	1.303	1.453	1.385	-1.180	0.243	-0.361	0.874	1.039	0.918	0.380	0.661	-0.823	-0.247	-0.269	-0.036	0.470	-1.845	1.210	-0.363	-0.594	-1.687	0.289	0.291	757.812
1.626	-0.871	0.655	0.106	0.020	1.183	1.582	1.225	-1.322	0.325	-0.422	0.963	1.313	1.167	0.291	0.674	-0.769	-0.296	-0.139	0.056	0.686	-1.748	1.240	-0.201	-0.659	-1.676	0.489	0.315	761.719
1.541	-0.853	0.618	0.093	0.102	1.080	1.729	1.136	-1.415	0.429	-0.447	1.068	1.586	1.409	0.165	0.665	-0.750	-0.364	-0.059	0.119	0.874	-1.678	1.226	-0.045	-0.730	-1.654	0.691	0.387	765.625
1.442	-0.865	0.575	0.060	0.173	0.994	1.876	1.118	-1.460	0.543	-0.437	1.182	1.837	1.623	0.022	0.637	-0.763	-0.440	-0.030	0.148	1.016	-1.632	1.183	0.100	-0.791	-1.611	0.884	0.497	769.531
1.341	-0.916	0.516	-0.002	0.211	0.926	2.002	1.154	-1.462	0.654	-0.399	1.295	2.050	1.794	-0.116	0.594	-0.800	-0.505	-0.047	0.141	1.101	-1.604	1.126	0.230	-0.823	-1.538	1.057	0.629	773.438
1.251	-1.008	0.428	-0.098	0.199	0.882	2.087	1.219	-1.435	0.754	-0.343	1.401	2.210	1.906	-0.231	0.543	-0.851	-0.541	-0.103	0.101	1.123	-1.593	1.071	0.348	-0.809	-1.422	1.202	0.765	777.344
1.187	-1.138	0.306	-0.230	0.127	0.871	2.115	1.286	-1.396	0.841	-0.281	1.494	2.310	1.952	-0.309	0.489	-0.908	-0.531	-0.189	0.031	1.083	-1.598	1.028	0.454	-0.739	-1.258	1.319	0.891	781.250
1.155	-1.299	0.146	-0.396	-0.009	0.896	2.080	1.335	-1.361	0.913	-0.222	1.573	2.349	1.929	-0.345	0.439	-0.963	-0.465	-0.299	-0.063	0.988	-1.619	1.003	0.554	-0.607	-1.042	1.411	0.995	785.156
1.159	-1.481	-0.049	-0.589	-0.202	0.957	1.985	1.352	-1.343	0.972	-0.173	1.639	2.335	1.847	-0.345	0.395	-1.011	-0.342	-0.423	-0.174	0.850	-1.654	0.998	0.650	-0.421	-0.778	1.484	1.074	789.062
1.192	-1.674	-0.272	-0.802	-0.438	1.046	1.844	1.335	-1.344	1.024	-0.135	1.697	2.286	1.721	-0.316	0.357	-1.051	-0.171	-0.554	-0.297	0.685	-1.700	1.009	0.748	-0.193	-0.477	1.546	1.132	792.969
1.242	-1.871	-0.510	-1.024	-0.696	1.151	1.680	1.291	-1.362	1.072	-0.106	1.750	2.221	1.577	-0.272	0.323	-1.082	0.027	-0.684	-0.421	0.511	-1.749	1.032	0.850	0.057	-0.157	1.606	1.176	796.875
