FP1	F3	F7	FC3	C3	C5	P3	P7	PO7	PO3	O1	Oz	Pz	CPz	FP2	Fz	F4	F8	FC4	FCz	Cz	C4	C6	P4	P8	PO8	PO4	O2	time
-1.178	-0.543	-0.193	-0.313	0.155	-0.310	0.153	1.094	0.376	-0.302	-0.259	-0.519	0.225	0.424	-0.619	-0.046	-0.134	0.119	-0.079	0.607	0.731	-0.048	-0.006	0.142	0.787	0.142	-0.292	-0.490	-199.219
-1.019	-0.476	-0.123	-0.235	0.291	-0.122	0.032	0.997	0.131	-0.447	-0.445	-0.637	0.100	0.373	-0.399	0.022	-0.172	0.127	0.080	0.579	0.657	0.074	0.259	0.151	0.647	-0.007	-0.392	-0.604	-195.312
-0.873	-0.406	-0.064	-0.158	0.417	0.034	-0.076	0.888	-0.099	-0.577	-0.616	-0.745	-0.010	0.328	-0.196	0.091	-0.191	0.143	0.232	0.558	0.596	0.194	0.509	0.169	0.509	-0.146	-0.480	-0.716	-191.406
-0.748	-0.331	-0.025	-0.085	0.520	0.136	-0.163	0.758	-0.297	-0.679	-0.759	-0.834	-0.087	0.297	-0.023	0.159	-0.181	0.166	0.372	0.547	0.557	0.308	0.727	0.202	0.375	-0.268	-0.548	-0.819	-187.500
-0.650	-0.249	-0.008	-0.019	0.593	0.175	-0.218	0.602	-0.455	-0.742	-0.863	-0.893	-0.121	0.283	0.112	0.223	-0.140	0.195	0.492	0.548	0.545	0.412	0.898	0.251	0.248	-0.368	-0.586	-0.909	-183.594
-0.577	-0.164	-0.014	0.039	0.630	0.154	-0.240	0.423	-0.566	-0.761	-0.922	-0.916	-0.107	0.291	0.205	0.283	-0.071	0.226	0.589	0.562	0.564	0.503	1.012	0.310	0.130	-0.445	-0.589	-0.975	-179.688
-0.522	-0.079	-0.036	0.088	0.632	0.086	-0.227	0.227	-0.630	-0.737	-0.932	-0.897	-0.050	0.319	0.257	0.336	0.014	0.254	0.663	0.587	0.611	0.576	1.063	0.368	0.020	-0.498	-0.556	-1.012	-175.781
-0.479	0.001	-0.066	0.130	0.603	-0.008	-0.183	0.028	-0.651	-0.673	-0.899	-0.839	0.044	0.366	0.274	0.383	0.105	0.269	0.712	0.618	0.678	0.627	1.052	0.415	-0.079	-0.532	-0.490	-1.013	-171.875
-0.438	0.072	-0.093	0.164	0.550	-0.109	-0.117	-0.158	-0.639	-0.579	-0.826	-0.748	0.160	0.428	0.266	0.423	0.188	0.267	0.738	0.651	0.757	0.656	0.983	0.443	-0.168	-0.550	-0.400	-0.979	-167.969
-0.394	0.132	-0.109	0.192	0.484	-0.198	-0.037	-0.320	-0.605	-0.464	-0.723	-0.633	0.281	0.497	0.247	0.457	0.255	0.241	0.742	0.681	0.836	0.662	0.866	0.447	-0.247	-0.561	-0.297	-0.915	-164.062
-0.343	0.183	-0.108	0.215	0.415	-0.265	0.045	-0.448	-0.563	-0.339	-0.600	-0.508	0.393	0.566	0.232	0.489	0.300	0.189	0.723	0.706	0.904	0.646	0.713	0.431	-0.318	-0.570	-0.195	-0.828	-160.156
-0.282	0.226	-0.088	0.233	0.351	-0.305	0.121	-0.536	-0.522	-0.213	-0.466	-0.384	0.482	0.626	0.228	0.520	0.321	0.116	0.683	0.722	0.953	0.611	0.536	0.399	-0.380	-0.582	-0.106	-0.729	-156.250
-0.212	0.267	-0.050	0.246	0.300	-0.321	0.183	-0.585	-0.489	-0.094	-0.329	-0.272	0.539	0.671	0.242	0.549	0.323	0.028	0.619	0.730	0.977	0.561	0.345	0.356	-0.437	-0.603	-0.044	-0.628	-152.344
-0.133	0.311	0.000	0.257	0.265	-0.319	0.226	-0.598	-0.464	0.014	-0.197	-0.182	0.560	0.694	0.271	0.578	0.314	-0.061	0.536	0.733	0.975	0.498	0.155	0.303	-0.490	-0.634	-0.019	-0.534	-148.438
-0.045	0.360	0.056	0.266	0.249	-0.309	0.252	-0.581	-0.446	0.106	-0.080	-0.121	0.544	0.687	0.309	0.606	0.303	-0.136	0.437	0.730	0.948	0.428	-0.021	0.241	-0.541	-0.673	-0.037	-0.455	-144.531
0.052	0.414	0.109	0.277	0.250	-0.301	0.261	-0.543	-0.430	0.176	0.015	-0.092	0.496	0.649	0.346	0.632	0.302	-0.179	0.332	0.724	0.899	0.355	-0.171	0.164	-0.589	-0.719	-0.098	-0.396	-140.625
0.157	0.472	0.153	0.293	0.264	-0.300	0.257	-0.493	-0.410	0.221	0.081	-0.097	0.419	0.578	0.375	0.653	0.319	-0.180	0.232	0.714	0.829	0.287	-0.281	0.073	-0.633	-0.766	-0.198	-0.360	-136.719
0.268	0.526	0.183	0.313	0.284	-0.311	0.244	-0.442	-0.381	0.240	0.114	-0.131	0.323	0.474	0.387	0.664	0.359	-0.134	0.146	0.695	0.739	0.227	-0.342	-0.031	-0.665	-0.804	-0.322	-0.346	-132.812
0.379	0.570	0.196	0.337	0.298	-0.331	0.227	-0.400	-0.342	0.235	0.115	-0.186	0.216	0.345	0.380	0.661	0.416	-0.052	0.079	0.662	0.630	0.178	-0.352	-0.139	-0.678	-0.823	-0.454	-0.349	-128.906
0.483	0.595	0.194	0.358	0.298	-0.358	0.208	-0.374	-0.290	0.210	0.089	-0.250	0.109	0.196	0.354	0.636	0.479	0.047	0.033	0.607	0.504	0.140	-0.317	-0.236	-0.664	-0.813	-0.571	-0.360	-125.000
0.569	0.593	0.182	0.370	0.274	-0.386	0.189	-0.367	-0.230	0.175	0.048	-0.310	0.011	0.039	0.309	0.587	0.533	0.138	0.002	0.526	0.361	0.108	-0.252	-0.309	-0.618	-0.762	-0.651	-0.366	-121.094
0.628	0.562	0.167	0.368	0.225	-0.410	0.173	-0.380	-0.168	0.138	0.004	-0.353	-0.074	-0.116	0.250	0.510	0.562	0.197	-0.022	0.414	0.205	0.075	-0.175	-0.341	-0.537	-0.667	-0.677	-0.352	-117.188
0.651	0.498	0.155	0.347	0.152	-0.425	0.155	-0.408	-0.112	0.105	-0.034	-0.367	-0.143	-0.257	0.180	0.408	0.552	0.212	-0.046	0.277	0.042	0.035	-0.103	-0.326	-0.425	-0.525	-0.639	-0.304	-113.281
0.633	0.405	0.149	0.307	0.063	-0.430	0.132	-0.443	-0.072	0.080	-0.057	-0.347	-0.199	-0.374	0.103	0.289	0.498	0.181	-0.075	0.122	-0.118	-0.017	-0.050	-0.261	-0.287	-0.343	-0.536	-0.212	-109.375
0.574	0.291	0.151	0.251	-0.029	-0.421	0.101	-0.478	-0.056	0.066	-0.062	-0.293	-0.247	-0.459	0.023	0.163	0.403	0.118	-0.108	-0.035	-0.263	-0.079	-0.022	-0.155	-0.134	-0.134	-0.377	-0.076	-105.469
0.480	0.169	0.157	0.187	-0.111	-0.395	0.057	-0.504	-0.068	0.059	-0.050	-0.210	-0.292	-0.507	-0.057	0.047	0.278	0.043	-0.139	-0.176	-0.383	-0.146	-0.017	-0.023	0.021	0.084	-0.178	0.096	-101.562
0.361	0.052	0.161	0.124	-0.169	-0.348	0.004	-0.514	-0.103	0.059	-0.023	-0.107	-0.338	-0.516	-0.130	-0.046	0.140	-0.022	-0.159	-0.285	-0.465	-0.208	-0.029	0.115	0.162	0.288	0.035	0.285	-97.656
0.233	-0.045	0.154	0.072	-0.197	-0.277	-0.052	-0.500	-0.154	0.063	0.015	0.003	-0.383	-0.487	-0.193	-0.105	0.008	-0.059	-0.159	-0.349	-0.504	-0.255	-0.048	0.238	0.275	0.458	0.238	0.465	-93.750
0.112	-0.108	0.131	0.040	-0.190	-0.180	-0.100	-0.460	-0.208	0.072	0.059	0.112	-0.423	-0.424	-0.238	-0.124	-0.098	-0.061	-0.135	-0.364	-0.501	-0.282	-0.068	0.327	0.347	0.574	0.407	0.610	-89.844
0.010	-0.133	0.089	0.028	-0.153	-0.059	-0.129	-0.394	-0.249	0.089	0.106	0.209	-0.447	-0.335	-0.263	-0.108	-0.164	-0.030	-0.087	-0.335	-0.461	-0.285	-0.082	0.368	0.371	0.627	0.525	0.698	-85.938
-0.062	-0.118	0.026	0.036	-0.097	0.079	-0.128	-0.303	-0.265	0.113	0.152	0.290	-0.447	-0.233	-0.263	-0.068	-0.186	0.022	-0.023	-0.275	-0.397	-0.270	-0.089	0.358	0.346	0.614	0.583	0.718	-82.031
-0.101	-0.072	-0.050	0.055	-0.035	0.221	-0.094	-0.194	-0.248	0.145	0.193	0.351	-0.415	-0.132	-0.237	-0.020	-0.163	0.080	0.045	-0.206	-0.325	-0.242	-0.091	0.297	0.279	0.547	0.581	0.674	-78.125
-0.107	-0.009	-0.131	0.073	0.016	0.350	-0.032	-0.077	-0.196	0.182	0.223	0.393	-0.352	-0.046	-0.188	0.019	-0.105	0.131	0.102	-0.149	-0.263	-0.211	-0.090	0.196	0.186	0.442	0.530	0.581	-74.219
-0.085	0.054	-0.205	0.080	0.039	0.449	0.044	0.036	-0.113	0.216	0.239	0.417	-0.266	0.014	-0.120	0.032	-0.028	0.162	0.138	-0.123	-0.224	-0.185	-0.090	0.069	0.088	0.322	0.445	0.463	-70.312
-0.045	0.100	-0.262	0.065	0.026	0.504	0.118	0.133	-0.011	0.241	0.236	0.426	-0.169	0.037	-0.043	0.009	0.053	0.170	0.144	-0.138	-0.218	-0.169	-0.092	-0.068	0.004	0.211	0.346	0.344	-66.406
0.006	0.117	-0.291	0.025	-0.027	0.505	0.171	0.202	0.099	0.249	0.215	0.426	-0.076	0.024	0.032	-0.051	0.121	0.158	0.120	-0.196	-0.245	-0.167	-0.101	-0.197	-0.048	0.128	0.253	0.248	-62.500
0.057	0.100	-0.287	-0.036	-0.114	0.453	0.191	0.235	0.204	0.238	0.180	0.422	0.001	-0.022	0.092	-0.142	0.164	0.130	0.071	-0.288	-0.301	-0.176	-0.119	-0.305	-0.058	0.085	0.182	0.189	-58.594
0.103	0.048	-0.249	-0.111	-0.223	0.359	0.172	0.232	0.295	0.209	0.137	0.417	0.052	-0.090	0.126	-0.252	0.173	0.094	0.003	-0.400	-0.374	-0.197	-0.146	-0.380	-0.026	0.087	0.144	0.174	-54.688
0.141	-0.029	-0.183	-0.186	-0.338	0.241	0.117	0.196	0.366	0.166	0.098	0.416	0.076	-0.168	0.126	-0.366	0.147	0.054	-0.074	-0.512	-0.451	-0.224	-0.186	-0.418	0.039	0.129	0.143	0.200	-50.781
0.170	-0.120	-0.099	-0.249	-0.440	0.122	0.037	0.138	0.419	0.119	0.075	0.420	0.078	-0.241	0.090	-0.471	0.086	0.012	-0.156	-0.610	-0.522	-0.255	-0.236	-0.419	0.124	0.202	0.174	0.261	-46.875
0.190	-0.210	-0.010	-0.292	-0.517	0.026	-0.053	0.076	0.458	0.078	0.079	0.431	0.064	-0.301	0.023	-0.555	-0.002	-0.032	-0.240	-0.684	-0.579	-0.287	-0.297	-0.390	0.211	0.296	0.231	0.346	-42.969
0.203	-0.291	0.070	-0.314	-0.563	-0.029	-0.138	0.027	0.492	0.054	0.119	0.451	0.044	-0.342	-0.063	-0.617	-0.111	-0.080	-0.327	-0.731	-0.624	-0.319	-0.365	-0.339	0.283	0.399	0.302	0.443	-39.062
0.210	-0.354	0.128	-0.320	-0.579	-0.031	-0.206	0.010	0.531	0.053	0.199	0.482	0.026	-0.366	-0.156	-0.658	-0.233	-0.136	-0.419	-0.758	-0.659	-0.349	-0.433	-0.280	0.330	0.502	0.376	0.543	-35.156
0.211	-0.400	0.158	-0.319	-0.575	0.018	-0.249	0.038	0.582	0.078	0.318	0.524	0.012	-0.378	-0.241	-0.687	-0.358	-0.200	-0.519	-0.775	-0.695	-0.377	-0.496	-0.225	0.348	0.599	0.445	0.639	-31.250
0.205	-0.429	0.157	-0.324	-0.565	0.109	-0.266	0.116	0.651	0.129	0.466	0.579	0.001	-0.387	-0.309	-0.714	-0.480	-0.269	-0.627	-0.796	-0.740	-0.401	-0.546	-0.181	0.340	0.687	0.501	0.731	-27.344
0.194	-0.448	0.132	-0.344	-0.561	0.221	-0.259	0.241	0.740	0.199	0.632	0.646	-0.014	-0.404	-0.356	-0.748	-0.592	-0.339	-0.739	-0.834	-0.804	-0.424	-0.579	-0.155	0.317	0.766	0.544	0.817	-23.438
0.177	-0.459	0.090	-0.382	-0.573	0.330	-0.235	0.400	0.846	0.281	0.800	0.722	-0.041	-0.436	-0.382	-0.797	-0.691	-0.400	-0.850	-0.897	-0.890	-0.446	-0.591	-0.149	0.289	0.838	0.575	0.901	-19.531
0.154	-0.467	0.044	-0.436	-0.606	0.413	-0.202	0.575	0.961	0.367	0.954	0.804	-0.083	-0.485	-0.395	-0.861	-0.774	-0.440	-0.951	-0.986	-0.997	-0.468	-0.581	-0.158	0.268	0.904	0.596	0.984	-15.625
0.123	-0.470	0.004	-0.499	-0.658	0.448	-0.166	0.745	1.076	0.450	1.081	0.884	-0.142	-0.549	-0.400	-0.936	-0.838	-0.450	-1.033	-1.094	-1.118	-0.492	-0.551	-0.178	0.260	0.965	0.612	1.066	-11.719
0.084	-0.464	-0.025	-0.559	-0.721	0.425	-0.134	0.889	1.181	0.526	1.171	0.958	-0.212	-0.618	-0.405	-1.012	-0.883	-0.425	-1.089	-1.209	-1.240	-0.518	-0.504	-0.200	0.268	1.023	0.626	1.141	-7.812
0.034	-0.443	-0.039	-0.603	-0.785	0.344	-0.109	0.991	1.266	0.590	1.218	1.016	-0.281	-0.681	-0.413	-1.075	-0.906	-0.367	-1.114	-1.314	-1.348	-0.544	-0.447	-0.217	0.290	1.074	0.638	1.205	-3.906
-0.024	-0.403	-0.041	-0.622	-0.838	0.216	-0.093	1.041	1.319	0.639	1.222	1.053	-0.337	-0.723	-0.421	-1.114	-0.904	-0.285	-1.106	-1.391	-1.427	-0.568	-0.387	-0.223	0.320	1.115	0.647	1.247	0.000
-0.085	-0.338	-0.036	-0.611	-0.869	0.063	-0.083	1.036	1.334	0.671	1.185	1.065	-0.368	-0.736	-0.423	-1.118	-0.878	-0.195	-1.068	-1.426	-1.467	-0.588	-0.330	-0.216	0.347	1.141	0.648	1.262	3.906
-0.141	-0.246	-0.029	-0.567	-0.875	-0.090	-0.079	0.977	1.303	0.683	1.114	1.051	-0.369	-0.714	-0.410	-1.084	-0.827	-0.116	-1.009	-1.409	-1.464	-0.603	-0.287	-0.195	0.363	1.147	0.638	1.247	7.812
-0.178	-0.126	-0.024	-0.494	-0.855	-0.216	-0.077	0.869	1.222	0.672	1.018	1.013	-0.339	-0.657	-0.371	-1.011	-0.754	-0.063	-0.937	-1.341	-1.418	-0.610	-0.263	-0.164	0.359	1.128	0.613	1.203	11.719
-0.187	0.019	-0.019	-0.399	-0.814	-0.293	-0.077	0.720	1.092	0.633	0.905	0.956	-0.286	-0.572	-0.300	-0.904	-0.664	-0.047	-0.860	-1.228	-1.338	-0.607	-0.262	-0.126	0.328	1.079	0.570	1.137	15.625
-0.159	0.184	-0.012	-0.290	-0.761	-0.310	-0.076	0.541	0.916	0.565	0.783	0.886	-0.221	-0.469	-0.195	-0.773	-0.561	-0.071	-0.786	-1.080	-1.232	-0.593	-0.284	-0.085	0.266	1.000	0.510	1.058	19.531
-0.091	0.362	0.001	-0.174	-0.708	-0.263	-0.076	0.341	0.703	0.466	0.656	0.811	-0.158	-0.358	-0.061	-0.626	-0.448	-0.128	-0.715	-0.910	-1.113	-0.566	-0.324	-0.045	0.173	0.891	0.434	0.976	23.438
0.010	0.545	0.024	-0.059	-0.666	-0.160	-0.077	0.133	0.468	0.337	0.528	0.733	-0.106	-0.250	0.090	-0.473	-0.329	-0.203	-0.646	-0.732	-0.988	-0.526	-0.374	-0.007	0.054	0.758	0.350	0.897	27.344
0.131	0.721	0.056	0.049	-0.643	-0.019	-0.077	-0.066	0.232	0.184	0.403	0.655	-0.073	-0.151	0.242	-0.325	-0.208	-0.283	-0.575	-0.558	-0.866	-0.473	-0.427	0.030	-0.082	0.616	0.265	0.826	31.250
0.250	0.878	0.091	0.142	-0.644	0.133	-0.076	-0.238	0.024	0.021	0.286	0.577	-0.062	-0.067	0.372	-0.190	-0.092	-0.352	-0.502	-0.399	-0.752	-0.413	-0.476	0.069	-0.220	0.484	0.191	0.768	35.156
0.342	1.004	0.120	0.214	-0.669	0.264	-0.070	-0.362	-0.122	-0.135	0.188	0.497	-0.066	-0.002	0.459	-0.080	0.010	-0.404	-0.429	-0.266	-0.651	-0.355	-0.519	0.114	-0.342	0.391	0.141	0.727	39.062
0.380	1.083	0.129	0.252	-0.716	0.343	-0.051	-0.419	-0.169	-0.260	0.129	0.418	-0.078	0.041	0.479	-0.008	0.087	-0.439	-0.364	-0.171	-0.573	-0.307	-0.557	0.167	-0.426	0.369	0.128	0.715	42.969
0.339	1.099	0.104	0.245	-0.780	0.345	-0.014	-0.389	-0.078	-0.329	0.134	0.347	-0.085	0.056	0.414	0.008	0.122	-0.468	-0.324	-0.130	-0.528	-0.282	-0.593	0.229	-0.450	0.448	0.168	0.745	46.875
0.201	1.033	0.032	0.179	-0.857	0.256	0.054	-0.262	0.183	-0.314	0.238	0.298	-0.077	0.037	0.248	-0.048	0.096	-0.507	-0.327	-0.156	-0.528	-0.291	-0.636	0.298	-0.398	0.654	0.270	0.837	50.781
-0.044	0.872	-0.097	0.040	-0.945	0.077	0.160	-0.033	0.638	-0.194	0.472	0.291	-0.045	-0.025	-0.023	-0.195	-0.007	-0.575	-0.392	-0.265	-0.587	-0.341	-0.691	0.371	-0.261	1.000	0.443	1.014	54.688
-0.393	0.607	-0.285	-0.180	-1.044	-0.175	0.311	0.293	1.291	0.047	0.867	0.350	0.013	-0.133	-0.393	-0.445	-0.204	-0.688	-0.536	-0.464	-0.714	-0.437	-0.766	0.444	-0.042	1.480	0.689	1.294	58.594
-0.830	0.240	-0.528	-0.479	-1.155	-0.472	0.507	0.699	2.125	0.411	1.436	0.498	0.095	-0.290	-0.846	-0.801	-0.500	-0.856	-0.764	-0.755	-0.911	-0.578	-0.865	0.511	0.247	2.072	1.003	1.685	62.500
-1.332	-0.215	-0.815	-0.847	-1.280	-0.780	0.745	1.158	3.099	0.888	2.171	0.752	0.193	-0.489	-1.354	-1.254	-0.892	-1.080	-1.073	-1.126	-1.173	-0.758	-0.991	0.569	0.581	2.739	1.371	2.186	66.406
-1.863	-0.733	-1.128	-1.262	-1.418	-1.067	1.008	1.638	4.148	1.451	3.040	1.116	0.296	-0.718	-1.881	-1.784	-1.362	-1.350	-1.444	-1.557	-1.484	-0.968	-1.143	0.618	0.929	3.433	1.774	2.776	70.312
-2.387	-1.278	-1.448	-1.696	-1.568	-1.310	1.280	2.100	5.191	2.061	3.989	1.580	0.392	-0.958	-2.389	-2.354	-1.878	-1.648	-1.851	-2.015	-1.820	-1.194	-1.315	0.660	1.262	4.103	2.189	3.425	74.219
-2.870	-1.814	-1.754	-2.117	-1.725	-1.497	1.536	2.507	6.145	2.674	4.947	2.120	0.474	-1.186	-2.843	-2.924	-2.400	-1.951	-2.259	-2.467	-2.155	-1.424	-1.499	0.699	1.553	4.706	2.593	4.094	78.125
-3.283	-2.303	-2.032	-2.495	-1.883	-1.627	1.757	2.825	6.935	3.245	5.842	2.703	0.538	-1.381	-3.216	-3.451	-2.885	-2.234	-2.633	-2.877	-2.461	-1.643	-1.683	0.741	1.788	5.215	2.971	4.744	82.031
-3.608	-2.715	-2.269	-2.805	-2.036	-1.714	1.925	3.030	7.508	3.734	6.608	3.289	0.589	-1.522	-3.496	-3.895	-3.292	-2.480	-2.945	-3.218	-2.716	-1.840	-1.852	0.796	1.962	5.619	3.314	5.343	85.938
-3.840	-3.028	-2.460	-3.033	-2.174	-1.773	2.032	3.107	7.837	4.117	7.191	3.841	0.639	-1.596	-3.684	-4.228	-3.591	-2.675	-3.173	-3.471	-2.906	-2.003	-1.992	0.871	2.082	5.923	3.625	5.867	89.844
-3.980	-3.232	-2.603	-3.171	-2.289	-1.825	2.080	3.057	7.923	4.380	7.563	4.321	0.702	-1.600	-3.788	-4.434	-3.765	-2.813	-3.307	-3.628	-3.021	-2.123	-2.089	0.972	2.160	6.145	3.910	6.300	93.750
-4.038	-3.324	-2.699	-3.220	-2.369	-1.881	2.077	2.893	7.787	4.525	7.712	4.699	0.793	-1.533	-3.825	-4.509	-3.809	-2.896	-3.346	-3.687	-3.060	-2.192	-2.133	1.100	2.210	6.300	4.173	6.631	97.656
-4.022	-3.307	-2.745	-3.183	-2.404	-1.947	2.038	2.637	7.464	4.559	7.644	4.948	0.921	-1.404	-3.807	-4.456	-3.735	-2.928	-3.299	-3.652	-3.023	-2.205	-2.116	1.250	2.241	6.399	4.413	6.846	101.562
-3.941	-3.190	-2.740	-3.067	-2.383	-2.016	1.979	2.315	6.990	4.496	7.379	5.049	1.088	-1.223	-3.745	-4.291	-3.560	-2.915	-3.178	-3.530	-2.911	-2.158	-2.038	1.412	2.255	6.442	4.622	6.933	105.469
-3.798	-2.987	-2.677	-2.878	-2.296	-2.075	1.913	1.955	6.406	4.352	6.944	4.989	1.284	-0.998	-3.640	-4.029	-3.310	-2.861	-2.998	-3.327	-2.725	-2.052	-1.900	1.571	2.243	6.411	4.776	6.877	109.375
-3.596	-2.713	-2.554	-2.626	-2.142	-2.104	1.849	1.582	5.747	4.140	6.375	4.765	1.493	-0.740	-3.492	-3.694	-3.008	-2.769	-2.773	-3.050	-2.467	-1.890	-1.712	1.707	2.193	6.286	4.851	6.664	113.281
-3.340	-2.385	-2.368	-2.322	-1.921	-2.087	1.791	1.217	5.051	3.875	5.712	4.387	1.689	-0.458	-3.296	-3.307	-2.678	-2.636	-2.517	-2.711	-2.142	-1.681	-1.482	1.799	2.090	6.043	4.817	6.288	117.188
-3.036	-2.023	-2.125	-1.979	-1.647	-2.017	1.737	0.879	4.356	3.571	5.001	3.876	1.846	-0.161	-3.051	-2.894	-2.339	-2.462	-2.237	-2.321	-1.760	-1.439	-1.226	1.829	1.924	5.670	4.656	5.755	121.094
-2.701	-1.649	-1.836	-1.616	-1.340	-1.897	1.680	0.585	3.702	3.243	4.290	3.269	1.940	0.137	-2.763	-2.481	-2.007	-2.246	-1.945	-1.903	-1.339	-1.179	-0.958	1.783	1.694	5.170	4.360	5.087	125.000
-2.354	-1.285	-1.519	-1.260	-1.028	-1.741	1.612	0.351	3.135	2.905	3.634	2.614	1.950	0.416	-2.447	-2.095	-1.695	-1.995	-1.650	-1.484	-0.908	-0.921	-0.700	1.652	1.413	4.572	3.941	4.327	128.906
-2.024	-0.956	-1.202	-0.938	-0.746	-1.572	1.524	0.196	2.703	2.575	3.087	1.968	1.863	0.650	-2.126	-1.763	-1.416	-1.724	-1.368	-1.097	-0.506	-0.690	-0.473	1.440	1.107	3.928	3.428	3.534	132.812
-1.742	-0.687	-0.910	-0.682	-0.528	-1.414	1.410	0.141	2.454	2.274	2.702	1.393	1.671	0.806	-1.834	-1.510	-1.187	-1.459	-1.124	-0.783	-0.178	-0.514	-0.302	1.154	0.816	3.309	2.866	2.784	136.719
-1.541	-0.501	-0.674	-0.521	-0.406	-1.290	1.269	0.209	2.435	2.023	2.527	0.949	1.372	0.847	-1.606	-1.364	-1.029	-1.234	-0.946	-0.580	0.024	-0.422	-0.211	0.812	0.584	2.799	2.310	2.156	140.625
-1.448	-0.422	-0.517	-0.484	-0.405	-1.216	1.108	0.420	2.685	1.845	2.599	0.691	0.971	0.742	-1.478	-1.346	-0.965	-1.086	-0.870	-0.526	0.057	-0.443	-0.218	0.437	0.459	2.480	1.819	1.730	144.531
-1.482	-0.470	-0.457	-0.588	-0.538	-1.203	0.938	0.790	3.232	1.761	2.941	0.656	0.478	0.464	-1.482	-1.478	-1.021	-1.050	-0.928	-0.653	-0.115	-0.597	-0.335	0.053	0.479	2.428	1.446	1.572	148.438
-1.654	-0.661	-0.506	-0.843	-0.805	-1.254	0.779	1.325	4.080	1.789	3.554	0.870	-0.091	0.007	-1.638	-1.773	-1.220	-1.146	-1.145	-0.979	-0.512	-0.893	-0.561	-0.313	0.667	2.691	1.235	1.727	152.344
-1.960	-1.004	-0.665	-1.250	-1.197	-1.369	0.651	2.011	5.210	1.943	4.423	1.334	-0.709	-0.619	-1.951	-2.238	-1.573	-1.380	-1.530	-1.508	-1.126	-1.324	-0.882	-0.633	1.030	3.294	1.216	2.215	156.250
-2.387	-1.497	-0.929	-1.795	-1.692	-1.549	0.572	2.815	6.575	2.227	5.513	2.035	-1.343	-1.382	-2.415	-2.867	-2.079	-1.740	-2.073	-2.222	-1.929	-1.865	-1.273	-0.883	1.556	4.224	1.404	3.028	160.156
-2.914	-2.126	-1.285	-2.452	-2.260	-1.790	0.558	3.684	8.106	2.642	6.776	2.940	-1.953	-2.230	-3.007	-3.640	-2.723	-2.198	-2.746	-3.090	-2.870	-2.478	-1.699	-1.042	2.211	5.441	1.796	4.129	164.062
-3.515	-2.866	-1.716	-3.189	-2.868	-2.087	0.616	4.551	9.716	3.179	8.155	4.005	-2.495	-3.101	-3.697	-4.526	-3.472	-2.717	-3.504	-4.061	-3.883	-3.113	-2.124	-1.097	2.951	6.874	2.377	5.462	167.969
-4.160	-3.680	-2.201	-3.965	-3.480	-2.432	0.746	5.343	11.312	3.823	9.589	5.178	-2.931	-3.927	-4.443	-5.480	-4.286	-3.258	-4.293	-5.078	-4.896	-3.723	-2.517	-1.043	3.725	8.439	3.118	6.952	171.875
-4.821	-4.522	-2.717	-4.738	-4.064	-2.814	0.942	5.998	12.810	4.554	11.018	6.402	-3.229	-4.650	-5.205	-6.455	-5.116	-3.785	-5.061	-6.081	-5.842	-4.264	-2.855	-0.887	4.479	10.041	3.978	8.515	175.781
-5.471	-5.347	-3.245	-5.469	-4.595	-3.216	1.191	6.472	14.138	5.346	12.385	7.620	-3.372	-5.221	-5.942	-7.398	-5.917	-4.271	-5.759	-7.015	-6.667	-4.703	-3.125	-0.646	5.170	11.593	4.911	10.070	179.688
-6.088	-6.108	-3.763	-6.125	-5.054	-3.618	1.477	6.743	15.250	6.165	13.640	8.780	-3.362	-5.615	-6.621	-8.262	-6.650	-4.703	-6.350	-7.839	-7.334	-5.024	-3.324	-0.345	5.768	13.018	5.867	11.538	183.594
-6.654	-6.771	-4.257	-6.682	-5.433	-4.000	1.779	6.820	16.120	6.974	14.743	9.835	-3.215	-5.828	-7.216	-9.009	-7.281	-5.078	-6.813	-8.524	-7.827	-5.222	-3.456	-0.011	6.259	14.265	6.795	12.855	187.500
-7.153	-7.309	-4.712	-7.126	-5.729	-4.343	2.075	6.730	16.748	7.732	15.660	10.745	-2.963	-5.873	-7.713	-9.612	-7.791	-5.405	-7.141	-9.061	-8.147	-5.305	-3.528	0.330	6.644	15.303	7.650	13.974	191.406
-7.579	-7.713	-5.119	-7.456	-5.945	-4.631	2.347	6.515	17.147	8.400	16.369	11.482	-2.642	-5.781	-8.107	-10.062	-8.173	-5.693	-7.337	-9.453	-8.307	-5.288	-3.546	0.656	6.940	16.126	8.393	14.869	195.312
-7.927	-7.989	-5.473	-7.677	-6.085	-4.851	2.579	6.222	17.343	8.940	16.858	12.027	-2.289	-5.588	-8.401	-10.362	-8.429	-5.951	-7.418	-9.718	-8.330	-5.189	-3.513	0.957	7.169	16.748	9.000	15.528	199.219
-8.197	-8.157	-5.772	-7.803	-6.155	-4.997	2.761	5.895	17.367	9.327	17.125	12.374	-1.936	-5.332	-8.605	-10.532	-8.572	-6.179	-7.406	-9.876	-8.239	-5.027	-3.430	1.229	7.358	17.190	9.456	15.957	203.125
-8.392	-8.243	-6.016	-7.853	-6.161	-5.068	2.891	5.572	17.249	9.548	17.179	12.526	-1.605	-5.040	-8.732	-10.599	-8.621	-6.370	-7.325	-9.949	-8.056	-4.816	-3.300	1.477	7.526	17.481	9.763	16.173	207.031
-8.518	-8.279	-6.209	-7.846	-6.106	-5.067	2.976	5.278	17.022	9.605	17.040	12.498	-1.306	-4.735	-8.796	-10.597	-8.599	-6.511	-7.198	-9.959	-7.800	-4.569	-3.126	1.710	7.689	17.645	9.934	16.196	210.938
-8.588	-8.293	-6.357	-7.804	-5.998	-5.004	3.029	5.030	16.715	9.520	16.736	12.314	-1.039	-4.423	-8.814	-10.558	-8.529	-6.590	-7.047	-9.921	-7.486	-4.296	-2.916	1.940	7.853	17.708	9.991	16.056	214.844
-8.616	-8.311	-6.471	-7.746	-5.840	-4.893	3.067	4.835	16.357	9.327	16.305	12.007	-0.793	-4.102	-8.804	-10.512	-8.434	-6.600	-6.885	-9.845	-7.123	-4.000	-2.681	2.178	8.015	17.688	9.965	15.784	218.750
-8.619	-8.347	-6.563	-7.686	-5.641	-4.748	3.111	4.693	15.973	9.071	15.788	11.614	-0.554	-3.763	-8.783	-10.478	-8.333	-6.543	-6.723	-9.735	-6.718	-3.687	-2.437	2.433	8.166	17.606	9.894	15.412	222.656
-8.615	-8.407	-6.648	-7.632	-5.411	-4.585	3.179	4.598	15.586	8.800	15.227	11.172	-0.300	-3.392	-8.767	-10.464	-8.240	-6.435	-6.561	-9.590	-6.275	-3.358	-2.200	2.709	8.296	17.480	9.811	14.976	226.562
-8.623	-8.488	-6.741	-7.587	-5.160	-4.415	3.283	4.536	15.215	8.559	14.661	10.718	-0.013	-2.975	-8.768	-10.469	-8.165	-6.302	-6.398	-9.407	-5.796	-3.016	-1.985	3.009	8.396	17.330	9.748	14.508	230.469
-8.659	-8.582	-6.855	-7.548	-4.901	-4.247	3.430	4.495	14.873	8.382	14.123	10.282	0.320	-2.505	-8.794	-10.481	-8.108	-6.176	-6.227	-9.182	-5.282	-2.667	-1.808	3.327	8.460	17.171	9.728	14.038	234.375
-8.737	-8.674	-7.002	-7.509	-4.642	-4.087	3.617	4.458	14.571	8.291	13.636	9.886	0.706	-1.981	-8.846	-10.482	-8.068	-6.085	-6.041	-8.909	-4.733	-2.314	-1.677	3.659	8.484	17.017	9.764	13.588	238.281
-8.861	-8.754	-7.186	-7.463	-4.395	-3.940	3.837	4.412	14.315	8.292	13.215	9.541	1.143	-1.411	-8.920	-10.453	-8.034	-6.052	-5.834	-8.585	-4.153	-1.963	-1.595	3.995	8.469	16.876	9.854	13.176	242.188
-9.034	-8.810	-7.409	-7.406	-4.166	-3.814	4.074	4.344	14.106	8.375	12.865	9.253	1.618	-0.810	-9.009	-10.376	-7.997	-6.086	-5.605	-8.213	-3.546	-1.617	-1.558	4.326	8.418	16.748	9.990	12.813	246.094
-9.247	-8.839	-7.665	-7.335	-3.964	-3.717	4.310	4.245	13.942	8.524	12.585	9.015	2.113	-0.195	-9.101	-10.241	-7.942	-6.181	-5.355	-7.796	-2.920	-1.280	-1.556	4.644	8.334	16.633	10.154	12.503	250.000
-9.487	-8.840	-7.945	-7.255	-3.792	-3.658	4.529	4.112	13.818	8.712	12.365	8.820	2.603	0.412	-9.189	-10.044	-7.860	-6.322	-5.087	-7.343	-2.285	-0.951	-1.573	4.942	8.224	16.521	10.325	12.249	253.906
-9.736	-8.819	-8.237	-7.169	-3.655	-3.646	4.713	3.940	13.725	8.917	12.196	8.656	3.065	0.994	-9.261	-9.789	-7.742	-6.483	-4.809	-6.863	-1.653	-0.631	-1.596	5.216	8.094	16.409	10.483	12.049	257.812
-9.972	-8.781	-8.530	-7.083	-3.552	-3.686	4.853	3.731	13.649	9.114	12.068	8.516	3.483	1.537	-9.312	-9.485	-7.582	-6.641	-4.528	-6.371	-1.034	-0.321	-1.613	5.466	7.949	16.290	10.615	11.902	261.719
-10.181	-8.730	-8.815	-7.001	-3.480	-3.779	4.945	3.487	13.576	9.289	11.971	8.394	3.844	2.035	-9.337	-9.145	-7.381	-6.775	-4.249	-5.877	-0.439	-0.021	-1.620	5.694	7.798	16.162	10.711	11.803	265.625
-10.351	-8.668	-9.083	-6.922	-3.431	-3.918	4.992	3.209	13.492	9.431	11.898	8.293	4.150	2.487	-9.339	-8.782	-7.144	-6.877	-3.977	-5.389	0.127	0.267	-1.617	5.903	7.645	16.026	10.773	11.748	269.531
-10.479	-8.591	-9.334	-6.842	-3.393	-4.086	5.003	2.900	13.385	9.537	11.843	8.216	4.409	2.899	-9.320	-8.407	-6.881	-6.947	-3.713	-4.911	0.665	0.542	-1.610	6.099	7.494	15.886	10.808	11.731	273.438
-10.571	-8.496	-9.567	-6.752	-3.353	-4.261	4.991	2.562	13.244	9.609	11.800	8.167	4.639	3.283	-9.289	-8.026	-6.603	-6.994	-3.457	-4.439	1.180	0.803	-1.609	6.286	7.346	15.742	10.826	11.744	277.344
-10.637	-8.375	-9.785	-6.642	-3.297	-4.418	4.971	2.196	13.063	9.651	11.764	8.148	4.861	3.652	-9.256	-7.638	-6.322	-7.034	-3.206	-3.962	1.683	1.049	-1.620	6.469	7.201	15.597	10.840	11.772	281.250
-10.686	-8.226	-9.990	-6.504	-3.213	-4.535	4.956	1.807	12.842	9.667	11.727	8.156	5.096	4.021	-9.229	-7.239	-6.047	-7.077	-2.953	-3.467	2.186	1.281	-1.648	6.650	7.054	15.448	10.858	11.797	285.156
-10.728	-8.046	-10.184	-6.328	-3.093	-4.597	4.953	1.401	12.582	9.660	11.680	8.180	5.356	4.399	-9.217	-6.819	-5.780	-7.130	-2.692	-2.940	2.701	1.503	-1.690	6.826	6.903	15.293	10.883	11.800	289.062
-10.766	-7.838	-10.368	-6.114	-2.934	-4.599	4.967	0.988	12.288	9.629	11.613	8.204	5.645	4.791	-9.221	-6.370	-5.518	-7.193	-2.413	-2.373	3.235	1.719	-1.742	6.995	6.744	15.125	10.912	11.759	292.969
-10.802	-7.608	-10.540	-5.862	-2.739	-4.545	4.997	0.581	11.968	9.572	11.518	8.207	5.958	5.197	-9.243	-5.886	-5.254	-7.256	-2.110	-1.763	3.788	1.935	-1.795	7.152	6.579	14.937	10.936	11.662	296.875
-10.837	-7.363	-10.700	-5.578	-2.515	-4.449	5.037	0.193	11.626	9.485	11.386	8.169	6.278	5.608	-9.278	-5.369	-4.977	-7.306	-1.777	-1.116	4.353	2.158	-1.835	7.294	6.410	14.727	10.945	11.501	300.781
-10.870	-7.111	-10.848	-5.271	-2.272	-4.331	5.081	-0.162	11.269	9.364	11.211	8.072	6.585	6.012	-9.320	-4.822	-4.676	-7.332	-1.410	-0.445	4.918	2.397	-1.848	7.420	6.244	14.494	10.927	11.279	304.688
-10.903	-6.855	-10.982	-4.954	-2.025	-4.208	5.120	-0.471	10.898	9.206	10.988	7.906	6.855	6.395	-9.360	-4.258	-4.345	-7.322	-1.011	0.231	5.467	2.660	-1.816	7.529	6.091	14.242	10.875	11.007	308.594
-10.937	-6.598	-11.103	-4.639	-1.785	-4.097	5.145	-0.730	10.516	9.010	10.716	7.665	7.066	6.743	-9.389	-3.688	-3.981	-7.271	-0.582	0.892	5.983	2.951	-1.728	7.623	5.959	13.977	10.782	10.700	312.500
-10.971	-6.335	-11.210	-4.335	-1.565	-4.008	5.149	-0.938	10.124	8.776	10.393	7.352	7.201	7.045	-9.398	-3.128	-3.585	-7.179	-0.132	1.519	6.453	3.271	-1.571	7.704	5.853	13.707	10.648	10.372	316.406
-11.003	-6.064	-11.300	-4.050	-1.376	-3.946	5.128	-1.099	9.724	8.508	10.024	6.974	7.252	7.290	-9.379	-2.588	-3.163	-7.050	0.330	2.097	6.866	3.615	-1.345	7.773	5.776	13.440	10.475	10.035	320.312
-11.029	-5.780	-11.370	-3.790	-1.224	-3.909	5.081	-1.225	9.320	8.211	9.617	6.544	7.218	7.473	-9.328	-2.081	-2.726	-6.891	0.790	2.613	7.213	3.974	-1.055	7.832	5.726	13.180	10.266	9.696	324.219
-11.043	-5.481	-11.418	-3.556	-1.113	-3.891	5.011	-1.326	8.918	7.895	9.184	6.079	7.107	7.592	-9.243	-1.613	-2.288	-6.710	1.230	3.059	7.489	4.334	-0.718	7.879	5.700	12.931	10.031	9.361	328.125
-11.040	-5.171	-11.443	-3.348	-1.041	-3.887	4.927	-1.414	8.531	7.570	8.745	5.600	6.934	7.649	-9.130	-1.194	-1.866	-6.518	1.631	3.429	7.693	4.679	-0.358	7.916	5.693	12.697	9.778	9.030	332.031
-11.015	-4.859	-11.445	-3.168	-1.005	-3.892	4.839	-1.496	8.173	7.250	8.321	5.130	6.722	7.649	-8.998	-0.828	-1.479	-6.325	1.976	3.720	7.822	4.993	-0.003	7.942	5.702	12.481	9.518	8.704	335.938
-10.969	-4.556	-11.424	-3.014	-0.998	-3.902	4.761	-1.576	7.856	6.950	7.934	4.691	6.497	7.600	-8.861	-0.522	-1.144	-6.143	2.252	3.930	7.879	5.263	0.318	7.961	5.726	12.289	9.266	8.384	339.844
-10.905	-4.276	-11.383	-2.887	-1.009	-3.917	4.703	-1.651	7.592	6.685	7.602	4.306	6.285	7.513	-8.732	-0.278	-0.872	-5.979	2.452	4.063	7.866	5.478	0.586	7.975	5.765	12.121	9.032	8.070	343.750
-10.829	-4.029	-11.325	-2.787	-1.029	-3.938	4.673	-1.717	7.386	6.467	7.336	3.992	6.111	7.402	-8.626	-0.097	-0.669	-5.842	2.578	4.124	7.791	5.634	0.788	7.992	5.819	11.975	8.826	7.766	347.656
-10.749	-3.823	-11.250	-2.714	-1.047	-3.963	4.671	-1.764	7.236	6.304	7.141	3.760	5.994	7.281	-8.550	0.020	-0.532	-5.733	2.640	4.121	7.663	5.731	0.925	8.014	5.886	11.845	8.656	7.476	351.562
-10.674	-3.659	-11.156	-2.666	-1.055	-3.990	4.692	-1.785	7.135	6.197	7.010	3.611	5.944	7.161	-8.508	0.077	-0.455	-5.652	2.653	4.063	7.494	5.776	1.009	8.044	5.962	11.717	8.521	7.204	355.469
-10.609	-3.532	-11.043	-2.640	-1.047	-4.011	4.727	-1.772	7.073	6.143	6.932	3.541	5.961	7.051	-8.495	0.076	-0.429	-5.597	2.633	3.960	7.296	5.776	1.055	8.079	6.038	11.578	8.419	6.953	359.375
-10.557	-3.433	-10.905	-2.633	-1.022	-4.021	4.763	-1.719	7.039	6.131	6.888	3.536	6.033	6.956	-8.503	0.021	-0.444	-5.564	2.593	3.821	7.082	5.742	1.083	8.108	6.107	11.413	8.342	6.727	363.281
-10.516	-3.356	-10.743	-2.641	-0.981	-4.012	4.788	-1.623	7.024	6.145	6.859	3.577	6.140	6.871	-8.522	-0.083	-0.492	-5.549	2.540	3.650	6.859	5.679	1.108	8.120	6.160	11.218	8.280	6.528	367.188
-10.481	-3.296	-10.559	-2.665	-0.931	-3.979	4.793	-1.482	7.026	6.169	6.829	3.640	6.255	6.790	-8.542	-0.234	-0.571	-5.547	2.473	3.450	6.631	5.595	1.141	8.100	6.196	10.997	8.219	6.359	371.094
-10.446	-3.256	-10.363	-2.708	-0.881	-3.919	4.774	-1.297	7.050	6.190	6.787	3.707	6.352	6.701	-8.553	-0.430	-0.683	-5.557	2.385	3.219	6.398	5.489	1.185	8.036	6.215	10.766	8.151	6.228	375.000
-10.407	-3.246	-10.167	-2.774	-0.843	-3.832	4.730	-1.064	7.107	6.197	6.734	3.766	6.407	6.593	-8.556	-0.674	-0.833	-5.574	2.264	2.949	6.154	5.362	1.235	7.921	6.224	10.551	8.071	6.145	378.906
-10.363	-3.281	-9.985	-2.874	-0.829	-3.722	4.666	-0.783	7.213	6.188	6.679	3.814	6.404	6.454	-8.554	-0.968	-1.031	-5.595	2.094	2.634	5.890	5.208	1.281	7.756	6.232	10.384	7.979	6.128	382.812
-10.324	-3.378	-9.829	-3.013	-0.849	-3.592	4.593	-0.448	7.386	6.168	6.643	3.862	6.335	6.277	-8.557	-1.317	-1.291	-5.619	1.860	2.268	5.596	5.024	1.311	7.548	6.253	10.295	7.882	6.192	386.719
-10.302	-3.547	-9.706	-3.198	-0.909	-3.446	4.521	-0.058	7.636	6.146	6.648	3.925	6.201	6.057	-8.576	-1.724	-1.620	-5.643	1.552	1.848	5.266	4.807	1.312	7.311	6.295	10.305	7.791	6.352	390.625
-10.309	-3.791	-9.614	-3.426	-1.004	-3.285	4.460	0.386	7.965	6.132	6.715	4.024	6.014	5.797	-8.623	-2.185	-2.021	-5.667	1.170	1.378	4.900	4.559	1.274	7.058	6.364	10.419	7.716	6.606	394.531
-10.348	-4.098	-9.540	-3.684	-1.123	-3.105	4.418	0.874	8.354	6.132	6.847	4.168	5.787	5.505	-8.702	-2.687	-2.483	-5.689	0.728	0.874	4.507	4.284	1.196	6.802	6.459	10.621	7.660	6.936	398.438
-10.408	-4.441	-9.463	-3.952	-1.246	-2.902	4.394	1.387	8.766	6.138	7.029	4.351	5.535	5.196	-8.807	-3.206	-2.984	-5.705	0.249	0.360	4.105	3.995	1.084	6.553	6.569	10.866	7.616	7.300	402.344
-10.458	-4.782	-9.353	-4.199	-1.347	-2.671	4.383	1.897	9.145	6.135	7.223	4.548	5.267	4.886	-8.918	-3.707	-3.487	-5.707	-0.231	-0.129	3.720	3.707	0.950	6.313	6.674	11.092	7.561	7.635	406.250
-10.454	-5.075	-9.181	-4.389	-1.400	-2.404	4.374	2.369	9.426	6.097	7.373	4.718	4.990	4.597	-9.004	-4.150	-3.949	-5.684	-0.674	-0.556	3.381	3.437	0.813	6.084	6.746	11.221	7.462	7.870	410.156
-10.349	-5.277	-8.922	-4.490	-1.381	-2.102	4.350	2.768	9.549	5.995	7.421	4.813	4.706	4.346	-9.029	-4.494	-4.327	-5.622	-1.041	-0.885	3.116	3.201	0.696	5.862	6.756	11.176	7.282	7.933	414.062
-10.103	-5.354	-8.562	-4.478	-1.275	-1.765	4.298	3.062	9.472	5.805	7.315	4.787	4.415	4.148	-8.958	-4.707	-4.585	-5.510	-1.304	-1.087	2.944	3.012	0.615	5.642	6.674	10.895	6.991	7.771	417.969
-9.696	-5.286	-8.101	-4.341	-1.079	-1.403	4.207	3.230	9.182	5.512	7.026	4.608	4.114	4.013	-8.766	-4.768	-4.701	-5.339	-1.445	-1.148	2.876	2.878	0.584	5.423	6.477	10.342	6.570	7.357	421.875
-9.136	-5.069	-7.553	-4.085	-0.801	-1.029	4.070	3.262	8.692	5.121	6.555	4.267	3.807	3.944	-8.442	-4.673	-4.669	-5.102	-1.460	-1.066	2.910	2.800	0.606	5.201	6.154	9.517	6.018	6.700	425.781
-8.453	-4.719	-6.941	-3.730	-0.460	-0.662	3.892	3.161	8.043	4.650	5.930	3.781	3.496	3.935	-7.994	-4.437	-4.503	-4.801	-1.358	-0.854	3.033	2.778	0.677	4.977	5.706	8.454	5.357	5.841	429.688
-7.695	-4.263	-6.297	-3.306	-0.085	-0.324	3.682	2.942	7.288	4.133	5.206	3.190	3.190	3.976	-7.444	-4.086	-4.227	-4.442	-1.159	-0.538	3.225	2.805	0.784	4.748	5.146	7.219	4.622	4.847	433.594
-6.917	-3.738	-5.653	-2.852	0.296	-0.036	3.458	2.624	6.482	3.617	4.451	2.552	2.899	4.048	-6.828	-3.657	-3.879	-4.039	-0.892	-0.154	3.459	2.872	0.909	4.515	4.501	5.896	3.864	3.801	437.500
-6.167	-3.183	-5.034	-2.403	0.655	0.183	3.243	2.234	5.676	3.145	3.734	1.933	2.634	4.133	-6.183	-3.193	-3.493	-3.612	-0.587	0.260	3.706	2.966	1.034	4.275	3.804	4.571	3.131	2.784	441.406
-5.483	-2.635	-4.462	-1.991	0.972	0.319	3.056	1.798	4.903	2.756	3.113	1.393	2.405	4.210	-5.544	-2.731	-3.105	-3.181	-0.276	0.664	3.938	3.073	1.141	4.028	3.089	3.322	2.471	1.867	445.312
-4.886	-2.126	-3.948	-1.634	1.236	0.372	2.917	1.340	4.187	2.477	2.624	0.980	2.219	4.262	-4.940	-2.304	-2.740	-2.768	0.015	1.026	4.133	3.181	1.217	3.771	2.389	2.209	1.915	1.100	449.219
-4.385	-1.678	-3.498	-1.343	1.447	0.353	2.832	0.879	3.534	2.314	2.280	0.717	2.081	4.279	-4.389	-1.934	-2.413	-2.391	0.268	1.322	4.276	3.276	1.255	3.507	1.734	1.268	1.483	0.506	453.125
-3.980	-1.308	-3.117	-1.115	1.612	0.283	2.802	0.431	2.946	2.258	2.074	0.609	1.991	4.260	-3.899	-1.632	-2.131	-2.062	0.472	1.542	4.363	3.352	1.255	3.241	1.146	0.513	1.178	0.088	457.031
-3.668	-1.024	-2.806	-0.945	1.743	0.190	2.818	0.006	2.419	2.284	1.979	0.636	1.944	4.212	-3.478	-1.399	-1.897	-1.784	0.626	1.686	4.396	3.407	1.225	2.983	0.644	-0.057	0.994	-0.168	460.938
-3.446	-0.833	-2.573	-0.823	1.851	0.104	2.861	-0.385	1.951	2.358	1.961	0.766	1.933	4.147	-3.127	-1.235	-1.706	-1.556	0.736	1.760	4.386	3.447	1.181	2.749	0.242	-0.451	0.915	-0.285	464.844
-3.309	-0.734	-2.421	-0.744	1.942	0.048	2.911	-0.735	1.545	2.445	1.984	0.960	1.947	4.077	-2.849	-1.132	-1.558	-1.374	0.809	1.778	4.346	3.478	1.141	2.555	-0.048	-0.684	0.921	-0.290	468.750
-3.253	-0.726	-2.353	-0.705	2.017	0.037	2.948	-1.033	1.207	2.515	2.020	1.179	1.971	4.015	-2.646	-1.086	-1.452	-1.232	0.855	1.750	4.287	3.510	1.122	2.418	-0.220	-0.768	0.992	-0.207	472.656
-3.270	-0.799	-2.365	-0.708	2.069	0.074	2.954	-1.267	0.945	2.543	2.050	1.387	1.990	3.962	-2.521	-1.092	-1.391	-1.128	0.879	1.686	4.217	3.546	1.134	2.348	-0.270	-0.716	1.106	-0.058	476.562
-3.343	-0.942	-2.439	-0.751	2.088	0.152	2.916	-1.429	0.767	2.517	2.060	1.557	1.989	3.914	-2.469	-1.144	-1.378	-1.060	0.885	1.593	4.138	3.586	1.182	2.346	-0.202	-0.542	1.241	0.135	480.469
-3.450	-1.133	-2.551	-0.831	2.065	0.258	2.830	-1.509	0.672	2.432	2.045	1.666	1.954	3.860	-2.485	-1.237	-1.413	-1.026	0.875	1.477	4.048	3.625	1.257	2.399	-0.030	-0.269	1.371	0.343	484.375
-3.565	-1.346	-2.666	-0.938	1.998	0.378	2.697	-1.508	0.655	2.289	2.000	1.692	1.877	3.789	-2.550	-1.356	-1.490	-1.020	0.851	1.346	3.946	3.655	1.347	2.482	0.221	0.072	1.470	0.535	488.281
-3.658	-1.549	-2.747	-1.054	1.892	0.498	2.529	-1.430	0.700	2.095	1.915	1.619	1.754	3.691	-2.645	-1.481	-1.596	-1.031	0.819	1.212	3.833	3.667	1.436	2.565	0.520	0.439	1.507	0.671	492.188
-3.703	-1.709	-2.761	-1.156	1.763	0.614	2.338	-1.288	0.781	1.852	1.779	1.429	1.586	3.564	-2.740	-1.589	-1.707	-1.042	0.791	1.093	3.717	3.660	1.512	2.611	0.825	0.780	1.454	0.707	496.094
-3.682	-1.795	-2.686	-1.220	1.633	0.725	2.141	-1.099	0.870	1.566	1.573	1.109	1.381	3.418	-2.806	-1.652	-1.795	-1.034	0.784	1.008	3.613	3.639	1.572	2.591	1.098	1.043	1.286	0.604	500.000
-3.585	-1.787	-2.514	-1.226	1.526	0.836	1.952	-0.885	0.935	1.237	1.283	0.652	1.147	3.268	-2.815	-1.649	-1.833	-0.986	0.815	0.975	3.538	3.616	1.619	2.486	1.305	1.183	0.988	0.336	503.906
-3.413	-1.673	-2.251	-1.161	1.460	0.955	1.778	-0.667	0.951	0.865	0.897	0.065	0.894	3.132	-2.748	-1.565	-1.796	-0.886	0.901	1.010	3.508	3.608	1.664	2.291	1.424	1.168	0.560	-0.103	507.812
-3.173	-1.457	-1.915	-1.024	1.446	1.084	1.621	-0.468	0.897	0.454	0.415	-0.631	0.628	3.024	-2.595	-1.400	-1.675	-0.727	1.051	1.113	3.534	3.628	1.723	2.013	1.445	0.990	0.018	-0.692	511.719
-2.879	-1.154	-1.533	-0.823	1.482	1.223	1.479	-0.307	0.767	0.010	-0.145	-1.399	0.352	2.953	-2.358	-1.165	-1.470	-0.514	1.262	1.278	3.615	3.685	1.811	1.673	1.378	0.666	-0.605	-1.383	515.625
-2.549	-0.790	-1.133	-0.578	1.552	1.360	1.344	-0.202	0.567	-0.451	-0.746	-2.185	0.066	2.916	-2.053	-0.884	-1.195	-0.260	1.523	1.484	3.737	3.780	1.935	1.297	1.240	0.233	-1.258	-2.104	519.531
-2.203	-0.399	-0.746	-0.312	1.635	1.477	1.210	-0.167	0.313	-0.907	-1.337	-2.923	-0.227	2.902	-1.704	-0.584	-0.878	0.015	1.811	1.704	3.879	3.903	2.094	0.916	1.060	-0.253	-1.884	-2.772	523.438
-1.863	-0.017	-0.405	-0.053	1.703	1.550	1.070	-0.209	0.029	-1.327	-1.856	-3.544	-0.522	2.893	-1.344	-0.295	-0.548	0.291	2.095	1.909	4.014	4.038	2.279	0.560	0.866	-0.730	-2.420	-3.304	527.344
-1.548	0.321	-0.138	0.174	1.732	1.552	0.923	-0.330	-0.257	-1.678	-2.245	-3.985	-0.808	2.874	-1.005	-0.043	-0.238	0.546	2.346	2.076	4.116	4.165	2.469	0.255	0.686	-1.136	-2.811	-3.628	531.250
-1.276	0.588	0.031	0.346	1.705	1.463	0.771	-0.522	-0.523	-1.928	-2.456	-4.200	-1.070	2.831	-0.713	0.155	0.024	0.764	2.533	2.189	4.167	4.262	2.643	0.022	0.542	-1.422	-3.015	-3.702	535.156
-1.061	0.764	0.083	0.450	1.615	1.269	0.624	-0.771	-0.749	-2.054	-2.464	-4.163	-1.287	2.758	-0.487	0.292	0.216	0.929	2.638	2.241	4.157	4.314	2.776	-0.126	0.447	-1.552	-3.007	-3.512	539.062
-0.913	0.842	0.009	0.475	1.466	0.973	0.492	-1.053	-0.921	-2.040	-2.267	-3.876	-1.444	2.658	-0.339	0.365	0.327	1.031	2.648	2.235	4.083	4.309	2.851	-0.181	0.408	-1.512	-2.786	-3.082	542.969
-0.839	0.821	-0.189	0.422	1.271	0.592	0.390	-1.336	-1.026	-1.884	-1.886	-3.368	-1.527	2.539	-0.270	0.374	0.352	1.063	2.561	2.176	3.950	4.239	2.857	-0.144	0.425	-1.307	-2.371	-2.461	546.875
-0.842	0.707	-0.497	0.292	1.046	0.159	0.337	-1.577	-1.051	-1.596	-1.360	-2.685	-1.529	2.408	-0.278	0.321	0.289	1.016	2.382	2.067	3.767	4.104	2.789	-0.023	0.496	-0.956	-1.802	-1.715	550.781
-0.923	0.513	-0.891	0.096	0.810	-0.281	0.346	-1.734	-0.976	-1.195	-0.732	-1.887	-1.453	2.275	-0.361	0.202	0.143	0.888	2.123	1.909	3.538	3.906	2.650	0.169	0.617	-0.486	-1.128	-0.918	554.688
-1.079	0.251	-1.335	-0.155	0.578	-0.679	0.431	-1.769	-0.782	-0.707	-0.049	-1.041	-1.310	2.145	-0.515	0.013	-0.082	0.676	1.796	1.698	3.269	3.653	2.450	0.414	0.785	0.072	-0.403	-0.137	558.594
-1.307	-0.061	-1.791	-0.446	0.359	-0.993	0.593	-1.657	-0.458	-0.167	0.646	-0.211	-1.117	2.020	-0.738	-0.252	-0.381	0.387	1.417	1.427	2.963	3.357	2.203	0.691	0.998	0.689	0.318	0.575	562.500
-1.594	-0.405	-2.219	-0.760	0.159	-1.187	0.824	-1.395	0.001	0.389	1.316	0.545	-0.897	1.899	-1.027	-0.591	-0.743	0.035	1.006	1.095	2.624	3.034	1.931	0.977	1.254	1.341	0.985	1.182	566.406
-1.926	-0.765	-2.586	-1.080	-0.021	-1.248	1.101	-1.003	0.576	0.918	1.927	1.178	-0.678	1.780	-1.371	-0.996	-1.152	-0.353	0.583	0.706	2.262	2.706	1.654	1.246	1.548	2.004	1.558	1.667	570.312
-2.279	-1.119	-2.868	-1.387	-0.184	-1.177	1.390	-0.523	1.230	1.377	2.447	1.650	-0.486	1.661	-1.754	-1.444	-1.582	-0.744	0.173	0.279	1.892	2.396	1.399	1.477	1.875	2.658	2.005	2.025	574.219
-2.623	-1.448	-3.051	-1.666	-0.335	-0.996	1.653	-0.012	1.908	1.723	2.848	1.938	-0.348	1.540	-2.148	-1.900	-2.001	-1.098	-0.197	-0.159	1.535	2.128	1.186	1.649	2.219	3.275	2.302	2.262	578.125
-2.924	-1.734	-3.132	-1.900	-0.476	-0.736	1.845	0.467	2.543	1.921	3.102	2.031	-0.283	1.418	-2.517	-2.322	-2.369	-1.379	-0.500	-0.569	1.214	1.922	1.035	1.747	2.560	3.825	2.437	2.389	582.031
-3.149	-1.958	-3.118	-2.079	-0.609	-0.439	1.934	0.857	3.068	1.945	3.189	1.936	-0.304	1.296	-2.820	-2.660	-2.647	-1.553	-0.711	-0.913	0.953	1.789	0.957	1.763	2.873	4.271	2.408	2.419	585.938
-3.267	-2.107	-3.024	-2.194	-0.732	-0.145	1.898	1.112	3.424	1.783	3.099	1.673	-0.410	1.178	-3.016	-2.871	-2.799	-1.600	-0.812	-1.152	0.771	1.733	0.957	1.698	3.128	4.574	2.223	2.366	589.844
-3.258	-2.167	-2.866	-2.242	-0.841	0.109	1.733	1.206	3.572	1.446	2.836	1.274	-0.591	1.070	-3.074	-2.923	-2.803	-1.510	-0.797	-1.261	0.681	1.744	1.030	1.559	3.292	4.700	1.902	2.239	593.750
-3.113	-2.131	-2.662	-2.221	-0.928	0.298	1.454	1.135	3.497	0.960	2.416	0.779	-0.825	0.980	-2.973	-2.801	-2.649	-1.288	-0.670	-1.226	0.684	1.810	1.167	1.358	3.340	4.619	1.471	2.044	597.656
-2.838	-1.994	-2.427	-2.131	-0.982	0.410	1.092	0.917	3.208	0.367	1.870	0.229	-1.082	0.917	-2.712	-2.508	-2.345	-0.952	-0.447	-1.048	0.775	1.910	1.352	1.115	3.250	4.319	0.964	1.782	601.562
-2.453	-1.759	-2.172	-1.975	-0.991	0.449	0.690	0.582	2.734	-0.280	1.236	-0.337	-1.329	0.889	-2.305	-2.068	-1.916	-0.528	-0.151	-0.741	0.942	2.029	1.563	0.848	3.012	3.804	0.417	1.453	605.469
-1.986	-1.434	-1.905	-1.759	-0.947	0.432	0.291	0.172	2.119	-0.929	0.559	-0.886	-1.537	0.903	-1.782	-1.519	-1.399	-0.054	0.187	-0.331	1.168	2.152	1.782	0.578	2.635	3.102	-0.134	1.059	609.375
-1.475	-1.035	-1.634	-1.492	-0.848	0.384	-0.064	-0.270	1.415	-1.530	-0.117	-1.392	-1.685	0.961	-1.186	-0.910	-0.840	0.432	0.539	0.147	1.432	2.270	1.987	0.322	2.142	2.263	-0.658	0.609	613.281
-0.961	-0.587	-1.368	-1.189	-0.701	0.332	-0.347	-0.704	0.677	-2.044	-0.752	-1.838	-1.761	1.059	-0.564	-0.292	-0.284	0.888	0.876	0.655	1.715	2.380	2.162	0.097	1.573	1.354	-1.125	0.125	617.188
-0.480	-0.121	-1.118	-0.872	-0.520	0.298	-0.542	-1.097	-0.041	-2.442	-1.310	-2.209	-1.766	1.185	0.031	0.284	0.222	1.280	1.174	1.152	1.995	2.482	2.296	-0.089	0.980	0.453	-1.513	-0.360	621.094
-0.065	0.324	-0.896	-0.564	-0.327	0.298	-0.646	-1.424	-0.693	-2.708	-1.763	-2.496	-1.711	1.322	0.552	0.771	0.640	1.581	1.416	1.598	2.251	2.577	2.385	-0.229	0.421	-0.364	-1.805	-0.803	625.000
0.262	0.712	-0.716	-0.293	-0.146	0.337	-0.666	-1.668	-1.241	-2.835	-2.091	-2.692	-1.611	1.452	0.959	1.136	0.942	1.780	1.588	1.957	2.465	2.667	2.431	-0.323	-0.051	-1.029	-1.992	-1.158	628.906
0.490	1.012	-0.588	-0.084	0.002	0.411	-0.615	-1.823	-1.657	-2.826	-2.280	-2.790	-1.485	1.555	1.227	1.356	1.110	1.874	1.682	2.202	2.619	2.749	2.437	-0.374	-0.394	-1.498	-2.071	-1.385	632.812
0.618	1.201	-0.518	0.044	0.102	0.512	-0.508	-1.887	-1.928	-2.693	-2.327	-2.791	-1.350	1.620	1.346	1.425	1.140	1.876	1.698	2.317	2.703	2.820	2.413	-0.389	-0.589	-1.755	-2.049	-1.459	636.719
0.658	1.273	-0.505	0.081	0.147	0.631	-0.363	-1.869	-2.055	-2.457	-2.241	-2.699	-1.219	1.639	1.324	1.354	1.043	1.806	1.641	2.301	2.711	2.876	2.369	-0.374	-0.639	-1.811	-1.940	-1.372	640.625
0.628	1.239	-0.539	0.032	0.139	0.756	-0.195	-1.784	-2.056	-2.147	-2.040	-2.530	-1.100	1.614	1.183	1.169	0.842	1.691	1.525	2.168	2.646	2.910	2.314	-0.339	-0.569	-1.702	-1.766	-1.141	644.531
0.551	1.122	-0.606	-0.088	0.085	0.878	-0.021	-1.655	-1.958	-1.798	-1.755	-2.303	-1.001	1.553	0.960	0.910	0.572	1.558	1.373	1.947	2.518	2.921	2.255	-0.290	-0.419	-1.481	-1.552	-0.800	648.438
0.453	0.958	-0.688	-0.255	-0.003	0.984	0.144	-1.507	-1.798	-1.449	-1.424	-2.045	-0.926	1.469	0.695	0.623	0.279	1.433	1.211	1.678	2.345	2.911	2.200	-0.231	-0.237	-1.204	-1.325	-0.397	652.344
0.355	0.789	-0.767	-0.438	-0.114	1.062	0.284	-1.367	-1.614	-1.136	-1.089	-1.785	-0.876	1.375	0.428	0.357	0.004	1.333	1.067	1.405	2.151	2.888	2.151	-0.165	-0.068	-0.927	-1.112	0.017	656.250
0.276	0.649	-0.827	-0.609	-0.237	1.102	0.386	-1.259	-1.441	-0.891	-0.789	-1.548	-0.856	1.286	0.193	0.152	-0.212	1.267	0.965	1.170	1.960	2.861	2.111	-0.093	0.057	-0.686	-0.932	0.394	660.156
0.227	0.565	-0.861	-0.746	-0.363	1.093	0.437	-1.198	-1.306	-0.734	-0.555	-1.354	-0.864	1.210	0.016	0.036	-0.347	1.236	0.922	1.004	1.791	2.841	2.077	-0.015	0.120	-0.505	-0.794	0.701	664.062
0.212	0.549	-0.866	-0.840	-0.489	1.028	0.432	-1.189	-1.225	-0.673	-0.406	-1.212	-0.901	1.153	-0.092	0.018	-0.390	1.232	0.939	0.922	1.657	2.834	2.046	0.068	0.125	-0.385	-0.699	0.923	667.969
0.229	0.597	-0.848	-0.890	-0.610	0.912	0.369	-1.227	-1.201	-0.700	-0.348	-1.123	-0.963	1.111	-0.130	0.087	-0.352	1.241	1.005	0.921	1.563	2.843	2.013	0.153	0.090	-0.314	-0.638	1.061	671.875
0.270	0.693	-0.812	-0.907	-0.722	0.752	0.255	-1.296	-1.231	-0.799	-0.375	-1.077	-1.043	1.081	-0.108	0.215	-0.259	1.249	1.095	0.981	1.503	2.863	1.974	0.236	0.040	-0.268	-0.599	1.136	675.781
0.326	0.811	-0.771	-0.908	-0.824	0.567	0.103	-1.378	-1.303	-0.943	-0.470	-1.060	-1.131	1.053	-0.041	0.365	-0.143	1.241	1.178	1.070	1.465	2.884	1.927	0.313	0.006	-0.223	-0.564	1.173	679.688
0.386	0.924	-0.732	-0.913	-0.915	0.374	-0.069	-1.453	-1.402	-1.106	-0.611	-1.057	-1.215	1.023	0.050	0.495	-0.039	1.209	1.224	1.152	1.435	2.893	1.874	0.382	0.012	-0.160	-0.522	1.200	683.594
0.445	1.004	-0.706	-0.938	-0.994	0.186	-0.240	-1.507	-1.515	-1.263	-0.772	-1.053	-1.284	0.988	0.147	0.571	0.024	1.155	1.213	1.199	1.404	2.881	1.821	0.440	0.072	-0.068	-0.461	1.241	687.500
0.494	1.031	-0.700	-0.996	-1.063	0.011	-0.390	-1.536	-1.626	-1.393	-0.930	-1.039	-1.327	0.950	0.234	0.573	0.030	1.089	1.136	1.190	1.365	2.841	1.778	0.489	0.190	0.055	-0.380	1.309	691.406
0.532	0.990	-0.718	-1.093	-1.121	-0.149	-0.502	-1.541	-1.726	-1.484	-1.065	-1.011	-1.338	0.917	0.299	0.494	-0.023	1.025	1.002	1.122	1.324	2.775	1.755	0.531	0.355	0.200	-0.281	1.407	695.312
0.554	0.877	-0.762	-1.225	-1.170	-0.297	-0.567	-1.531	-1.802	-1.530	-1.164	-0.968	-1.312	0.898	0.332	0.342	-0.125	0.981	0.832	1.003	1.286	2.689	1.757	0.569	0.547	0.355	-0.168	1.532	699.219
0.558	0.701	-0.829	-1.384	-1.211	-0.435	-0.580	-1.515	-1.843	-1.529	-1.213	-0.911	-1.249	0.899	0.330	0.136	-0.262	0.966	0.653	0.850	1.263	2.593	1.784	0.604	0.742	0.508	-0.051	1.674	703.125
0.542	0.477	-0.912	-1.555	-1.242	-0.565	-0.542	-1.501	-1.839	-1.484	-1.205	-0.840	-1.154	0.923	0.288	-0.101	-0.414	0.982	0.492	0.683	1.258	2.494	1.831	0.634	0.915	0.647	0.063	1.823	707.031
0.504	0.232	-1.002	-1.724	-1.266	-0.683	-0.462	-1.494	-1.782	-1.401	-1.136	-0.754	-1.032	0.965	0.206	-0.347	-0.568	1.021	0.367	0.517	1.271	2.397	1.885	0.655	1.046	0.770	0.171	1.975	710.938
0.445	-0.007	-1.089	-1.876	-1.286	-0.789	-0.350	-1.494	-1.669	-1.284	-1.004	-0.653	-0.889	1.013	0.090	-0.586	-0.713	1.069	0.289	0.360	1.287	2.302	1.934	0.663	1.124	0.876	0.269	2.128	714.844
0.369	-0.214	-1.162	-2.005	-1.307	-0.879	-0.221	-1.495	-1.505	-1.141	-0.811	-0.533	-0.735	1.051	-0.053	-0.809	-0.844	1.109	0.254	0.211	1.290	2.206	1.964	0.652	1.151	0.970	0.359	2.284	718.750
0.281	-0.370	-1.214	-2.108	-1.338	-0.955	-0.090	-1.494	-1.305	-0.979	-0.568	-0.394	-0.579	1.062	-0.206	-1.014	-0.961	1.131	0.254	0.063	1.257	2.102	1.967	0.620	1.133	1.058	0.446	2.445	722.656
0.189	-0.469	-1.244	-2.192	-1.388	-1.017	0.027	-1.486	-1.091	-0.807	-0.290	-0.236	-0.429	1.035	-0.354	-1.202	-1.063	1.129	0.273	-0.092	1.172	1.987	1.943	0.570	1.084	1.144	0.531	2.613	726.562
0.104	-0.515	-1.252	-2.265	-1.466	-1.064	0.117	-1.472	-0.890	-0.634	0.001	-0.065	-0.292	0.966	-0.477	-1.375	-1.150	1.108	0.298	-0.260	1.030	1.861	1.895	0.508	1.020	1.225	0.618	2.786	730.469
0.032	-0.519	-1.243	-2.340	-1.574	-1.091	0.173	-1.455	-0.727	-0.466	0.279	0.115	-0.173	0.863	-0.561	-1.534	-1.221	1.080	0.320	-0.437	0.838	1.730	1.833	0.444	0.951	1.295	0.707	2.953	734.375
-0.019	-0.501	-1.222	-2.423	-1.710	-1.091	0.194	-1.442	-0.619	-0.308	0.520	0.293	-0.074	0.744	-0.599	-1.675	-1.274	1.061	0.333	-0.614	0.617	1.604	1.766	0.392	0.886	1.345	0.795	3.103	738.281
-0.047	-0.480	-1.199	-2.518	-1.864	-1.059	0.187	-1.442	-0.573	-0.161	0.704	0.460	0.007	0.631	-0.588	-1.794	-1.306	1.063	0.336	-0.773	0.396	1.495	1.703	0.360	0.824	1.363	0.880	3.223	742.188
-0.054	-0.471	-1.180	-2.622	-2.020	-0.993	0.163	-1.461	-0.582	-0.023	0.820	0.611	0.077	0.548	-0.539	-1.883	-1.317	1.093	0.335	-0.896	0.207	1.412	1.648	0.357	0.765	1.340	0.957	3.304	746.094
-0.047	-0.484	-1.172	-2.725	-2.159	-0.898	0.140	-1.503	-0.631	0.106	0.871	0.742	0.142	0.514	-0.466	-1.936	-1.308	1.147	0.333	-0.968	0.080	1.363	1.604	0.384	0.706	1.278	1.026	3.345	750.000
-0.034	-0.522	-1.179	-2.816	-2.263	-0.788	0.132	-1.567	-0.697	0.231	0.866	0.854	0.207	0.538	-0.386	-1.952	-1.284	1.209	0.336	-0.980	0.033	1.348	1.566	0.437	0.645	1.185	1.089	3.351	753.906
-0.028	-0.583	-1.205	-2.885	-2.318	-0.682	0.153	-1.646	-0.757	0.352	0.825	0.950	0.276	0.619	-0.319	-1.928	-1.253	1.260	0.346	-0.931	0.074	1.362	1.527	0.510	0.582	1.078	1.150	3.339	757.812
-0.037	-0.658	-1.250	-2.922	-2.318	-0.602	0.207	-1.734	-0.792	0.469	0.770	1.037	0.350	0.745	-0.276	-1.870	-1.223	1.280	0.362	-0.832	0.195	1.394	1.481	0.592	0.522	0.979	1.214	3.327	761.719
-0.065	-0.738	-1.313	-2.925	-2.265	-0.564	0.294	-1.820	-0.791	0.577	0.720	1.119	0.425	0.897	-0.267	-1.784	-1.201	1.255	0.380	-0.701	0.378	1.431	1.419	0.673	0.471	0.908	1.286	3.338	765.625
-0.110	-0.810	-1.391	-2.898	-2.172	-0.577	0.404	-1.899	-0.750	0.673	0.691	1.202	0.495	1.049	-0.291	-1.683	-1.194	1.181	0.395	-0.560	0.592	1.459	1.335	0.748	0.434	0.884	1.368	3.385	769.531
-0.164	-0.868	-1.481	-2.852	-2.056	-0.644	0.523	-1.968	-0.677	0.752	0.693	1.287	0.552	1.179	-0.343	-1.577	-1.205	1.063	0.402	-0.433	0.807	1.464	1.228	0.814	0.419	0.921	1.458	3.477	773.438
-0.212	-0.907	-1.583	-2.803	-1.937	-0.759	0.637	-2.029	-0.583	0.812	0.730	1.376	0.589	1.265	-0.417	-1.477	-1.234	0.916	0.398	-0.342	0.991	1.438	1.097	0.872	0.429	1.025	1.554	3.615	777.344
-0.242	-0.928	-1.693	-2.766	-1.834	-0.911	0.734	-2.087	-0.484	0.852	0.801	1.470	0.600	1.298	-0.503	-1.392	-1.278	0.754	0.382	-0.303	1.121	1.375	0.945	0.930	0.469	1.194	1.655	3.792	781.250
-0.240	-0.934	-1.812	-2.754	-1.760	-1.087	0.806	-2.151	-0.395	0.875	0.900	1.568	0.583	1.273	-0.594	-1.326	-1.334	0.595	0.353	-0.321	1.189	1.274	0.777	0.991	0.536	1.423	1.757	3.997	785.156
-0.203	-0.931	-1.939	-2.773	-1.720	-1.277	0.853	-2.223	-0.322	0.883	1.020	1.671	0.541	1.197	-0.687	-1.280	-1.397	0.448	0.316	-0.392	1.195	1.141	0.599	1.062	0.629	1.698	1.859	4.221	789.062
-0.135	-0.925	-2.074	-2.819	-1.709	-1.471	0.879	-2.307	-0.268	0.884	1.153	1.778	0.480	1.086	-0.776	-1.250	-1.464	0.318	0.273	-0.503	1.153	0.983	0.414	1.143	0.740	2.004	1.962	4.453	792.969
-0.046	-0.918	-2.212	-2.885	-1.717	-1.662	0.893	-2.400	-0.229	0.882	1.289	1.888	0.410	0.958	-0.862	-1.228	-1.531	0.203	0.228	-0.636	1.086	0.814	0.227	1.233	0.860	2.321	2.064	4.687	796.875
