FP1	F3	F7	FC3	C3	C5	P3	P7	PO7	PO3	O1	Oz	Pz	CPz	FP2	Fz	F4	F8	FC4	FCz	Cz	C4	C6	P4	P8	PO8	PO4	O2	time
0.101	-0.771	-1.280	-0.464	-0.316	-0.425	-0.223	-0.609	0.038	0.061	0.139	0.163	0.230	0.274	0.041	0.203	-0.275	0.309	-0.143	0.467	0.540	-0.030	0.126	0.254	0.369	0.404	0.192	-0.034	-199.219
-0.220	-0.967	-1.183	-0.498	-0.125	-0.203	-0.072	-0.515	0.141	0.125	0.161	0.332	0.100	0.272	-0.238	-0.060	-0.464	0.146	-0.263	0.207	0.410	-0.066	-0.032	0.298	0.529	0.710	0.309	0.214	-195.312
-0.486	-1.133	-1.068	-0.528	0.029	-0.015	0.055	-0.426	0.227	0.171	0.171	0.475	-0.027	0.251	-0.476	-0.302	-0.629	0.004	-0.369	-0.034	0.284	-0.093	-0.174	0.333	0.670	0.985	0.410	0.437	-191.406
-0.656	-1.248	-0.927	-0.554	0.120	0.113	0.141	-0.346	0.281	0.185	0.159	0.569	-0.150	0.199	-0.641	-0.509	-0.754	-0.100	-0.449	-0.240	0.164	-0.104	-0.284	0.350	0.774	1.205	0.483	0.617	-187.500
-0.710	-1.303	-0.759	-0.577	0.130	0.164	0.177	-0.274	0.299	0.164	0.124	0.608	-0.264	0.113	-0.717	-0.672	-0.829	-0.157	-0.501	-0.405	0.051	-0.097	-0.354	0.348	0.836	1.354	0.522	0.744	-183.594
-0.650	-1.297	-0.574	-0.600	0.058	0.135	0.168	-0.203	0.285	0.112	0.071	0.594	-0.364	-0.003	-0.707	-0.788	-0.860	-0.169	-0.528	-0.529	-0.055	-0.075	-0.381	0.327	0.856	1.430	0.527	0.819	-179.688
-0.500	-1.242	-0.384	-0.626	-0.083	0.036	0.124	-0.126	0.251	0.042	0.012	0.540	-0.443	-0.138	-0.626	-0.863	-0.856	-0.148	-0.541	-0.616	-0.155	-0.049	-0.371	0.290	0.842	1.438	0.504	0.848	-175.781
-0.298	-1.154	-0.209	-0.654	-0.268	-0.111	0.064	-0.036	0.213	-0.029	-0.039	0.467	-0.495	-0.274	-0.502	-0.902	-0.834	-0.112	-0.550	-0.675	-0.248	-0.025	-0.332	0.245	0.802	1.389	0.461	0.845	-171.875
-0.086	-1.050	-0.063	-0.682	-0.463	-0.275	0.006	0.071	0.183	-0.086	-0.072	0.394	-0.517	-0.392	-0.363	-0.913	-0.809	-0.079	-0.565	-0.709	-0.332	-0.014	-0.278	0.194	0.749	1.297	0.407	0.821	-167.969
0.099	-0.945	0.044	-0.705	-0.631	-0.420	-0.035	0.191	0.171	-0.117	-0.079	0.334	-0.509	-0.478	-0.235	-0.902	-0.790	-0.064	-0.589	-0.721	-0.401	-0.020	-0.223	0.140	0.690	1.175	0.347	0.783	-164.062
0.231	-0.847	0.109	-0.716	-0.742	-0.517	-0.048	0.318	0.178	-0.118	-0.059	0.297	-0.474	-0.522	-0.136	-0.874	-0.784	-0.077	-0.620	-0.712	-0.451	-0.044	-0.179	0.081	0.627	1.033	0.283	0.737	-160.156
0.297	-0.759	0.139	-0.706	-0.775	-0.542	-0.032	0.443	0.204	-0.092	-0.016	0.281	-0.422	-0.522	-0.076	-0.833	-0.788	-0.117	-0.656	-0.679	-0.475	-0.085	-0.154	0.014	0.561	0.879	0.213	0.684	-156.250
0.303	-0.677	0.148	-0.667	-0.723	-0.484	0.010	0.556	0.240	-0.045	0.043	0.283	-0.364	-0.487	-0.051	-0.781	-0.800	-0.179	-0.691	-0.626	-0.472	-0.139	-0.154	-0.064	0.487	0.719	0.136	0.622	-152.344
0.266	-0.594	0.154	-0.595	-0.592	-0.348	0.068	0.650	0.280	0.011	0.108	0.291	-0.313	-0.431	-0.053	-0.721	-0.813	-0.251	-0.722	-0.554	-0.442	-0.201	-0.178	-0.156	0.403	0.553	0.049	0.549	-148.438
0.214	-0.497	0.175	-0.486	-0.401	-0.152	0.128	0.721	0.317	0.063	0.170	0.296	-0.281	-0.371	-0.066	-0.656	-0.821	-0.319	-0.749	-0.470	-0.388	-0.269	-0.221	-0.260	0.302	0.381	-0.049	0.464	-144.531
0.181	-0.376	0.225	-0.344	-0.177	0.076	0.176	0.766	0.346	0.100	0.221	0.290	-0.279	-0.322	-0.071	-0.588	-0.820	-0.373	-0.771	-0.383	-0.318	-0.340	-0.278	-0.374	0.184	0.203	-0.156	0.365	-140.625
0.193	-0.224	0.315	-0.179	0.047	0.305	0.198	0.784	0.365	0.114	0.256	0.266	-0.308	-0.298	-0.054	-0.517	-0.808	-0.407	-0.789	-0.301	-0.241	-0.411	-0.340	-0.490	0.052	0.021	-0.267	0.256	-136.719
0.270	-0.040	0.442	-0.003	0.244	0.502	0.184	0.778	0.370	0.100	0.271	0.223	-0.369	-0.300	-0.003	-0.443	-0.781	-0.422	-0.802	-0.227	-0.167	-0.479	-0.400	-0.599	-0.089	-0.161	-0.373	0.141	-132.812
0.415	0.168	0.597	0.169	0.391	0.641	0.131	0.749	0.362	0.058	0.264	0.162	-0.450	-0.324	0.085	-0.363	-0.738	-0.424	-0.805	-0.165	-0.103	-0.538	-0.450	-0.692	-0.229	-0.331	-0.464	0.027	-128.906
0.613	0.386	0.762	0.318	0.475	0.707	0.043	0.700	0.339	-0.007	0.234	0.089	-0.541	-0.361	0.203	-0.277	-0.678	-0.422	-0.790	-0.111	-0.053	-0.580	-0.485	-0.757	-0.357	-0.479	-0.530	-0.077	-125.000
0.835	0.592	0.913	0.434	0.494	0.697	-0.069	0.634	0.301	-0.087	0.184	0.010	-0.623	-0.396	0.337	-0.183	-0.597	-0.422	-0.749	-0.059	-0.016	-0.598	-0.501	-0.788	-0.467	-0.594	-0.565	-0.165	-121.094
1.043	0.762	1.025	0.507	0.456	0.621	-0.190	0.558	0.250	-0.172	0.115	-0.067	-0.684	-0.417	0.468	-0.084	-0.492	-0.425	-0.673	-0.004	0.010	-0.582	-0.495	-0.781	-0.552	-0.670	-0.567	-0.232	-117.188
1.201	0.876	1.077	0.535	0.378	0.498	-0.300	0.477	0.189	-0.251	0.028	-0.137	-0.712	-0.416	0.580	0.019	-0.363	-0.427	-0.558	0.059	0.031	-0.529	-0.466	-0.738	-0.612	-0.707	-0.541	-0.281	-113.281
1.278	0.923	1.056	0.525	0.280	0.353	-0.382	0.400	0.122	-0.317	-0.072	-0.195	-0.703	-0.389	0.658	0.121	-0.210	-0.415	-0.405	0.135	0.050	-0.438	-0.416	-0.664	-0.651	-0.712	-0.495	-0.316	-109.375
1.259	0.900	0.958	0.487	0.181	0.212	-0.422	0.331	0.054	-0.361	-0.180	-0.240	-0.660	-0.340	0.695	0.216	-0.038	-0.378	-0.222	0.222	0.074	-0.313	-0.347	-0.568	-0.673	-0.698	-0.440	-0.348	-105.469
1.144	0.815	0.791	0.435	0.099	0.098	-0.413	0.274	-0.010	-0.381	-0.291	-0.275	-0.589	-0.276	0.691	0.301	0.143	-0.306	-0.023	0.314	0.104	-0.165	-0.261	-0.460	-0.684	-0.678	-0.388	-0.386	-101.562
0.951	0.687	0.571	0.381	0.044	0.024	-0.353	0.231	-0.062	-0.376	-0.395	-0.302	-0.498	-0.206	0.650	0.371	0.321	-0.198	0.174	0.405	0.142	-0.010	-0.164	-0.350	-0.689	-0.664	-0.346	-0.439	-97.656
0.707	0.537	0.322	0.335	0.020	-0.005	-0.251	0.199	-0.099	-0.346	-0.484	-0.324	-0.393	-0.140	0.581	0.424	0.482	-0.064	0.353	0.486	0.184	0.138	-0.060	-0.246	-0.687	-0.662	-0.318	-0.507	-93.750
0.447	0.388	0.071	0.302	0.027	0.006	-0.121	0.176	-0.117	-0.295	-0.547	-0.344	-0.278	-0.082	0.495	0.460	0.612	0.077	0.497	0.550	0.228	0.264	0.045	-0.155	-0.677	-0.674	-0.304	-0.589	-89.844
0.203	0.262	-0.155	0.285	0.055	0.046	0.019	0.158	-0.113	-0.226	-0.574	-0.362	-0.153	-0.034	0.400	0.481	0.701	0.199	0.597	0.591	0.267	0.357	0.141	-0.078	-0.654	-0.694	-0.297	-0.677	-85.938
-0.001	0.175	-0.332	0.281	0.098	0.098	0.149	0.139	-0.088	-0.144	-0.562	-0.379	-0.016	0.007	0.306	0.489	0.743	0.279	0.648	0.608	0.297	0.411	0.221	-0.016	-0.616	-0.715	-0.293	-0.759	-82.031
-0.146	0.136	-0.443	0.289	0.146	0.147	0.253	0.114	-0.049	-0.057	-0.510	-0.394	0.133	0.046	0.219	0.489	0.738	0.298	0.651	0.603	0.314	0.425	0.276	0.032	-0.560	-0.727	-0.282	-0.823	-78.125
-0.228	0.146	-0.477	0.306	0.194	0.181	0.317	0.077	-0.002	0.028	-0.425	-0.405	0.291	0.090	0.145	0.483	0.692	0.252	0.616	0.579	0.315	0.404	0.298	0.070	-0.489	-0.724	-0.259	-0.860	-74.219
-0.251	0.203	-0.436	0.331	0.237	0.194	0.339	0.023	0.039	0.103	-0.318	-0.412	0.452	0.144	0.088	0.476	0.617	0.147	0.551	0.543	0.302	0.356	0.286	0.102	-0.411	-0.703	-0.219	-0.862	-70.312
-0.225	0.295	-0.328	0.364	0.275	0.186	0.318	-0.054	0.061	0.162	-0.203	-0.411	0.607	0.213	0.051	0.469	0.527	0.005	0.474	0.501	0.278	0.292	0.244	0.134	-0.334	-0.666	-0.161	-0.829	-66.406
-0.166	0.411	-0.172	0.405	0.308	0.158	0.264	-0.156	0.050	0.199	-0.098	-0.401	0.746	0.298	0.032	0.467	0.441	-0.144	0.399	0.462	0.249	0.225	0.182	0.169	-0.270	-0.619	-0.086	-0.766	-62.500
-0.092	0.537	0.010	0.453	0.333	0.116	0.186	-0.284	-0.005	0.211	-0.015	-0.385	0.857	0.394	0.029	0.472	0.379	-0.268	0.343	0.432	0.224	0.168	0.117	0.210	-0.227	-0.568	0.002	-0.679	-58.594
-0.020	0.660	0.193	0.506	0.350	0.060	0.094	-0.435	-0.109	0.195	0.034	-0.365	0.935	0.496	0.040	0.491	0.356	-0.337	0.321	0.418	0.211	0.131	0.065	0.257	-0.210	-0.521	0.093	-0.579	-54.688
0.038	0.771	0.354	0.558	0.354	-0.006	-0.004	-0.598	-0.257	0.152	0.044	-0.346	0.973	0.592	0.062	0.524	0.384	-0.333	0.341	0.422	0.214	0.121	0.044	0.307	-0.216	-0.484	0.178	-0.478	-50.781
0.069	0.859	0.474	0.603	0.341	-0.081	-0.098	-0.757	-0.437	0.087	0.018	-0.332	0.969	0.671	0.089	0.574	0.467	-0.249	0.408	0.441	0.235	0.139	0.065	0.354	-0.241	-0.460	0.245	-0.386	-46.875
0.069	0.918	0.537	0.630	0.307	-0.162	-0.184	-0.894	-0.627	0.008	-0.035	-0.325	0.927	0.720	0.119	0.637	0.598	-0.092	0.515	0.470	0.267	0.182	0.130	0.390	-0.274	-0.448	0.285	-0.310	-42.969
0.031	0.941	0.532	0.628	0.252	-0.243	-0.254	-0.990	-0.799	-0.074	-0.099	-0.325	0.852	0.731	0.144	0.703	0.761	0.115	0.651	0.496	0.300	0.243	0.232	0.410	-0.301	-0.445	0.293	-0.250	-39.062
-0.046	0.920	0.456	0.588	0.177	-0.316	-0.302	-1.027	-0.923	-0.142	-0.152	-0.327	0.753	0.699	0.158	0.759	0.930	0.345	0.796	0.504	0.319	0.310	0.358	0.411	-0.309	-0.441	0.270	-0.202	-35.156
-0.162	0.851	0.312	0.503	0.085	-0.374	-0.322	-0.998	-0.976	-0.183	-0.175	-0.321	0.643	0.626	0.153	0.789	1.076	0.564	0.927	0.479	0.311	0.370	0.490	0.392	-0.287	-0.427	0.222	-0.160	-31.250
-0.313	0.730	0.114	0.370	-0.018	-0.409	-0.308	-0.904	-0.944	-0.185	-0.151	-0.300	0.533	0.518	0.121	0.776	1.173	0.744	1.021	0.407	0.261	0.413	0.611	0.359	-0.227	-0.390	0.163	-0.112	-27.344
-0.492	0.561	-0.114	0.198	-0.125	-0.417	-0.261	-0.755	-0.825	-0.141	-0.071	-0.255	0.434	0.388	0.059	0.710	1.200	0.868	1.060	0.278	0.163	0.428	0.706	0.318	-0.128	-0.325	0.105	-0.051	-23.438
-0.685	0.353	-0.341	-0.000	-0.230	-0.394	-0.181	-0.568	-0.634	-0.054	0.065	-0.180	0.349	0.246	-0.034	0.585	1.147	0.929	1.034	0.094	0.014	0.409	0.764	0.274	0.005	-0.227	0.061	0.029	-19.531
-0.879	0.124	-0.536	-0.202	-0.326	-0.342	-0.077	-0.367	-0.394	0.068	0.244	-0.078	0.280	0.105	-0.151	0.404	1.021	0.935	0.941	-0.139	-0.179	0.354	0.782	0.231	0.160	-0.101	0.039	0.129	-15.625
-1.056	-0.102	-0.671	-0.385	-0.408	-0.264	0.040	-0.173	-0.136	0.206	0.448	0.046	0.221	-0.028	-0.281	0.182	0.838	0.904	0.794	-0.403	-0.403	0.265	0.763	0.191	0.322	0.044	0.042	0.247	-11.719
-1.201	-0.302	-0.729	-0.527	-0.471	-0.166	0.157	-0.009	0.105	0.343	0.648	0.182	0.166	-0.147	-0.413	-0.062	0.624	0.859	0.609	-0.675	-0.642	0.149	0.711	0.153	0.473	0.198	0.067	0.375	-7.812
-1.301	-0.454	-0.705	-0.614	-0.513	-0.057	0.263	0.111	0.302	0.459	0.821	0.316	0.111	-0.249	-0.530	-0.303	0.410	0.822	0.412	-0.933	-0.877	0.016	0.636	0.115	0.597	0.347	0.107	0.506	-3.906
-1.350	-0.546	-0.605	-0.643	-0.532	0.055	0.346	0.179	0.433	0.539	0.942	0.435	0.055	-0.335	-0.623	-0.517	0.223	0.807	0.225	-1.154	-1.092	-0.121	0.546	0.075	0.683	0.481	0.153	0.632	0.000
-1.347	-0.572	-0.445	-0.618	-0.531	0.160	0.401	0.195	0.489	0.575	0.998	0.528	0.001	-0.405	-0.682	-0.686	0.079	0.820	0.069	-1.323	-1.271	-0.250	0.449	0.034	0.727	0.593	0.197	0.745	3.906
-1.297	-0.542	-0.246	-0.554	-0.509	0.250	0.426	0.163	0.471	0.566	0.986	0.590	-0.044	-0.460	-0.707	-0.799	-0.013	0.857	-0.047	-1.432	-1.404	-0.362	0.349	-0.007	0.731	0.678	0.232	0.840	7.812
-1.209	-0.468	-0.031	-0.471	-0.471	0.320	0.425	0.096	0.392	0.520	0.917	0.619	-0.071	-0.498	-0.701	-0.856	-0.059	0.908	-0.124	-1.482	-1.483	-0.452	0.249	-0.045	0.707	0.732	0.252	0.913	11.719
-1.097	-0.371	0.179	-0.387	-0.418	0.367	0.407	0.007	0.273	0.453	0.812	0.622	-0.073	-0.517	-0.670	-0.863	-0.075	0.957	-0.169	-1.480	-1.508	-0.519	0.151	-0.075	0.665	0.753	0.258	0.960	15.625
-0.978	-0.268	0.366	-0.317	-0.350	0.393	0.385	-0.088	0.140	0.385	0.701	0.611	-0.046	-0.512	-0.626	-0.835	-0.082	0.986	-0.200	-1.440	-1.481	-0.569	0.054	-0.096	0.620	0.739	0.249	0.980	19.531
-0.869	-0.174	0.516	-0.267	-0.268	0.402	0.375	-0.172	0.022	0.339	0.615	0.600	0.007	-0.480	-0.583	-0.790	-0.100	0.982	-0.234	-1.378	-1.410	-0.607	-0.041	-0.107	0.578	0.687	0.229	0.972	23.438
-0.785	-0.095	0.623	-0.236	-0.171	0.401	0.394	-0.231	-0.053	0.333	0.583	0.600	0.081	-0.417	-0.553	-0.745	-0.145	0.934	-0.282	-1.309	-1.308	-0.641	-0.134	-0.109	0.542	0.598	0.205	0.937	27.344
-0.740	-0.034	0.681	-0.214	-0.061	0.399	0.453	-0.252	-0.061	0.384	0.625	0.621	0.167	-0.326	-0.549	-0.714	-0.222	0.839	-0.351	-1.245	-1.187	-0.677	-0.223	-0.104	0.507	0.474	0.184	0.875	31.250
-0.747	0.011	0.689	-0.191	0.056	0.402	0.561	-0.227	0.016	0.501	0.750	0.662	0.257	-0.212	-0.584	-0.705	-0.328	0.704	-0.439	-1.195	-1.064	-0.717	-0.306	-0.092	0.466	0.328	0.175	0.793	35.156
-0.822	0.039	0.648	-0.159	0.172	0.414	0.719	-0.151	0.193	0.683	0.956	0.720	0.349	-0.088	-0.670	-0.723	-0.454	0.538	-0.536	-1.165	-0.953	-0.763	-0.381	-0.074	0.415	0.179	0.192	0.703	39.062
-0.983	0.044	0.554	-0.120	0.271	0.435	0.921	-0.020	0.480	0.929	1.236	0.788	0.442	0.029	-0.821	-0.773	-0.589	0.352	-0.631	-1.162	-0.870	-0.814	-0.447	-0.044	0.357	0.062	0.253	0.630	42.969
-1.248	0.011	0.401	-0.087	0.335	0.461	1.156	0.167	0.883	1.232	1.579	0.866	0.535	0.121	-1.055	-0.861	-0.726	0.154	-0.717	-1.192	-0.830	-0.871	-0.508	0.009	0.312	0.028	0.380	0.608	46.875
-1.636	-0.083	0.180	-0.083	0.344	0.482	1.409	0.408	1.406	1.584	1.977	0.956	0.631	0.169	-1.390	-1.000	-0.869	-0.054	-0.795	-1.266	-0.845	-0.935	-0.567	0.100	0.311	0.135	0.597	0.687	50.781
-2.162	-0.263	-0.115	-0.137	0.283	0.484	1.667	0.695	2.047	1.975	2.423	1.072	0.729	0.159	-1.845	-1.207	-1.032	-0.278	-0.877	-1.401	-0.927	-1.010	-0.632	0.244	0.398	0.447	0.926	0.922	54.688
-2.829	-0.552	-0.491	-0.281	0.138	0.450	1.911	1.019	2.795	2.399	2.916	1.236	0.828	0.084	-2.428	-1.503	-1.241	-0.531	-0.984	-1.610	-1.084	-1.100	-0.712	0.456	0.614	1.020	1.382	1.367	58.594
-3.627	-0.964	-0.944	-0.537	-0.092	0.365	2.128	1.361	3.626	2.844	3.454	1.474	0.923	-0.054	-3.139	-1.904	-1.519	-0.828	-1.138	-1.906	-1.315	-1.209	-0.815	0.742	0.996	1.891	1.967	2.063	62.500
-4.529	-1.497	-1.460	-0.913	-0.401	0.213	2.304	1.700	4.504	3.299	4.034	1.808	1.007	-0.248	-3.963	-2.414	-1.887	-1.180	-1.360	-2.293	-1.614	-1.339	-0.949	1.099	1.556	3.064	2.667	3.027	66.406
-5.491	-2.131	-2.015	-1.400	-0.774	-0.010	2.429	2.013	5.383	3.748	4.648	2.252	1.075	-0.483	-4.866	-3.023	-2.350	-1.592	-1.656	-2.762	-1.967	-1.487	-1.116	1.509	2.283	4.504	3.449	4.239	70.312
-6.453	-2.826	-2.572	-1.969	-1.186	-0.301	2.496	2.275	6.206	4.173	5.278	2.803	1.123	-0.741	-5.796	-3.700	-2.893	-2.052	-2.016	-3.289	-2.352	-1.647	-1.313	1.946	3.132	6.130	4.265	5.642	74.219
-7.347	-3.525	-3.089	-2.572	-1.604	-0.643	2.503	2.466	6.917	4.554	5.895	3.434	1.152	-0.999	-6.687	-4.392	-3.476	-2.535	-2.413	-3.834	-2.739	-1.809	-1.529	2.373	4.033	7.819	5.052	7.132	78.125
-8.101	-4.162	-3.521	-3.149	-1.992	-1.004	2.457	2.571	7.461	4.868	6.461	4.098	1.169	-1.234	-7.466	-5.034	-4.043	-3.002	-2.803	-4.344	-3.094	-1.955	-1.747	2.752	4.890	9.410	5.745	8.575	82.031
-8.646	-4.669	-3.826	-3.638	-2.309	-1.345	2.371	2.582	7.797	5.099	6.933	4.726	1.185	-1.417	-8.056	-5.553	-4.523	-3.404	-3.133	-4.762	-3.377	-2.066	-1.941	3.049	5.599	10.722	6.284	9.813	85.938
-8.929	-4.986	-3.970	-3.977	-2.518	-1.619	2.268	2.500	7.897	5.238	7.266	5.247	1.223	-1.517	-8.392	-5.884	-4.848	-3.694	-3.350	-5.030	-3.550	-2.121	-2.087	3.242	6.055	11.574	6.618	10.690	89.844
-8.916	-5.075	-3.935	-4.122	-2.582	-1.782	2.179	2.332	7.758	5.285	7.431	5.597	1.308	-1.505	-8.432	-5.976	-4.964	-3.831	-3.412	-5.104	-3.579	-2.098	-2.159	3.319	6.168	11.806	6.722	11.076	93.750
-8.599	-4.921	-3.716	-4.047	-2.479	-1.803	2.137	2.094	7.399	5.257	7.416	5.736	1.467	-1.354	-8.159	-5.806	-4.841	-3.791	-3.296	-4.959	-3.441	-1.984	-2.142	3.287	5.873	11.308	6.591	10.885	97.656
-8.001	-4.538	-3.329	-3.750	-2.198	-1.662	2.177	1.804	6.859	5.184	7.236	5.655	1.723	-1.049	-7.592	-5.382	-4.481	-3.570	-3.001	-4.595	-3.125	-1.774	-2.032	3.163	5.139	10.035	6.246	10.100	101.562
-7.167	-3.965	-2.802	-3.257	-1.752	-1.366	2.326	1.488	6.193	5.103	6.931	5.388	2.090	-0.588	-6.780	-4.743	-3.914	-3.187	-2.552	-4.038	-2.641	-1.476	-1.840	2.972	3.978	8.026	5.731	8.770	105.469
-6.170	-3.263	-2.178	-2.617	-1.168	-0.937	2.597	1.169	5.467	5.056	6.562	4.997	2.567	0.014	-5.799	-3.954	-3.200	-2.684	-1.996	-3.337	-2.019	-1.111	-1.591	2.744	2.445	5.403	5.105	7.016	109.375
-5.098	-2.506	-1.510	-1.896	-0.495	-0.422	2.988	0.868	4.748	5.082	6.202	4.571	3.137	0.723	-4.746	-3.095	-2.415	-2.118	-1.393	-2.559	-1.304	-0.714	-1.321	2.508	0.637	2.372	4.437	5.014	113.281
-4.052	-1.770	-0.858	-1.169	0.203	0.121	3.479	0.602	4.102	5.208	5.928	4.208	3.772	1.489	-3.728	-2.257	-1.643	-1.555	-0.809	-1.779	-0.558	-0.326	-1.069	2.293	-1.307	-0.800	3.803	2.979	117.188
-3.135	-1.130	-0.286	-0.514	0.856	0.627	4.034	0.385	3.588	5.451	5.808	4.001	4.430	2.248	-2.851	-1.524	-0.966	-1.063	-0.307	-1.072	0.149	0.012	-0.877	2.122	-3.225	-3.812	3.272	1.133	121.094
-2.443	-0.649	0.148	0.004	1.395	1.030	4.606	0.224	3.251	5.813	5.894	4.023	5.063	2.937	-2.209	-0.969	-0.453	-0.703	0.061	-0.507	0.747	0.257	-0.774	2.013	-4.942	-6.362	2.908	-0.319	125.000
-2.053	-0.371	0.391	0.333	1.761	1.279	5.141	0.120	3.122	6.278	6.211	4.315	5.626	3.491	-1.876	-0.644	-0.154	-0.520	0.256	-0.135	1.174	0.380	-0.779	1.979	-6.296	-8.188	2.759	-1.210	128.906
-2.019	-0.323	0.408	0.442	1.915	1.336	5.593	0.067	3.211	6.820	6.758	4.885	6.077	3.864	-1.895	-0.578	-0.098	-0.543	0.261	0.012	1.385	0.364	-0.893	2.027	-7.151	-9.094	2.857	-1.435	132.812
-2.361	-0.512	0.179	0.321	1.839	1.187	5.924	0.055	3.509	7.407	7.507	5.709	6.389	4.026	-2.282	-0.773	-0.290	-0.780	0.077	-0.078	1.356	0.208	-1.107	2.160	-7.419	-8.973	3.213	-0.953	136.719
-3.070	-0.929	-0.296	-0.018	1.540	0.837	6.112	0.069	3.991	8.001	8.409	6.735	6.550	3.970	-3.020	-1.210	-0.715	-1.219	-0.279	-0.391	1.089	-0.075	-1.398	2.378	-7.065	-7.812	3.821	0.212	140.625
-4.104	-1.548	-0.997	-0.549	1.046	0.311	6.156	0.093	4.618	8.570	9.402	7.895	6.564	3.713	-4.066	-1.849	-1.342	-1.835	-0.776	-0.897	0.608	-0.460	-1.738	2.678	-6.109	-5.692	4.653	1.975	144.531
-5.395	-2.335	-1.886	-1.232	0.402	-0.350	6.066	0.113	5.340	9.085	10.419	9.114	6.448	3.288	-5.353	-2.640	-2.121	-2.588	-1.376	-1.550	-0.041	-0.913	-2.098	3.049	-4.630	-2.775	5.663	4.206	148.438
-6.853	-3.242	-2.910	-2.020	-0.337	-1.095	5.869	0.117	6.108	9.523	11.392	10.316	6.223	2.742	-6.799	-3.524	-2.999	-3.431	-2.031	-2.295	-0.799	-1.397	-2.452	3.478	-2.745	0.716	6.791	6.744	152.344
-8.379	-4.218	-4.002	-2.860	-1.112	-1.871	5.593	0.101	6.872	9.867	12.263	11.433	5.913	2.121	-8.313	-4.440	-3.913	-4.311	-2.698	-3.075	-1.603	-1.879	-2.778	3.941	-0.603	4.528	7.965	9.412	156.250
-9.874	-5.209	-5.093	-3.704	-1.871	-2.624	5.269	0.067	7.593	10.109	12.987	12.408	5.539	1.471	-9.804	-5.333	-4.807	-5.176	-3.336	-3.837	-2.388	-2.329	-3.064	4.411	1.641	8.404	9.112	12.042	160.156
-11.251	-6.160	-6.115	-4.503	-2.568	-3.307	4.924	0.025	8.243	10.242	13.537	13.198	5.112	0.826	-11.190	-6.157	-5.629	-5.975	-3.911	-4.541	-3.104	-2.727	-3.303	4.854	3.837	12.111	10.161	14.486	164.062
-12.441	-7.022	-7.011	-5.220	-3.170	-3.881	4.579	-0.010	8.805	10.269	13.900	13.778	4.637	0.207	-12.405	-6.879	-6.342	-6.663	-4.402	-5.158	-3.714	-3.062	-3.494	5.238	5.862	15.462	11.052	16.627	167.969
-13.397	-7.754	-7.738	-5.824	-3.657	-4.321	4.244	-0.017	9.277	10.191	14.081	14.136	4.113	-0.373	-13.400	-7.477	-6.921	-7.204	-4.795	-5.674	-4.204	-3.331	-3.637	5.531	7.624	18.325	11.738	18.388	171.875
-14.101	-8.328	-8.270	-6.294	-4.023	-4.609	3.926	0.021	9.660	10.017	14.094	14.273	3.538	-0.914	-14.149	-7.943	-7.354	-7.572	-5.085	-6.090	-4.573	-3.537	-3.736	5.711	9.071	20.626	12.191	19.728	175.781
-14.553	-8.727	-8.604	-6.619	-4.270	-4.744	3.623	0.118	9.961	9.755	13.958	14.203	2.915	-1.417	-14.644	-8.277	-7.641	-7.756	-5.274	-6.410	-4.837	-3.687	-3.792	5.765	10.186	22.346	12.402	20.642	179.688
-14.777	-8.951	-8.750	-6.800	-4.409	-4.735	3.334	0.279	10.184	9.417	13.699	13.949	2.255	-1.883	-14.897	-8.487	-7.789	-7.761	-5.368	-6.647	-5.017	-3.786	-3.808	5.695	10.982	23.508	12.377	21.151	183.594
-14.809	-9.012	-8.733	-6.847	-4.455	-4.599	3.057	0.498	10.331	9.018	13.344	13.539	1.578	-2.310	-14.936	-8.584	-7.813	-7.604	-5.373	-6.810	-5.136	-3.842	-3.787	5.514	11.495	24.167	12.141	21.299	187.500
-14.694	-8.934	-8.589	-6.780	-4.423	-4.363	2.793	0.758	10.400	8.578	12.920	13.008	0.915	-2.689	-14.796	-8.583	-7.729	-7.314	-5.300	-6.910	-5.210	-3.857	-3.732	5.249	11.772	24.393	11.733	21.141	191.406
-14.476	-8.748	-8.356	-6.625	-4.327	-4.057	2.546	1.032	10.386	8.119	12.453	12.396	0.302	-3.009	-14.522	-8.500	-7.553	-6.930	-5.159	-6.954	-5.249	-3.837	-3.650	4.933	11.863	24.266	11.200	20.742	195.312
-14.195	-8.487	-8.069	-6.409	-4.181	-3.710	2.326	1.292	10.288	7.663	11.968	11.740	-0.226	-3.254	-14.154	-8.350	-7.306	-6.495	-4.963	-6.946	-5.253	-3.782	-3.549	4.602	11.813	23.861	10.591	20.167	199.219
-13.879	-8.182	-7.761	-6.158	-3.994	-3.347	2.142	1.506	10.104	7.231	11.483	11.078	-0.639	-3.410	-13.731	-8.150	-7.006	-6.053	-4.728	-6.894	-5.217	-3.697	-3.437	4.290	11.661	23.248	9.958	19.473	203.125
-13.546	-7.860	-7.453	-5.895	-3.775	-2.989	2.004	1.653	9.838	6.842	11.012	10.440	-0.920	-3.468	-13.280	-7.918	-6.674	-5.642	-4.473	-6.804	-5.135	-3.586	-3.323	4.022	11.434	22.485	9.345	18.712	207.031
-13.202	-7.543	-7.163	-5.636	-3.530	-2.646	1.921	1.719	9.499	6.504	10.564	9.851	-1.064	-3.428	-12.821	-7.671	-6.332	-5.290	-4.213	-6.687	-5.002	-3.454	-3.214	3.815	11.151	21.618	8.783	17.922	210.938
-12.848	-7.244	-6.898	-5.392	-3.267	-2.324	1.895	1.703	9.101	6.223	10.137	9.325	-1.079	-3.295	-12.366	-7.428	-6.001	-5.013	-3.967	-6.555	-4.820	-3.309	-3.114	3.675	10.825	20.686	8.297	17.133	214.844
-12.480	-6.970	-6.660	-5.165	-2.990	-2.021	1.922	1.615	8.661	5.995	9.729	8.867	-0.984	-3.084	-11.922	-7.205	-5.699	-4.813	-3.747	-6.422	-4.596	-3.155	-3.026	3.596	10.467	19.722	7.895	16.364	218.750
-12.094	-6.723	-6.445	-4.953	-2.705	-1.734	1.993	1.472	8.198	5.810	9.331	8.473	-0.804	-2.813	-11.493	-7.012	-5.443	-4.680	-3.560	-6.297	-4.343	-3.001	-2.949	3.567	10.087	18.756	7.573	15.628	222.656
-11.689	-6.497	-6.245	-4.749	-2.417	-1.458	2.094	1.296	7.730	5.654	8.934	8.130	-0.571	-2.501	-11.083	-6.855	-5.239	-4.592	-3.410	-6.187	-4.075	-2.854	-2.883	3.567	9.695	17.814	7.319	14.930	226.562
-11.267	-6.287	-6.046	-4.546	-2.130	-1.190	2.209	1.107	7.272	5.509	8.529	7.818	-0.314	-2.170	-10.694	-6.733	-5.087	-4.523	-3.292	-6.094	-3.808	-2.718	-2.824	3.577	9.304	16.923	7.112	14.273	230.469
-10.833	-6.083	-5.837	-4.339	-1.849	-0.932	2.320	0.925	6.836	5.358	8.109	7.517	-0.061	-1.837	-10.330	-6.639	-4.979	-4.444	-3.200	-6.015	-3.551	-2.599	-2.771	3.575	8.931	16.105	6.930	13.658	234.375
-10.395	-5.878	-5.604	-4.124	-1.580	-0.688	2.413	0.763	6.428	5.189	7.673	7.206	0.166	-1.519	-9.995	-6.561	-4.900	-4.332	-3.124	-5.941	-3.311	-2.498	-2.723	3.547	8.587	15.376	6.751	13.080	238.281
-9.963	-5.667	-5.339	-3.905	-1.331	-0.462	2.477	0.631	6.052	4.993	7.222	6.867	0.349	-1.229	-9.691	-6.487	-4.835	-4.170	-3.056	-5.867	-3.094	-2.416	-2.677	3.483	8.287	14.747	6.559	12.534	242.188
-9.546	-5.452	-5.041	-3.689	-1.111	-0.263	2.510	0.533	5.711	4.770	6.765	6.494	0.481	-0.978	-9.417	-6.410	-4.769	-3.950	-2.991	-5.787	-2.900	-2.352	-2.632	3.382	8.039	14.219	6.345	12.013	246.094
-9.155	-5.236	-4.713	-3.487	-0.930	-0.095	2.511	0.468	5.405	4.525	6.315	6.084	0.559	-0.774	-9.172	-6.323	-4.690	-3.677	-2.923	-5.701	-2.729	-2.304	-2.583	3.252	7.850	13.785	6.110	11.511	250.000
-8.799	-5.027	-4.364	-3.308	-0.796	0.038	2.487	0.436	5.135	4.268	5.885	5.648	0.591	-0.623	-8.950	-6.228	-4.593	-3.367	-2.854	-5.610	-2.581	-2.265	-2.523	3.104	7.717	13.430	5.860	11.021	253.906
-8.484	-4.833	-4.006	-3.161	-0.712	0.140	2.446	0.431	4.899	4.010	5.486	5.196	0.589	-0.523	-8.746	-6.125	-4.478	-3.038	-2.782	-5.516	-2.455	-2.229	-2.443	2.952	7.636	13.134	5.606	10.539	257.812
-8.213	-4.662	-3.656	-3.049	-0.677	0.213	2.396	0.449	4.693	3.765	5.124	4.747	0.570	-0.467	-8.552	-6.020	-4.348	-2.716	-2.709	-5.422	-2.348	-2.189	-2.335	2.815	7.594	12.871	5.363	10.062	261.719
-7.988	-4.517	-3.325	-2.971	-0.683	0.266	2.344	0.483	4.514	3.542	4.803	4.314	0.552	-0.444	-8.360	-5.915	-4.209	-2.420	-2.634	-5.326	-2.254	-2.134	-2.196	2.705	7.576	12.616	5.146	9.589	265.625
-7.802	-4.401	-3.027	-2.922	-0.719	0.306	2.295	0.526	4.355	3.347	4.521	3.910	0.551	-0.438	-8.166	-5.812	-4.068	-2.169	-2.552	-5.223	-2.169	-2.057	-2.027	2.635	7.566	12.348	4.966	9.121	269.531
-7.648	-4.311	-2.766	-2.892	-0.767	0.339	2.252	0.570	4.209	3.184	4.275	3.546	0.580	-0.432	-7.966	-5.711	-3.931	-1.973	-2.458	-5.106	-2.084	-1.952	-1.836	2.609	7.548	12.048	4.831	8.661	273.438
-7.516	-4.238	-2.546	-2.869	-0.812	0.372	2.215	0.610	4.067	3.052	4.058	3.224	0.645	-0.412	-7.756	-5.608	-3.796	-1.836	-2.347	-4.965	-1.989	-1.815	-1.638	2.626	7.506	11.705	4.745	8.210	277.344
-7.390	-4.170	-2.361	-2.838	-0.838	0.405	2.182	0.638	3.920	2.946	3.864	2.946	0.745	-0.367	-7.536	-5.497	-3.664	-1.756	-2.214	-4.791	-1.878	-1.650	-1.448	2.680	7.428	11.312	4.700	7.772	281.250
-7.255	-4.092	-2.201	-2.785	-0.834	0.443	2.150	0.648	3.760	2.857	3.684	2.708	0.869	-0.295	-7.304	-5.371	-3.526	-1.724	-2.056	-4.578	-1.744	-1.463	-1.282	2.756	7.306	10.866	4.683	7.348	285.156
-7.100	-3.986	-2.055	-2.695	-0.793	0.485	2.115	0.639	3.580	2.776	3.510	2.500	1.002	-0.199	-7.059	-5.221	-3.375	-1.726	-1.874	-4.326	-1.585	-1.267	-1.149	2.835	7.134	10.372	4.676	6.940	289.062
-6.913	-3.838	-1.909	-2.557	-0.714	0.534	2.069	0.608	3.377	2.689	3.334	2.314	1.122	-0.087	-6.800	-5.039	-3.202	-1.745	-1.672	-4.036	-1.402	-1.075	-1.050	2.898	6.912	9.836	4.654	6.549	292.969
-6.692	-3.635	-1.749	-2.365	-0.603	0.590	2.008	0.558	3.152	2.588	3.149	2.138	1.209	0.029	-6.529	-4.820	-3.001	-1.765	-1.457	-3.717	-1.202	-0.900	-0.980	2.926	6.643	9.269	4.594	6.173	296.875
-6.435	-3.372	-1.566	-2.117	-0.465	0.654	1.928	0.493	2.911	2.462	2.951	1.962	1.248	0.138	-6.249	-4.559	-2.769	-1.770	-1.236	-3.376	-0.992	-0.750	-0.925	2.905	6.335	8.684	4.476	5.811	300.781
-6.148	-3.053	-1.355	-1.821	-0.310	0.729	1.829	0.418	2.660	2.310	2.740	1.778	1.229	0.231	-5.965	-4.261	-2.512	-1.751	-1.016	-3.023	-0.782	-0.631	-0.870	2.828	6.001	8.097	4.289	5.465	304.688
-5.841	-2.689	-1.113	-1.488	-0.147	0.813	1.714	0.338	2.411	2.133	2.518	1.587	1.155	0.305	-5.691	-3.933	-2.242	-1.707	-0.805	-2.666	-0.581	-0.540	-0.800	2.699	5.657	7.529	4.034	5.138	308.594
-5.530	-2.298	-0.847	-1.138	0.017	0.906	1.591	0.257	2.170	1.940	2.293	1.391	1.038	0.361	-5.437	-3.591	-1.976	-1.643	-0.605	-2.313	-0.392	-0.469	-0.706	2.530	5.324	6.999	3.723	4.833	312.500
-5.233	-1.904	-0.566	-0.792	0.177	1.008	1.469	0.180	1.947	1.744	2.075	1.201	0.898	0.406	-5.220	-3.252	-1.734	-1.569	-0.421	-1.973	-0.217	-0.406	-0.582	2.341	5.022	6.524	3.379	4.559	316.406
-4.965	-1.532	-0.287	-0.472	0.329	1.115	1.360	0.110	1.746	1.560	1.876	1.027	0.758	0.449	-5.050	-2.938	-1.531	-1.500	-0.252	-1.652	-0.054	-0.339	-0.430	2.154	4.770	6.117	3.031	4.321	320.312
-4.741	-1.205	-0.023	-0.199	0.470	1.221	1.273	0.049	1.572	1.402	1.706	0.880	0.641	0.502	-4.934	-2.666	-1.378	-1.447	-0.095	-1.360	0.101	-0.256	-0.257	1.993	4.579	5.783	2.707	4.120	324.219
-4.568	-0.940	0.209	0.015	0.598	1.320	1.210	0.003	1.429	1.279	1.574	0.768	0.562	0.571	-4.871	-2.449	-1.280	-1.421	0.051	-1.105	0.252	-0.150	-0.070	1.876	4.453	5.515	2.431	3.954	328.125
-4.446	-0.747	0.402	0.160	0.709	1.406	1.173	-0.025	1.320	1.196	1.483	0.692	0.529	0.660	-4.853	-2.294	-1.230	-1.424	0.188	-0.894	0.397	-0.020	0.124	1.814	4.387	5.301	2.219	3.812	332.031
-4.371	-0.628	0.552	0.237	0.798	1.473	1.158	-0.029	1.246	1.153	1.432	0.650	0.540	0.766	-4.864	-2.203	-1.219	-1.453	0.319	-0.733	0.535	0.132	0.319	1.806	4.369	5.120	2.073	3.679	335.938
-4.332	-0.581	0.660	0.249	0.864	1.521	1.158	-0.006	1.208	1.145	1.418	0.632	0.589	0.883	-4.888	-2.171	-1.233	-1.497	0.440	-0.629	0.662	0.297	0.515	1.846	4.383	4.951	1.987	3.536	339.844
-4.319	-0.599	0.732	0.204	0.905	1.556	1.169	0.053	1.208	1.163	1.431	0.624	0.664	0.999	-4.910	-2.190	-1.259	-1.545	0.547	-0.580	0.769	0.465	0.709	1.922	4.413	4.774	1.945	3.368	343.750
-4.324	-0.674	0.778	0.110	0.921	1.588	1.187	0.150	1.242	1.197	1.459	0.612	0.752	1.103	-4.916	-2.252	-1.289	-1.579	0.637	-0.587	0.850	0.626	0.905	2.017	4.448	4.578	1.929	3.163	347.656
-4.342	-0.800	0.803	-0.028	0.918	1.630	1.213	0.288	1.308	1.236	1.487	0.585	0.843	1.184	-4.905	-2.347	-1.316	-1.589	0.702	-0.644	0.900	0.769	1.101	2.118	4.479	4.361	1.921	2.917	351.562
-4.373	-0.971	0.813	-0.203	0.899	1.694	1.247	0.465	1.400	1.271	1.500	0.532	0.927	1.230	-4.880	-2.468	-1.344	-1.566	0.737	-0.746	0.913	0.887	1.296	2.215	4.510	4.137	1.907	2.642	355.469
-4.420	-1.184	0.807	-0.415	0.870	1.786	1.291	0.675	1.513	1.296	1.487	0.454	0.999	1.238	-4.854	-2.613	-1.377	-1.510	0.739	-0.883	0.886	0.977	1.486	2.301	4.548	3.927	1.885	2.362	359.375
-4.493	-1.439	0.779	-0.661	0.833	1.903	1.347	0.908	1.646	1.312	1.447	0.357	1.056	1.204	-4.848	-2.780	-1.427	-1.431	0.702	-1.049	0.821	1.036	1.662	2.377	4.607	3.765	1.862	2.111	363.281
-4.605	-1.738	0.714	-0.942	0.787	2.033	1.419	1.154	1.805	1.327	1.391	0.258	1.100	1.134	-4.887	-2.972	-1.509	-1.346	0.626	-1.235	0.719	1.066	1.814	2.450	4.703	3.685	1.854	1.932	367.188
-4.771	-2.083	0.596	-1.255	0.729	2.160	1.510	1.405	2.004	1.359	1.349	0.183	1.139	1.036	-4.998	-3.195	-1.637	-1.274	0.509	-1.435	0.584	1.068	1.928	2.527	4.845	3.718	1.883	1.868	371.094
-5.005	-2.479	0.404	-1.598	0.654	2.262	1.624	1.656	2.263	1.433	1.362	0.160	1.179	0.921	-5.201	-3.454	-1.822	-1.237	0.351	-1.645	0.422	1.045	1.991	2.619	5.035	3.881	1.968	1.951	375.000
-5.315	-2.922	0.123	-1.963	0.557	2.320	1.763	1.905	2.602	1.575	1.473	0.222	1.229	0.805	-5.507	-3.749	-2.066	-1.253	0.158	-1.861	0.241	1.002	1.992	2.730	5.262	4.171	2.122	2.195	378.906
-5.697	-3.405	-0.249	-2.339	0.438	2.321	1.928	2.153	3.031	1.805	1.718	0.392	1.296	0.699	-5.909	-4.074	-2.361	-1.330	-0.058	-2.076	0.054	0.942	1.926	2.863	5.503	4.561	2.344	2.588	382.812
-6.128	-3.908	-0.702	-2.713	0.299	2.259	2.116	2.399	3.543	2.129	2.113	0.686	1.385	0.616	-6.379	-4.413	-2.688	-1.466	-0.281	-2.281	-0.126	0.871	1.795	3.011	5.726	5.000	2.618	3.092	386.719
-6.567	-4.401	-1.206	-3.063	0.148	2.138	2.317	2.634	4.102	2.533	2.641	1.098	1.495	0.563	-6.866	-4.741	-3.014	-1.649	-0.488	-2.463	-0.280	0.798	1.612	3.162	5.891	5.416	2.915	3.645	390.625
-6.961	-4.847	-1.715	-3.369	-0.001	1.971	2.515	2.843	4.650	2.984	3.254	1.607	1.625	0.548	-7.310	-5.023	-3.301	-1.857	-0.654	-2.603	-0.391	0.733	1.396	3.300	5.963	5.730	3.198	4.170	394.531
-7.251	-5.205	-2.179	-3.609	-0.132	1.774	2.694	3.002	5.112	3.433	3.878	2.168	1.772	0.576	-7.645	-5.226	-3.512	-2.064	-0.759	-2.684	-0.441	0.685	1.171	3.411	5.917	5.872	3.431	4.592	398.438
-7.387	-5.440	-2.543	-3.764	-0.226	1.569	2.837	3.083	5.411	3.823	4.424	2.721	1.932	0.652	-7.815	-5.320	-3.617	-2.239	-0.788	-2.688	-0.415	0.665	0.964	3.483	5.743	5.790	3.583	4.846	402.344
-7.336	-5.528	-2.766	-3.819	-0.269	1.375	2.929	3.063	5.489	4.101	4.804	3.192	2.103	0.777	-7.785	-5.288	-3.599	-2.353	-0.738	-2.606	-0.305	0.682	0.798	3.511	5.447	5.461	3.635	4.883	406.250
-7.086	-5.457	-2.819	-3.767	-0.245	1.211	2.966	2.926	5.310	4.227	4.948	3.510	2.286	0.954	-7.544	-5.125	-3.454	-2.381	-0.611	-2.433	-0.108	0.741	0.692	3.496	5.048	4.889	3.581	4.681	410.156
-6.649	-5.233	-2.691	-3.608	-0.147	1.090	2.947	2.672	4.879	4.177	4.815	3.609	2.481	1.184	-7.108	-4.837	-3.190	-2.305	-0.417	-2.170	0.175	0.846	0.660	3.446	4.569	4.099	3.424	4.234	414.062
-6.057	-4.873	-2.389	-3.344	0.030	1.023	2.881	2.315	4.227	3.954	4.401	3.446	2.685	1.465	-6.508	-4.438	-2.822	-2.115	-0.163	-1.822	0.537	1.000	0.706	3.366	4.029	3.125	3.177	3.556	417.969
-5.349	-4.400	-1.935	-2.985	0.283	1.013	2.779	1.880	3.416	3.578	3.739	3.012	2.894	1.792	-5.789	-3.949	-2.368	-1.811	0.144	-1.399	0.969	1.199	0.828	3.261	3.439	1.999	2.850	2.670	421.875
-4.570	-3.846	-1.360	-2.545	0.603	1.060	2.655	1.404	2.517	3.091	2.898	2.329	3.097	2.153	-4.996	-3.391	-1.848	-1.403	0.500	-0.912	1.453	1.435	1.016	3.132	2.802	0.753	2.455	1.611	425.781
-3.760	-3.243	-0.702	-2.042	0.973	1.156	2.523	0.922	1.600	2.542	1.965	1.456	3.279	2.532	-4.170	-2.789	-1.284	-0.907	0.899	-0.380	1.970	1.695	1.253	2.971	2.115	-0.589	2.002	0.420	429.688
-2.948	-2.617	-0.003	-1.498	1.370	1.291	2.392	0.464	0.724	1.982	1.035	0.478	3.423	2.902	-3.341	-2.164	-0.694	-0.347	1.331	0.179	2.491	1.959	1.516	2.766	1.379	-2.002	1.496	-0.857	433.594
-2.151	-1.991	0.701	-0.936	1.765	1.452	2.265	0.048	-0.077	1.451	0.188	-0.514	3.511	3.237	-2.524	-1.535	-0.099	0.252	1.780	0.741	2.990	2.201	1.781	2.503	0.603	-3.460	0.938	-2.173	437.500
-1.373	-1.380	1.376	-0.375	2.132	1.622	2.139	-0.321	-0.792	0.973	-0.521	-1.436	3.527	3.507	-1.726	-0.918	0.486	0.866	2.225	1.285	3.437	2.398	2.021	2.170	-0.194	-4.928	0.333	-3.478	441.406
-0.611	-0.789	1.997	0.168	2.448	1.788	2.007	-0.649	-1.430	0.556	-1.072	-2.229	3.461	3.692	-0.945	-0.323	1.045	1.471	2.642	1.795	3.815	2.532	2.213	1.759	-0.982	-6.365	-0.314	-4.729	445.312
0.139	-0.221	2.545	0.683	2.698	1.938	1.858	-0.953	-2.012	0.191	-1.480	-2.866	3.314	3.781	-0.183	0.245	1.568	2.048	3.009	2.261	4.112	2.592	2.341	1.280	-1.725	-7.720	-0.989	-5.881	449.219
0.874	0.323	3.009	1.163	2.881	2.067	1.689	-1.250	-2.559	-0.140	-1.784	-3.352	3.100	3.780	0.550	0.782	2.046	2.576	3.311	2.681	4.331	2.581	2.396	0.754	-2.391	-8.939	-1.668	-6.895	453.125
1.578	0.840	3.381	1.607	3.004	2.170	1.498	-1.552	-3.082	-0.452	-2.029	-3.710	2.843	3.708	1.229	1.282	2.469	3.033	3.539	3.058	4.485	2.514	2.376	0.219	-2.949	-9.963	-2.313	-7.732	457.031
2.220	1.319	3.658	2.009	3.085	2.245	1.293	-1.865	-3.579	-0.751	-2.258	-3.972	2.576	3.596	1.822	1.738	2.832	3.399	3.695	3.399	4.593	2.414	2.292	-0.280	-3.384	-10.743	-2.881	-8.357	460.938
2.763	1.745	3.842	2.364	3.140	2.292	1.087	-2.183	-4.034	-1.036	-2.494	-4.165	2.333	3.475	2.291	2.137	3.125	3.654	3.787	3.707	4.674	2.307	2.160	-0.695	-3.691	-11.244	-3.325	-8.743	464.844
3.172	2.102	3.938	2.664	3.185	2.308	0.896	-2.494	-4.427	-1.292	-2.741	-4.302	2.144	3.376	2.605	2.466	3.342	3.784	3.830	3.982	4.747	2.220	2.003	-0.987	-3.877	-11.455	-3.611	-8.879	468.750
3.425	2.375	3.956	2.900	3.232	2.293	0.735	-2.782	-4.739	-1.503	-2.986	-4.383	2.028	3.317	2.751	2.713	3.481	3.789	3.840	4.224	4.823	2.173	1.846	-1.134	-3.964	-11.398	-3.721	-8.777	472.656
3.521	2.556	3.910	3.065	3.282	2.248	0.614	-3.030	-4.959	-1.653	-3.206	-4.402	1.993	3.309	2.741	2.873	3.545	3.678	3.835	4.429	4.907	2.176	1.710	-1.136	-3.982	-11.122	-3.659	-8.474	476.562
3.478	2.647	3.816	3.160	3.335	2.176	0.539	-3.229	-5.088	-1.732	-3.379	-4.349	2.033	3.352	2.607	2.951	3.546	3.477	3.830	4.594	5.002	2.229	1.611	-1.014	-3.966	-10.704	-3.457	-8.032	480.469
3.335	2.661	3.689	3.188	3.383	2.082	0.508	-3.372	-5.133	-1.739	-3.486	-4.225	2.131	3.435	2.400	2.958	3.500	3.219	3.839	4.720	5.106	2.322	1.557	-0.805	-3.947	-10.231	-3.164	-7.531	484.375
3.140	2.618	3.543	3.162	3.423	1.975	0.516	-3.462	-5.110	-1.684	-3.522	-4.043	2.262	3.545	2.175	2.914	3.427	2.940	3.865	4.811	5.216	2.438	1.543	-0.556	-3.951	-9.784	-2.842	-7.052	488.281
2.941	2.543	3.386	3.098	3.448	1.866	0.554	-3.499	-5.033	-1.585	-3.495	-3.828	2.400	3.665	1.983	2.844	3.347	2.673	3.910	4.875	5.326	2.555	1.559	-0.317	-3.990	-9.424	-2.554	-6.666	492.188
2.779	2.460	3.225	3.017	3.458	1.766	0.608	-3.488	-4.918	-1.465	-3.425	-3.614	2.515	3.779	1.857	2.771	3.275	2.439	3.967	4.922	5.431	2.652	1.587	-0.126	-4.061	-9.182	-2.348	-6.420	496.094
2.678	2.390	3.063	2.935	3.455	1.684	0.665	-3.432	-4.776	-1.350	-3.336	-3.436	2.584	3.871	1.812	2.713	3.221	2.246	4.025	4.960	5.525	2.709	1.607	-0.010	-4.148	-9.051	-2.257	-6.324	500.000
2.645	2.345	2.906	2.867	3.443	1.629	0.714	-3.332	-4.619	-1.263	-3.255	-3.322	2.588	3.929	1.841	2.683	3.186	2.094	4.070	4.995	5.598	2.715	1.600	0.022	-4.224	-8.999	-2.286	-6.358	503.906
2.669	2.328	2.756	2.817	3.426	1.607	0.746	-3.192	-4.452	-1.218	-3.199	-3.285	2.518	3.942	1.919	2.681	3.161	1.970	4.088	5.026	5.642	2.668	1.554	-0.023	-4.262	-8.974	-2.418	-6.475	507.812
2.729	2.329	2.619	2.782	3.405	1.615	0.755	-3.015	-4.280	-1.218	-3.175	-3.321	2.375	3.904	2.014	2.700	3.137	1.862	4.068	5.045	5.649	2.573	1.463	-0.123	-4.240	-8.922	-2.616	-6.613	511.719
2.793	2.335	2.500	2.750	3.379	1.650	0.742	-2.805	-4.105	-1.256	-3.173	-3.407	2.171	3.812	2.091	2.726	3.098	1.758	4.002	5.041	5.608	2.442	1.333	-0.253	-4.147	-8.800	-2.836	-6.707	515.625
2.834	2.325	2.404	2.703	3.340	1.699	0.711	-2.569	-3.924	-1.312	-3.172	-3.508	1.927	3.667	2.123	2.738	3.035	1.654	3.891	5.001	5.513	2.287	1.173	-0.385	-3.987	-8.586	-3.031	-6.708	519.531
2.830	2.281	2.332	2.623	3.280	1.748	0.672	-2.319	-3.735	-1.363	-3.141	-3.583	1.667	3.473	2.096	2.718	2.940	1.550	3.741	4.913	5.361	2.124	1.000	-0.497	-3.777	-8.284	-3.164	-6.587	523.438
2.770	2.191	2.286	2.499	3.192	1.782	0.633	-2.068	-3.535	-1.382	-3.049	-3.593	1.417	3.239	2.011	2.655	2.816	1.451	3.563	4.771	5.153	1.962	0.832	-0.578	-3.544	-7.918	-3.214	-6.341	527.344
2.658	2.058	2.264	2.328	3.071	1.788	0.606	-1.832	-3.324	-1.350	-2.876	-3.513	1.202	2.978	1.879	2.546	2.668	1.363	3.372	4.578	4.900	1.806	0.684	-0.624	-3.322	-7.531	-3.175	-5.994	531.250
2.508	1.893	2.261	2.121	2.921	1.762	0.599	-1.629	-3.109	-1.255	-2.615	-3.331	1.036	2.705	1.723	2.398	2.510	1.292	3.180	4.349	4.618	1.659	0.566	-0.641	-3.137	-7.171	-3.061	-5.585	535.156
2.343	1.722	2.274	1.899	2.753	1.706	0.616	-1.474	-2.902	-1.103	-2.281	-3.057	0.930	2.441	1.571	2.231	2.359	1.240	3.002	4.106	4.329	1.518	0.483	-0.638	-3.009	-6.879	-2.895	-5.165	539.062
2.188	1.572	2.300	1.689	2.582	1.628	0.656	-1.381	-2.723	-0.911	-1.907	-2.721	0.883	2.207	1.446	2.068	2.230	1.209	2.846	3.877	4.059	1.380	0.434	-0.630	-2.944	-6.684	-2.711	-4.785	542.969
2.068	1.471	2.338	1.522	2.427	1.542	0.711	-1.359	-2.596	-0.707	-1.538	-2.363	0.886	2.020	1.369	1.934	2.137	1.201	2.716	3.686	3.829	1.246	0.415	-0.629	-2.936	-6.599	-2.541	-4.484	546.875
2.003	1.440	2.387	1.419	2.303	1.462	0.769	-1.411	-2.544	-0.524	-1.221	-2.031	0.922	1.890	1.352	1.848	2.090	1.218	2.616	3.553	3.655	1.116	0.420	-0.643	-2.969	-6.617	-2.415	-4.290	550.781
2.003	1.485	2.446	1.392	2.222	1.401	0.813	-1.531	-2.585	-0.397	-0.999	-1.767	0.971	1.818	1.398	1.820	2.091	1.269	2.543	3.485	3.546	0.995	0.443	-0.680	-3.020	-6.719	-2.354	-4.211	554.688
2.067	1.596	2.513	1.439	2.184	1.368	0.830	-1.704	-2.725	-0.349	-0.897	-1.602	1.012	1.797	1.504	1.851	2.137	1.359	2.494	3.477	3.496	0.887	0.479	-0.742	-3.066	-6.876	-2.368	-4.243	558.594
2.185	1.754	2.586	1.546	2.182	1.366	0.808	-1.907	-2.957	-0.391	-0.918	-1.550	1.027	1.809	1.658	1.930	2.220	1.496	2.465	3.515	3.493	0.798	0.523	-0.827	-3.088	-7.058	-2.456	-4.365	562.500
2.338	1.931	2.660	1.691	2.205	1.396	0.742	-2.116	-3.260	-0.519	-1.047	-1.608	1.001	1.833	1.848	2.042	2.328	1.680	2.451	3.576	3.518	0.730	0.573	-0.930	-3.075	-7.237	-2.607	-4.553	566.406
2.503	2.100	2.734	1.846	2.232	1.454	0.636	-2.303	-3.603	-0.715	-1.249	-1.756	0.927	1.849	2.056	2.166	2.445	1.905	2.448	3.638	3.546	0.683	0.628	-1.044	-3.025	-7.395	-2.801	-4.776	570.312
2.659	2.243	2.808	1.988	2.249	1.535	0.497	-2.445	-3.946	-0.952	-1.480	-1.965	0.805	1.838	2.267	2.286	2.557	2.158	2.452	3.680	3.559	0.655	0.687	-1.162	-2.944	-7.519	-3.016	-5.006	574.219
2.788	2.347	2.886	2.098	2.240	1.632	0.337	-2.527	-4.252	-1.197	-1.696	-2.201	0.643	1.790	2.463	2.387	2.654	2.419	2.456	3.688	3.539	0.640	0.750	-1.276	-2.845	-7.608	-3.228	-5.220	578.125
2.882	2.412	2.975	2.164	2.197	1.739	0.172	-2.540	-4.490	-1.423	-1.862	-2.432	0.455	1.704	2.630	2.461	2.729	2.664	2.457	3.653	3.478	0.630	0.814	-1.375	-2.741	-7.663	-3.414	-5.399	582.031
2.939	2.447	3.079	2.183	2.121	1.848	0.012	-2.489	-4.643	-1.608	-1.958	-2.633	0.260	1.586	2.757	2.503	2.776	2.871	2.448	3.574	3.373	0.620	0.881	-1.451	-2.645	-7.687	-3.555	-5.528	585.938
2.966	2.463	3.204	2.158	2.017	1.953	-0.133	-2.384	-4.710	-1.740	-1.982	-2.786	0.080	1.450	2.836	2.509	2.792	3.023	2.421	3.452	3.228	0.605	0.950	-1.495	-2.564	-7.681	-3.637	-5.596	589.844
2.970	2.472	3.346	2.097	1.897	2.044	-0.258	-2.242	-4.703	-1.820	-1.949	-2.881	-0.062	1.312	2.863	2.480	2.777	3.110	2.369	3.291	3.050	0.582	1.023	-1.499	-2.496	-7.641	-3.650	-5.596	593.750
2.960	2.482	3.500	2.010	1.773	2.116	-0.361	-2.085	-4.644	-1.857	-1.885	-2.917	-0.154	1.191	2.836	2.414	2.730	3.133	2.286	3.096	2.852	0.554	1.104	-1.457	-2.434	-7.561	-3.590	-5.525	597.656
2.946	2.495	3.652	1.906	1.655	2.161	-0.445	-1.934	-4.560	-1.864	-1.819	-2.901	-0.188	1.098	2.761	2.311	2.652	3.103	2.170	2.875	2.643	0.523	1.197	-1.369	-2.367	-7.432	-3.464	-5.385	601.562
2.930	2.507	3.784	1.793	1.548	2.175	-0.517	-1.806	-4.474	-1.860	-1.775	-2.840	-0.171	1.039	2.649	2.175	2.546	3.037	2.023	2.634	2.436	0.493	1.307	-1.243	-2.282	-7.247	-3.283	-5.183	605.469
2.916	2.508	3.876	1.675	1.450	2.151	-0.584	-1.716	-4.404	-1.859	-1.768	-2.748	-0.117	1.010	2.514	2.011	2.418	2.959	1.854	2.383	2.239	0.468	1.437	-1.090	-2.169	-7.002	-3.067	-4.931	609.375
2.904	2.484	3.914	1.549	1.351	2.088	-0.654	-1.668	-4.353	-1.868	-1.798	-2.633	-0.049	0.999	2.375	1.826	2.273	2.889	1.672	2.129	2.058	0.448	1.586	-0.929	-2.025	-6.700	-2.836	-4.643	613.281
2.894	2.424	3.887	1.413	1.238	1.986	-0.732	-1.659	-4.317	-1.891	-1.851	-2.503	0.011	0.986	2.249	1.631	2.118	2.842	1.488	1.879	1.895	0.432	1.748	-0.777	-1.849	-6.353	-2.613	-4.333	617.188
2.890	2.317	3.796	1.262	1.099	1.849	-0.821	-1.680	-4.283	-1.924	-1.907	-2.361	0.042	0.952	2.152	1.434	1.957	2.823	1.308	1.637	1.747	0.412	1.912	-0.653	-1.647	-5.976	-2.414	-4.018	621.094
2.896	2.162	3.650	1.091	0.923	1.683	-0.919	-1.715	-4.234	-1.956	-1.939	-2.208	0.032	0.880	2.095	1.243	1.792	2.830	1.133	1.404	1.608	0.379	2.061	-0.567	-1.431	-5.589	-2.251	-3.708	625.000
2.918	1.964	3.470	0.899	0.709	1.499	-1.025	-1.747	-4.157	-1.979	-1.927	-2.042	-0.025	0.758	2.082	1.063	1.621	2.850	0.959	1.179	1.468	0.325	2.180	-0.528	-1.216	-5.215	-2.130	-3.417	628.906
2.963	1.733	3.286	0.689	0.462	1.312	-1.131	-1.760	-4.043	-1.985	-1.858	-1.864	-0.125	0.585	2.112	0.895	1.444	2.871	0.778	0.958	1.319	0.239	2.252	-0.536	-1.015	-4.876	-2.052	-3.151	632.812
3.035	1.490	3.125	0.468	0.198	1.134	-1.231	-1.745	-3.889	-1.971	-1.734	-1.677	-0.258	0.367	2.180	0.738	1.258	2.881	0.583	0.740	1.154	0.117	2.266	-0.587	-0.845	-4.589	-2.015	-2.919	636.719
3.138	1.255	3.014	0.245	-0.067	0.980	-1.321	-1.696	-3.701	-1.938	-1.565	-1.490	-0.413	0.118	2.278	0.593	1.064	2.875	0.369	0.523	0.972	-0.043	2.220	-0.674	-0.715	-4.364	-2.018	-2.724	640.625
3.271	1.048	2.970	0.034	-0.315	0.857	-1.397	-1.616	-3.488	-1.894	-1.374	-1.312	-0.576	-0.142	2.395	0.457	0.866	2.855	0.135	0.311	0.776	-0.236	2.120	-0.790	-0.632	-4.202	-2.057	-2.567	644.531
3.426	0.884	2.997	-0.154	-0.530	0.769	-1.457	-1.513	-3.262	-1.847	-1.186	-1.155	-0.738	-0.395	2.523	0.332	0.670	2.829	-0.113	0.111	0.572	-0.450	1.981	-0.925	-0.593	-4.097	-2.128	-2.445	648.438
3.593	0.774	3.087	-0.307	-0.704	0.713	-1.500	-1.397	-3.035	-1.807	-1.023	-1.028	-0.891	-0.622	2.653	0.219	0.485	2.807	-0.362	-0.070	0.372	-0.671	1.824	-1.071	-0.592	-4.036	-2.227	-2.350	652.344
3.760	0.718	3.224	-0.421	-0.833	0.682	-1.526	-1.279	-2.817	-1.778	-0.902	-0.936	-1.031	-0.811	2.776	0.120	0.320	2.793	-0.599	-0.223	0.186	-0.882	1.670	-1.217	-0.614	-4.001	-2.346	-2.276	656.250
3.909	0.709	3.383	-0.495	-0.923	0.667	-1.534	-1.167	-2.616	-1.763	-0.827	-0.880	-1.156	-0.951	2.887	0.039	0.180	2.791	-0.810	-0.342	0.025	-1.069	1.537	-1.355	-0.646	-3.975	-2.477	-2.213	660.156
4.025	0.735	3.537	-0.534	-0.981	0.657	-1.525	-1.066	-2.434	-1.758	-0.793	-0.856	-1.265	-1.043	2.980	-0.022	0.071	2.797	-0.982	-0.425	-0.104	-1.219	1.437	-1.478	-0.673	-3.941	-2.608	-2.151	664.062
4.098	0.778	3.662	-0.550	-1.019	0.643	-1.500	-0.980	-2.274	-1.757	-0.784	-0.851	-1.361	-1.091	3.054	-0.063	-0.006	2.803	-1.108	-0.475	-0.198	-1.328	1.374	-1.578	-0.687	-3.891	-2.728	-2.087	667.969
4.119	0.822	3.740	-0.557	-1.051	0.618	-1.464	-0.908	-2.133	-1.751	-0.781	-0.852	-1.451	-1.103	3.111	-0.084	-0.053	2.802	-1.185	-0.502	-0.260	-1.397	1.343	-1.652	-0.687	-3.822	-2.829	-2.017	671.875
4.090	0.853	3.761	-0.569	-1.086	0.578	-1.418	-0.847	-2.007	-1.732	-0.762	-0.843	-1.541	-1.094	3.156	-0.090	-0.073	2.787	-1.217	-0.514	-0.296	-1.435	1.336	-1.703	-0.679	-3.739	-2.903	-1.942	675.781
4.015	0.861	3.726	-0.597	-1.133	0.523	-1.367	-0.792	-1.892	-1.693	-0.707	-0.807	-1.638	-1.077	3.193	-0.082	-0.073	2.756	-1.216	-0.525	-0.315	-1.455	1.338	-1.735	-0.671	-3.655	-2.950	-1.865	679.688
3.905	0.844	3.647	-0.647	-1.196	0.452	-1.313	-0.737	-1.781	-1.630	-0.602	-0.732	-1.746	-1.067	3.229	-0.069	-0.059	2.708	-1.195	-0.543	-0.329	-1.472	1.339	-1.759	-0.675	-3.583	-2.969	-1.790	683.594
3.773	0.802	3.540	-0.720	-1.276	0.365	-1.261	-0.676	-1.670	-1.541	-0.441	-0.613	-1.863	-1.074	3.268	-0.055	-0.042	2.648	-1.173	-0.578	-0.349	-1.502	1.327	-1.783	-0.700	-3.538	-2.965	-1.719	687.500
3.632	0.742	3.426	-0.815	-1.371	0.262	-1.209	-0.604	-1.554	-1.423	-0.224	-0.449	-1.980	-1.103	3.308	-0.049	-0.032	2.582	-1.169	-0.631	-0.382	-1.557	1.298	-1.817	-0.748	-3.526	-2.945	-1.654	691.406
3.497	0.671	3.324	-0.924	-1.475	0.143	-1.157	-0.519	-1.429	-1.281	0.044	-0.249	-2.082	-1.154	3.348	-0.056	-0.037	2.517	-1.197	-0.702	-0.431	-1.643	1.248	-1.865	-0.821	-3.550	-2.913	-1.595	695.312
3.379	0.595	3.249	-1.042	-1.582	0.009	-1.103	-0.420	-1.297	-1.119	0.346	-0.027	-2.152	-1.221	3.381	-0.080	-0.066	2.458	-1.268	-0.783	-0.493	-1.755	1.181	-1.929	-0.914	-3.605	-2.876	-1.541	699.219
3.290	0.521	3.207	-1.158	-1.681	-0.136	-1.047	-0.311	-1.160	-0.945	0.663	0.198	-2.176	-1.290	3.403	-0.121	-0.122	2.411	-1.381	-0.867	-0.559	-1.886	1.103	-2.005	-1.021	-3.684	-2.839	-1.498	703.125
3.240	0.455	3.198	-1.265	-1.763	-0.285	-0.987	-0.200	-1.029	-0.772	0.966	0.406	-2.146	-1.348	3.414	-0.173	-0.200	2.382	-1.528	-0.940	-0.615	-2.019	1.023	-2.087	-1.137	-3.781	-2.808	-1.471	707.031
3.236	0.403	3.215	-1.355	-1.821	-0.430	-0.926	-0.101	-0.918	-0.613	1.226	0.576	-2.060	-1.381	3.417	-0.227	-0.291	2.373	-1.689	-0.994	-0.648	-2.134	0.954	-2.166	-1.256	-3.888	-2.785	-1.468	710.938
3.282	0.368	3.244	-1.423	-1.848	-0.560	-0.868	-0.026	-0.845	-0.486	1.413	0.694	-1.928	-1.376	3.420	-0.275	-0.381	2.388	-1.838	-1.019	-0.644	-2.212	0.909	-2.230	-1.372	-4.001	-2.770	-1.495	714.844
3.381	0.352	3.273	-1.468	-1.844	-0.669	-0.818	0.010	-0.827	-0.404	1.504	0.752	-1.764	-1.326	3.435	-0.305	-0.456	2.426	-1.952	-1.012	-0.595	-2.237	0.898	-2.269	-1.481	-4.118	-2.762	-1.553	718.750
3.527	0.359	3.292	-1.491	-1.814	-0.749	-0.785	-0.004	-0.881	-0.381	1.484	0.750	-1.590	-1.232	3.474	-0.308	-0.502	2.485	-2.008	-0.974	-0.498	-2.201	0.928	-2.277	-1.577	-4.234	-2.757	-1.638	722.656
3.714	0.389	3.296	-1.492	-1.764	-0.797	-0.775	-0.073	-1.013	-0.421	1.352	0.694	-1.424	-1.098	3.546	-0.280	-0.513	2.561	-1.998	-0.909	-0.359	-2.103	1.002	-2.251	-1.656	-4.349	-2.750	-1.743	726.562
3.932	0.443	3.288	-1.476	-1.705	-0.816	-0.794	-0.196	-1.221	-0.523	1.120	0.593	-1.283	-0.934	3.660	-0.219	-0.488	2.648	-1.921	-0.823	-0.188	-1.950	1.113	-2.194	-1.717	-4.461	-2.737	-1.857	730.469
4.174	0.520	3.275	-1.444	-1.646	-0.810	-0.847	-0.368	-1.494	-0.680	0.813	0.461	-1.180	-0.757	3.818	-0.124	-0.431	2.739	-1.789	-0.722	-0.001	-1.758	1.252	-2.115	-1.760	-4.570	-2.718	-1.972	734.375
4.428	0.619	3.270	-1.400	-1.599	-0.790	-0.935	-0.576	-1.807	-0.876	0.464	0.310	-1.120	-0.583	4.016	0.002	-0.348	2.825	-1.620	-0.611	0.188	-1.548	1.404	-2.029	-1.791	-4.679	-2.696	-2.082	738.281
4.687	0.734	3.280	-1.348	-1.569	-0.766	-1.052	-0.801	-2.127	-1.090	0.114	0.153	-1.102	-0.431	4.244	0.153	-0.248	2.900	-1.437	-0.496	0.360	-1.342	1.551	-1.951	-1.818	-4.790	-2.677	-2.187	742.188
4.935	0.856	3.309	-1.294	-1.562	-0.753	-1.191	-1.021	-2.417	-1.298	-0.195	0.004	-1.120	-0.317	4.486	0.321	-0.141	2.955	-1.263	-0.381	0.504	-1.163	1.674	-1.897	-1.850	-4.904	-2.668	-2.284	746.094
5.155	0.972	3.350	-1.247	-1.578	-0.763	-1.333	-1.215	-2.635	-1.470	-0.423	-0.122	-1.161	-0.253	4.717	0.491	-0.037	2.983	-1.117	-0.273	0.611	-1.031	1.759	-1.876	-1.893	-5.014	-2.674	-2.372	750.000
5.324	1.067	3.390	-1.219	-1.614	-0.806	-1.460	-1.359	-2.746	-1.579	-0.536	-0.210	-1.207	-0.242	4.912	0.647	0.051	2.976	-1.015	-0.180	0.679	-0.959	1.794	-1.891	-1.949	-5.112	-2.693	-2.441	753.906
5.418	1.124	3.409	-1.221	-1.668	-0.885	-1.549	-1.439	-2.725	-1.602	-0.514	-0.244	-1.242	-0.277	5.041	0.767	0.112	2.928	-0.967	-0.113	0.708	-0.954	1.777	-1.935	-2.014	-5.180	-2.719	-2.480	757.812
5.414	1.128	3.388	-1.262	-1.733	-1.000	-1.580	-1.444	-2.563	-1.523	-0.348	-0.211	-1.248	-0.344	5.082	0.832	0.132	2.832	-0.975	-0.084	0.703	-1.008	1.712	-1.996	-2.078	-5.201	-2.738	-2.471	761.719
5.300	1.070	3.312	-1.347	-1.805	-1.146	-1.540	-1.375	-2.267	-1.337	-0.044	-0.100	-1.213	-0.425	5.018	0.825	0.100	2.687	-1.035	-0.105	0.668	-1.109	1.611	-2.053	-2.129	-5.156	-2.733	-2.398	765.625
5.073	0.948	3.171	-1.475	-1.879	-1.311	-1.423	-1.242	-1.862	-1.052	0.378	0.092	-1.131	-0.497	4.844	0.736	0.010	2.494	-1.141	-0.182	0.610	-1.237	1.491	-2.087	-2.155	-5.032	-2.685	-2.247	769.531
4.747	0.766	2.968	-1.639	-1.957	-1.485	-1.234	-1.064	-1.388	-0.683	0.888	0.364	-1.004	-0.542	4.568	0.562	-0.141	2.256	-1.282	-0.318	0.534	-1.368	1.367	-2.082	-2.148	-4.825	-2.579	-2.011	773.438
4.344	0.536	2.711	-1.831	-2.037	-1.656	-0.985	-0.860	-0.889	-0.257	1.452	0.707	-0.840	-0.544	4.208	0.310	-0.348	1.980	-1.448	-0.509	0.444	-1.482	1.251	-2.027	-2.106	-4.536	-2.407	-1.688	777.344
3.895	0.270	2.415	-2.036	-2.126	-1.815	-0.691	-0.650	-0.406	0.202	2.040	1.108	-0.651	-0.498	3.786	-0.011	-0.603	1.673	-1.629	-0.746	0.346	-1.564	1.154	-1.919	-2.029	-4.177	-2.168	-1.287	781.250
3.427	-0.018	2.096	-2.247	-2.224	-1.960	-0.370	-0.450	0.031	0.671	2.626	1.553	-0.451	-0.403	3.327	-0.386	-0.895	1.346	-1.817	-1.019	0.243	-1.607	1.076	-1.762	-1.924	-3.764	-1.869	-0.819	785.156
2.962	-0.315	1.765	-2.454	-2.333	-2.089	-0.036	-0.270	0.409	1.134	3.197	2.027	-0.251	-0.266	2.852	-0.797	-1.213	1.005	-2.007	-1.316	0.138	-1.614	1.016	-1.568	-1.797	-3.314	-1.522	-0.301	789.062
2.511	-0.614	1.433	-2.655	-2.454	-2.208	0.300	-0.108	0.733	1.584	3.748	2.516	-0.056	-0.101	2.374	-1.229	-1.544	0.656	-2.196	-1.625	0.032	-1.590	0.969	-1.348	-1.658	-2.843	-1.145	0.248	792.969
2.075	-0.910	1.105	-2.850	-2.582	-2.322	0.631	0.038	1.022	2.023	4.285	3.010	0.132	0.077	1.903	-1.666	-1.880	0.305	-2.383	-1.936	-0.074	-1.551	0.930	-1.118	-1.514	-2.366	-0.753	0.809	796.875
