FP1	F3	F7	FC3	C3	C5	P3	P7	PO7	PO3	O1	Oz	Pz	CPz	FP2	Fz	F4	F8	FC4	FCz	Cz	C4	C6	P4	P8	PO8	PO4	O2	time
0.709	0.264	0.994	0.445	0.517	0.496	-0.127	-0.563	-0.505	-0.628	-0.846	-0.757	-0.594	0.004	0.709	0.325	0.503	0.121	0.595	0.427	0.663	0.675	0.967	-0.314	-0.861	-1.178	-1.264	-0.647	-199.219
0.807	0.333	0.936	0.510	0.319	0.333	-0.161	-0.437	-0.310	-0.569	-0.756	-0.675	-0.540	-0.093	0.734	0.378	0.328	0.039	0.345	0.429	0.568	0.591	0.905	-0.330	-0.703	-0.955	-1.235	-0.700	-195.312
0.905	0.391	0.870	0.565	0.130	0.166	-0.201	-0.333	-0.152	-0.520	-0.681	-0.588	-0.484	-0.176	0.764	0.426	0.172	-0.038	0.118	0.438	0.494	0.515	0.847	-0.342	-0.552	-0.746	-1.198	-0.743	-191.406
0.996	0.428	0.787	0.598	-0.042	-0.004	-0.252	-0.267	-0.062	-0.490	-0.632	-0.495	-0.425	-0.234	0.800	0.462	0.049	-0.104	-0.068	0.456	0.455	0.456	0.797	-0.346	-0.409	-0.557	-1.144	-0.764	-187.500
1.075	0.434	0.684	0.601	-0.191	-0.175	-0.317	-0.252	-0.051	-0.486	-0.618	-0.395	-0.365	-0.258	0.840	0.483	-0.029	-0.156	-0.197	0.481	0.461	0.415	0.760	-0.342	-0.278	-0.393	-1.066	-0.754	-183.594
1.133	0.405	0.559	0.570	-0.314	-0.341	-0.398	-0.287	-0.118	-0.505	-0.638	-0.288	-0.301	-0.248	0.879	0.484	-0.060	-0.192	-0.265	0.511	0.509	0.394	0.734	-0.327	-0.160	-0.253	-0.962	-0.705	-179.688
1.161	0.338	0.416	0.501	-0.411	-0.493	-0.490	-0.365	-0.243	-0.542	-0.684	-0.175	-0.234	-0.205	0.906	0.462	-0.048	-0.211	-0.274	0.539	0.588	0.390	0.720	-0.303	-0.057	-0.133	-0.833	-0.613	-175.781
1.151	0.232	0.259	0.395	-0.484	-0.622	-0.588	-0.468	-0.395	-0.587	-0.744	-0.058	-0.162	-0.137	0.912	0.414	-0.006	-0.215	-0.235	0.557	0.682	0.395	0.712	-0.270	0.034	-0.022	-0.682	-0.476	-171.875
1.094	0.091	0.092	0.251	-0.536	-0.715	-0.682	-0.575	-0.542	-0.628	-0.801	0.060	-0.086	-0.053	0.888	0.340	0.048	-0.208	-0.167	0.558	0.769	0.402	0.703	-0.228	0.118	0.092	-0.512	-0.298	-167.969
0.988	-0.082	-0.081	0.075	-0.571	-0.763	-0.761	-0.667	-0.651	-0.652	-0.839	0.174	-0.007	0.036	0.826	0.241	0.095	-0.197	-0.090	0.535	0.832	0.402	0.686	-0.177	0.204	0.221	-0.329	-0.086	-164.062
0.833	-0.277	-0.253	-0.122	-0.591	-0.760	-0.815	-0.728	-0.704	-0.652	-0.848	0.281	0.069	0.121	0.725	0.121	0.118	-0.190	-0.025	0.486	0.859	0.387	0.652	-0.117	0.297	0.376	-0.138	0.151	-160.156
0.639	-0.481	-0.418	-0.325	-0.597	-0.707	-0.836	-0.752	-0.693	-0.624	-0.822	0.376	0.137	0.194	0.589	-0.009	0.104	-0.192	0.014	0.415	0.845	0.354	0.597	-0.050	0.400	0.557	0.054	0.396	-156.250
0.419	-0.675	-0.566	-0.512	-0.589	-0.611	-0.820	-0.740	-0.625	-0.567	-0.761	0.454	0.193	0.249	0.427	-0.139	0.053	-0.208	0.019	0.328	0.791	0.305	0.520	0.020	0.510	0.758	0.237	0.631	-152.344
0.194	-0.840	-0.685	-0.661	-0.565	-0.487	-0.765	-0.700	-0.515	-0.487	-0.671	0.511	0.234	0.284	0.252	-0.257	-0.030	-0.237	-0.007	0.237	0.704	0.243	0.423	0.089	0.615	0.962	0.403	0.838	-148.438
-0.016	-0.958	-0.763	-0.755	-0.527	-0.350	-0.677	-0.641	-0.384	-0.391	-0.560	0.543	0.259	0.301	0.080	-0.351	-0.133	-0.276	-0.059	0.152	0.594	0.177	0.311	0.152	0.700	1.145	0.541	0.996	-144.531
-0.190	-1.016	-0.791	-0.783	-0.475	-0.218	-0.560	-0.574	-0.252	-0.285	-0.438	0.548	0.272	0.303	-0.072	-0.414	-0.239	-0.314	-0.123	0.083	0.475	0.116	0.191	0.201	0.747	1.278	0.641	1.090	-140.625
-0.312	-1.005	-0.765	-0.745	-0.412	-0.104	-0.425	-0.504	-0.132	-0.177	-0.315	0.526	0.277	0.295	-0.192	-0.442	-0.331	-0.343	-0.188	0.036	0.358	0.070	0.070	0.235	0.742	1.336	0.695	1.109	-136.719
-0.376	-0.929	-0.687	-0.652	-0.344	-0.017	-0.280	-0.436	-0.033	-0.075	-0.202	0.480	0.278	0.282	-0.270	-0.435	-0.397	-0.350	-0.242	0.012	0.250	0.043	-0.043	0.251	0.680	1.301	0.701	1.051	-132.812
-0.381	-0.798	-0.567	-0.521	-0.276	0.041	-0.136	-0.371	0.042	0.015	-0.108	0.412	0.281	0.268	-0.303	-0.398	-0.429	-0.328	-0.273	0.006	0.160	0.038	-0.142	0.251	0.566	1.172	0.660	0.922	-128.906
-0.340	-0.630	-0.419	-0.378	-0.213	0.072	-0.002	-0.310	0.093	0.088	-0.038	0.328	0.287	0.256	-0.296	-0.339	-0.424	-0.274	-0.278	0.011	0.091	0.053	-0.223	0.239	0.414	0.961	0.581	0.738	-125.000
-0.269	-0.448	-0.264	-0.245	-0.160	0.084	0.116	-0.256	0.122	0.143	0.004	0.235	0.300	0.248	-0.258	-0.270	-0.388	-0.190	-0.254	0.019	0.042	0.082	-0.286	0.219	0.247	0.695	0.475	0.522	-121.094
-0.188	-0.275	-0.119	-0.140	-0.116	0.085	0.212	-0.210	0.134	0.178	0.020	0.140	0.319	0.244	-0.204	-0.200	-0.331	-0.084	-0.206	0.023	0.014	0.118	-0.332	0.199	0.090	0.410	0.359	0.299	-117.188
-0.116	-0.132	0.000	-0.075	-0.083	0.083	0.285	-0.173	0.131	0.198	0.018	0.051	0.344	0.243	-0.147	-0.140	-0.264	0.029	-0.142	0.017	0.001	0.152	-0.367	0.183	-0.035	0.140	0.250	0.093	-113.281
-0.067	-0.035	0.083	-0.055	-0.058	0.083	0.336	-0.146	0.119	0.207	0.006	-0.025	0.374	0.245	-0.102	-0.098	-0.199	0.133	-0.072	-0.002	-0.004	0.177	-0.396	0.174	-0.114	-0.083	0.164	-0.075	-109.375
-0.050	0.010	0.124	-0.075	-0.038	0.086	0.368	-0.123	0.101	0.212	-0.003	-0.079	0.407	0.248	-0.080	-0.078	-0.146	0.214	-0.009	-0.034	-0.007	0.186	-0.427	0.175	-0.140	-0.239	0.114	-0.190	-105.469
-0.070	0.005	0.126	-0.128	-0.020	0.091	0.388	-0.101	0.081	0.220	0.002	-0.106	0.443	0.252	-0.086	-0.083	-0.110	0.260	0.038	-0.080	-0.016	0.177	-0.459	0.184	-0.118	-0.321	0.108	-0.244	-101.562
-0.127	-0.040	0.097	-0.199	-0.002	0.092	0.400	-0.071	0.064	0.239	0.032	-0.100	0.479	0.254	-0.122	-0.112	-0.091	0.264	0.064	-0.137	-0.038	0.148	-0.494	0.199	-0.061	-0.332	0.148	-0.236	-97.656
-0.213	-0.107	0.048	-0.277	0.014	0.084	0.410	-0.028	0.052	0.271	0.088	-0.059	0.515	0.251	-0.185	-0.160	-0.087	0.230	0.066	-0.203	-0.078	0.099	-0.528	0.217	0.016	-0.284	0.230	-0.174	-93.750
-0.318	-0.179	-0.007	-0.348	0.027	0.062	0.417	0.031	0.047	0.316	0.170	0.015	0.545	0.237	-0.264	-0.217	-0.090	0.170	0.047	-0.273	-0.136	0.033	-0.554	0.234	0.094	-0.197	0.340	-0.070	-89.844
-0.430	-0.234	-0.053	-0.402	0.034	0.023	0.423	0.107	0.048	0.369	0.271	0.114	0.562	0.207	-0.347	-0.276	-0.092	0.102	0.014	-0.345	-0.213	-0.047	-0.569	0.243	0.156	-0.092	0.461	0.058	-85.938
-0.532	-0.257	-0.078	-0.432	0.031	-0.028	0.423	0.193	0.055	0.421	0.379	0.229	0.557	0.155	-0.420	-0.324	-0.087	0.043	-0.025	-0.415	-0.307	-0.137	-0.571	0.240	0.190	0.009	0.571	0.189	-82.031
-0.607	-0.238	-0.072	-0.434	0.019	-0.087	0.415	0.285	0.069	0.464	0.483	0.344	0.521	0.078	-0.470	-0.354	-0.071	0.009	-0.063	-0.478	-0.412	-0.234	-0.561	0.222	0.188	0.086	0.649	0.303	-78.125
-0.645	-0.177	-0.032	-0.410	-0.003	-0.143	0.395	0.374	0.090	0.490	0.574	0.446	0.449	-0.022	-0.491	-0.359	-0.043	0.009	-0.093	-0.531	-0.522	-0.330	-0.545	0.188	0.150	0.127	0.680	0.384	-74.219
-0.640	-0.080	0.037	-0.366	-0.029	-0.188	0.364	0.457	0.123	0.497	0.645	0.519	0.339	-0.139	-0.481	-0.337	-0.008	0.041	-0.111	-0.568	-0.626	-0.418	-0.527	0.139	0.082	0.128	0.656	0.423	-70.312
-0.599	0.036	0.124	-0.310	-0.052	-0.213	0.325	0.532	0.174	0.486	0.696	0.554	0.199	-0.260	-0.450	-0.292	0.029	0.098	-0.118	-0.588	-0.718	-0.493	-0.512	0.081	-0.004	0.093	0.579	0.417	-66.406
-0.534	0.152	0.210	-0.251	-0.066	-0.213	0.285	0.603	0.246	0.462	0.731	0.546	0.039	-0.370	-0.409	-0.229	0.061	0.164	-0.112	-0.589	-0.788	-0.546	-0.501	0.022	-0.092	0.033	0.460	0.372	-62.500
-0.467	0.250	0.275	-0.196	-0.063	-0.185	0.251	0.672	0.339	0.434	0.754	0.495	-0.125	-0.451	-0.375	-0.159	0.082	0.224	-0.096	-0.571	-0.830	-0.574	-0.489	-0.032	-0.166	-0.038	0.317	0.296	-58.594
-0.414	0.316	0.303	-0.147	-0.035	-0.133	0.233	0.743	0.448	0.410	0.771	0.407	-0.277	-0.491	-0.361	-0.091	0.089	0.265	-0.072	-0.536	-0.841	-0.572	-0.469	-0.071	-0.216	-0.109	0.169	0.199	-54.688
-0.390	0.345	0.282	-0.104	0.021	-0.058	0.236	0.813	0.561	0.395	0.785	0.289	-0.404	-0.482	-0.371	-0.033	0.084	0.278	-0.041	-0.485	-0.819	-0.540	-0.432	-0.094	-0.235	-0.173	0.033	0.091	-50.781
-0.397	0.342	0.212	-0.059	0.104	0.032	0.258	0.878	0.660	0.389	0.794	0.151	-0.494	-0.426	-0.403	0.013	0.072	0.263	-0.001	-0.422	-0.766	-0.483	-0.372	-0.098	-0.225	-0.230	-0.079	-0.022	-46.875
-0.428	0.320	0.103	-0.003	0.211	0.133	0.294	0.926	0.723	0.387	0.792	0.001	-0.544	-0.335	-0.447	0.048	0.060	0.225	0.047	-0.348	-0.687	-0.408	-0.288	-0.090	-0.194	-0.285	-0.161	-0.137	-42.969
-0.469	0.297	-0.028	0.072	0.332	0.240	0.333	0.945	0.734	0.380	0.771	-0.153	-0.556	-0.226	-0.485	0.075	0.058	0.177	0.104	-0.267	-0.590	-0.325	-0.188	-0.073	-0.154	-0.342	-0.213	-0.249	-39.062
-0.502	0.291	-0.156	0.171	0.459	0.348	0.362	0.922	0.680	0.359	0.724	-0.303	-0.536	-0.120	-0.503	0.102	0.071	0.130	0.167	-0.182	-0.484	-0.246	-0.082	-0.057	-0.117	-0.404	-0.240	-0.354	-35.156
-0.510	0.314	-0.260	0.291	0.580	0.451	0.371	0.852	0.562	0.317	0.647	-0.440	-0.495	-0.034	-0.487	0.132	0.102	0.097	0.229	-0.099	-0.379	-0.185	0.014	-0.045	-0.094	-0.468	-0.245	-0.445	-31.250
-0.484	0.368	-0.320	0.423	0.681	0.545	0.352	0.734	0.393	0.254	0.542	-0.554	-0.443	0.020	-0.435	0.166	0.146	0.085	0.282	-0.026	-0.288	-0.152	0.083	-0.041	-0.094	-0.528	-0.234	-0.511	-27.344
-0.426	0.442	-0.325	0.550	0.753	0.621	0.309	0.579	0.196	0.174	0.420	-0.635	-0.390	0.037	-0.353	0.201	0.196	0.094	0.316	0.028	-0.222	-0.154	0.116	-0.042	-0.115	-0.571	-0.207	-0.545	-23.438
-0.347	0.516	-0.274	0.651	0.787	0.674	0.249	0.403	0.004	0.091	0.297	-0.672	-0.340	0.021	-0.254	0.227	0.238	0.121	0.322	0.054	-0.189	-0.194	0.106	-0.044	-0.153	-0.586	-0.166	-0.539	-19.531
-0.263	0.563	-0.177	0.705	0.775	0.695	0.185	0.229	-0.153	0.020	0.190	-0.657	-0.295	-0.016	-0.158	0.235	0.260	0.154	0.296	0.042	-0.192	-0.265	0.056	-0.040	-0.198	-0.565	-0.108	-0.489	-15.625
-0.194	0.557	-0.053	0.695	0.717	0.679	0.133	0.078	-0.249	-0.023	0.118	-0.587	-0.253	-0.059	-0.082	0.217	0.257	0.182	0.242	-0.008	-0.232	-0.356	-0.024	-0.023	-0.239	-0.508	-0.033	-0.399	-11.719
-0.154	0.482	0.075	0.615	0.614	0.624	0.103	-0.030	-0.271	-0.026	0.095	-0.467	-0.212	-0.092	-0.037	0.170	0.229	0.194	0.168	-0.093	-0.299	-0.454	-0.118	0.007	-0.269	-0.423	0.055	-0.278	-7.812
-0.151	0.335	0.182	0.470	0.475	0.534	0.104	-0.087	-0.220	0.013	0.125	-0.312	-0.168	-0.103	-0.028	0.101	0.184	0.182	0.092	-0.200	-0.382	-0.541	-0.211	0.051	-0.285	-0.330	0.151	-0.146	-3.906
-0.181	0.130	0.252	0.282	0.313	0.417	0.134	-0.090	-0.114	0.091	0.203	-0.145	-0.119	-0.085	-0.047	0.021	0.138	0.143	0.032	-0.311	-0.468	-0.605	-0.287	0.101	-0.292	-0.251	0.244	-0.026	0.000
-0.230	-0.101	0.279	0.082	0.146	0.286	0.188	-0.051	0.020	0.193	0.316	0.005	-0.069	-0.040	-0.080	-0.050	0.112	0.081	0.008	-0.406	-0.544	-0.635	-0.333	0.147	-0.297	-0.212	0.320	0.058	3.906
-0.278	-0.318	0.269	-0.094	-0.005	0.161	0.252	0.013	0.147	0.299	0.443	0.112	-0.020	0.026	-0.108	-0.093	0.123	0.004	0.033	-0.465	-0.601	-0.630	-0.342	0.180	-0.313	-0.233	0.363	0.084	7.812
-0.303	-0.476	0.240	-0.209	-0.121	0.057	0.310	0.082	0.236	0.388	0.559	0.154	0.017	0.097	-0.113	-0.090	0.182	-0.072	0.110	-0.477	-0.636	-0.592	-0.312	0.189	-0.348	-0.326	0.362	0.039	11.719
-0.287	-0.536	0.214	-0.235	-0.189	-0.009	0.347	0.136	0.261	0.439	0.644	0.119	0.032	0.160	-0.081	-0.033	0.292	-0.135	0.234	-0.436	-0.650	-0.532	-0.248	0.169	-0.409	-0.489	0.311	-0.078	15.625
-0.217	-0.478	0.215	-0.160	-0.201	-0.027	0.350	0.157	0.208	0.439	0.682	0.013	0.015	0.200	-0.005	0.079	0.445	-0.173	0.390	-0.347	-0.649	-0.463	-0.157	0.119	-0.492	-0.708	0.213	-0.255	19.531
-0.092	-0.298	0.261	0.012	-0.160	0.005	0.313	0.139	0.077	0.381	0.667	-0.151	-0.042	0.206	0.111	0.237	0.627	-0.180	0.558	-0.224	-0.640	-0.398	-0.051	0.044	-0.587	-0.957	0.077	-0.470	23.438
0.076	-0.016	0.357	0.256	-0.079	0.082	0.236	0.078	-0.118	0.271	0.605	-0.347	-0.143	0.174	0.258	0.421	0.814	-0.158	0.713	-0.086	-0.633	-0.351	0.057	-0.045	-0.679	-1.202	-0.077	-0.691	27.344
0.266	0.329	0.496	0.536	0.023	0.194	0.128	-0.016	-0.351	0.126	0.511	-0.546	-0.281	0.106	0.414	0.609	0.982	-0.116	0.835	0.043	-0.636	-0.331	0.153	-0.135	-0.748	-1.404	-0.223	-0.883	31.250
0.444	0.686	0.654	0.808	0.124	0.324	0.004	-0.127	-0.585	-0.032	0.412	-0.721	-0.446	0.007	0.554	0.772	1.109	-0.069	0.909	0.141	-0.653	-0.342	0.227	-0.211	-0.771	-1.523	-0.337	-1.012	35.156
0.569	0.997	0.798	1.025	0.200	0.453	-0.116	-0.235	-0.778	-0.171	0.340	-0.847	-0.620	-0.112	0.649	0.887	1.174	-0.035	0.926	0.191	-0.686	-0.383	0.272	-0.259	-0.731	-1.527	-0.390	-1.053	39.062
0.601	1.210	0.887	1.152	0.232	0.560	-0.208	-0.313	-0.884	-0.257	0.331	-0.909	-0.782	-0.238	0.666	0.931	1.166	-0.036	0.884	0.179	-0.738	-0.451	0.282	-0.267	-0.616	-1.388	-0.361	-0.984	42.969
0.502	1.282	0.883	1.166	0.207	0.623	-0.253	-0.337	-0.859	-0.259	0.421	-0.899	-0.913	-0.358	0.577	0.889	1.076	-0.091	0.789	0.102	-0.805	-0.538	0.256	-0.225	-0.422	-1.092	-0.233	-0.795	46.875
0.243	1.187	0.752	1.056	0.118	0.624	-0.231	-0.283	-0.665	-0.149	0.643	-0.810	-0.995	-0.462	0.356	0.750	0.900	-0.221	0.647	-0.040	-0.888	-0.638	0.195	-0.126	-0.154	-0.637	0.005	-0.482	50.781
-0.193	0.916	0.474	0.829	-0.032	0.549	-0.133	-0.137	-0.275	0.096	1.024	-0.638	-1.014	-0.542	-0.013	0.510	0.640	-0.438	0.464	-0.242	-0.985	-0.745	0.098	0.033	0.176	-0.031	0.358	-0.043	54.688
-0.806	0.476	0.039	0.500	-0.235	0.393	0.046	0.108	0.324	0.487	1.580	-0.378	-0.962	-0.593	-0.538	0.171	0.299	-0.752	0.244	-0.498	-1.097	-0.854	-0.034	0.254	0.551	0.705	0.826	0.521	58.594
-1.585	-0.113	-0.546	0.090	-0.478	0.156	0.301	0.451	1.128	1.026	2.316	-0.019	-0.834	-0.614	-1.215	-0.263	-0.118	-1.163	-0.013	-0.801	-1.227	-0.965	-0.203	0.536	0.954	1.546	1.403	1.213	62.500
-2.505	-0.819	-1.262	-0.379	-0.748	-0.152	0.619	0.882	2.114	1.704	3.224	0.451	-0.631	-0.612	-2.031	-0.785	-0.607	-1.663	-0.310	-1.147	-1.377	-1.080	-0.413	0.875	1.370	2.463	2.079	2.035	66.406
-3.532	-1.608	-2.078	-0.885	-1.031	-0.515	0.981	1.384	3.248	2.499	4.283	1.038	-0.364	-0.594	-2.961	-1.383	-1.161	-2.236	-0.654	-1.533	-1.552	-1.204	-0.669	1.263	1.789	3.434	2.840	2.995	70.312
-4.629	-2.441	-2.957	-1.412	-1.318	-0.909	1.367	1.937	4.481	3.378	5.454	1.746	-0.045	-0.572	-3.974	-2.045	-1.772	-2.858	-1.048	-1.957	-1.755	-1.344	-0.972	1.689	2.204	4.445	3.666	4.095	74.219
-5.755	-3.284	-3.855	-1.948	-1.602	-1.310	1.753	2.521	5.762	4.301	6.690	2.560	0.305	-0.559	-5.033	-2.752	-2.427	-3.497	-1.492	-2.415	-1.992	-1.504	-1.319	2.137	2.611	5.486	4.532	5.328	78.125
-6.873	-4.107	-4.731	-2.485	-1.880	-1.696	2.120	3.115	7.040	5.224	7.932	3.456	0.664	-0.568	-6.102	-3.483	-3.109	-4.124	-1.980	-2.901	-2.263	-1.689	-1.700	2.589	3.012	6.557	5.408	6.672	82.031
-7.949	-4.885	-5.548	-3.017	-2.155	-2.049	2.453	3.701	8.273	6.106	9.124	4.393	1.009	-0.606	-7.143	-4.214	-3.796	-4.711	-2.493	-3.408	-2.568	-1.895	-2.097	3.026	3.407	7.654	6.262	8.085	85.938
-8.957	-5.602	-6.278	-3.540	-2.426	-2.357	2.744	4.265	9.426	6.912	10.214	5.325	1.322	-0.679	-8.124	-4.921	-4.464	-5.238	-3.008	-3.924	-2.900	-2.116	-2.488	3.431	3.799	8.772	7.064	9.509	89.844
-9.877	-6.249	-6.906	-4.052	-2.696	-2.617	2.990	4.796	10.479	7.619	11.164	6.206	1.592	-0.782	-9.020	-5.585	-5.087	-5.695	-3.499	-4.439	-3.251	-2.339	-2.845	3.791	4.193	9.897	7.785	10.871	93.750
-10.695	-6.823	-7.430	-4.548	-2.966	-2.833	3.195	5.287	11.420	8.213	11.951	7.000	1.816	-0.909	-9.815	-6.190	-5.646	-6.082	-3.942	-4.945	-3.608	-2.550	-3.143	4.099	4.596	11.007	8.403	12.100	97.656
-11.402	-7.325	-7.857	-5.021	-3.231	-3.014	3.366	5.734	12.242	8.696	12.572	7.681	2.000	-1.047	-10.496	-6.728	-6.129	-6.407	-4.318	-5.433	-3.960	-2.734	-3.360	4.351	5.014	12.072	8.906	13.133	101.562
-11.992	-7.761	-8.201	-5.464	-3.487	-3.170	3.508	6.134	12.940	9.075	13.036	8.244	2.151	-1.182	-11.059	-7.198	-6.530	-6.680	-4.619	-5.897	-4.294	-2.880	-3.486	4.551	5.450	13.053	9.288	13.926	105.469
-12.463	-8.137	-8.478	-5.869	-3.722	-3.313	3.628	6.485	13.510	9.363	13.367	8.699	2.281	-1.303	-11.503	-7.606	-6.857	-6.912	-4.849	-6.331	-4.600	-2.985	-3.519	4.702	5.903	13.913	9.551	14.459	109.375
-12.815	-8.459	-8.703	-6.232	-3.928	-3.450	3.730	6.786	13.944	9.578	13.596	9.070	2.395	-1.402	-11.832	-7.958	-7.122	-7.107	-5.021	-6.729	-4.872	-3.054	-3.472	4.811	6.363	14.615	9.704	14.743	113.281
-13.050	-8.736	-8.893	-6.548	-4.096	-3.590	3.816	7.035	14.242	9.738	13.759	9.396	2.496	-1.476	-12.055	-8.262	-7.341	-7.270	-5.154	-7.086	-5.110	-3.100	-3.369	4.879	6.817	15.138	9.761	14.818	117.188
-13.182	-8.977	-9.059	-6.822	-4.228	-3.736	3.888	7.232	14.408	9.862	13.897	9.718	2.578	-1.529	-12.189	-8.531	-7.534	-7.400	-5.272	-7.402	-5.317	-3.141	-3.242	4.910	7.251	15.478	9.742	14.748	121.094
-13.233	-9.198	-9.218	-7.062	-4.331	-3.893	3.945	7.380	14.460	9.970	14.051	10.082	2.632	-1.573	-12.258	-8.775	-7.721	-7.500	-5.398	-7.679	-5.503	-3.200	-3.125	4.905	7.652	15.662	9.674	14.618	125.000
-13.237	-9.414	-9.382	-7.282	-4.420	-4.064	3.989	7.484	14.430	10.084	14.264	10.528	2.645	-1.625	-12.298	-9.012	-7.919	-7.575	-5.552	-7.927	-5.685	-3.300	-3.051	4.864	8.017	15.738	9.587	14.520	128.906
-13.236	-9.642	-9.569	-7.498	-4.518	-4.252	4.021	7.554	14.364	10.225	14.568	11.085	2.605	-1.704	-12.347	-9.255	-8.143	-7.639	-5.747	-8.159	-5.881	-3.457	-3.046	4.794	8.350	15.780	9.517	14.543	132.812
-13.279	-9.896	-9.792	-7.723	-4.647	-4.460	4.043	7.607	14.316	10.410	14.991	11.771	2.504	-1.833	-12.444	-9.519	-8.404	-7.712	-5.994	-8.389	-6.110	-3.683	-3.126	4.700	8.668	15.869	9.496	14.760	136.719
-13.407	-10.185	-10.063	-7.966	-4.827	-4.689	4.056	7.661	14.342	10.653	15.544	12.581	2.336	-2.029	-12.625	-9.813	-8.708	-7.816	-6.294	-8.631	-6.387	-3.980	-3.296	4.594	8.992	16.084	9.554	15.218	140.625
-13.654	-10.509	-10.387	-8.231	-5.069	-4.940	4.062	7.739	14.493	10.959	16.224	13.497	2.105	-2.305	-12.912	-10.137	-9.059	-7.974	-6.644	-8.891	-6.723	-4.341	-3.550	4.489	9.346	16.487	9.711	15.933	144.531
-14.034	-10.860	-10.764	-8.516	-5.375	-5.211	4.061	7.857	14.804	11.324	17.012	14.481	1.819	-2.667	-13.314	-10.486	-9.453	-8.205	-7.035	-9.169	-7.118	-4.753	-3.872	4.399	9.751	17.115	9.976	16.888	148.438
-14.544	-11.224	-11.186	-8.816	-5.736	-5.497	4.054	8.027	15.289	11.737	17.878	15.487	1.488	-3.109	-13.829	-10.848	-9.884	-8.517	-7.455	-9.458	-7.567	-5.197	-4.238	4.337	10.219	17.976	10.345	18.040	152.344
-15.166	-11.589	-11.639	-9.122	-6.135	-5.793	4.041	8.249	15.941	12.181	18.779	16.461	1.127	-3.617	-14.437	-11.208	-10.344	-8.908	-7.891	-9.748	-8.055	-5.651	-4.620	4.315	10.754	19.047	10.805	19.326	156.250
-15.865	-11.942	-12.105	-9.427	-6.551	-6.089	4.027	8.517	16.732	12.634	19.672	17.354	0.752	-4.168	-15.113	-11.553	-10.818	-9.365	-8.330	-10.030	-8.563	-6.094	-4.987	4.342	11.350	20.282	11.333	20.673	160.156
-16.604	-12.278	-12.566	-9.722	-6.960	-6.373	4.017	8.817	17.618	13.074	20.513	18.120	0.378	-4.735	-15.827	-11.875	-11.293	-9.863	-8.755	-10.298	-9.070	-6.501	-5.310	4.420	11.988	21.615	11.901	22.006	164.062
-17.339	-12.593	-13.005	-10.001	-7.339	-6.630	4.018	9.127	18.544	13.479	21.261	18.722	0.020	-5.285	-16.544	-12.168	-11.751	-10.367	-9.150	-10.550	-9.552	-6.853	-5.566	4.549	12.640	22.973	12.477	23.253	167.969
-18.031	-12.886	-13.404	-10.255	-7.670	-6.846	4.036	9.427	19.450	13.829	21.881	19.134	-0.306	-5.787	-17.232	-12.431	-12.171	-10.840	-9.499	-10.786	-9.984	-7.131	-5.741	4.722	13.271	24.274	13.031	24.352	171.875
-18.643	-13.155	-13.749	-10.473	-7.934	-7.007	4.077	9.693	20.273	14.108	22.343	19.342	-0.588	-6.212	-17.856	-12.663	-12.534	-11.243	-9.784	-11.002	-10.344	-7.322	-5.827	4.928	13.844	25.442	13.531	25.250	175.781
-19.145	-13.390	-14.022	-10.644	-8.118	-7.102	4.141	9.905	20.957	14.298	22.625	19.340	-0.818	-6.538	-18.383	-12.857	-12.817	-11.544	-9.983	-11.193	-10.611	-7.416	-5.827	5.151	14.321	26.407	13.949	25.906	179.688
-19.511	-13.576	-14.207	-10.751	-8.213	-7.121	4.224	10.045	21.452	14.387	22.711	19.130	-0.993	-6.754	-18.784	-13.003	-12.996	-11.717	-10.080	-11.346	-10.772	-7.406	-5.747	5.371	14.670	27.111	14.258	26.291	183.594
-19.720	-13.690	-14.288	-10.778	-8.213	-7.059	4.312	10.099	21.717	14.361	22.592	18.721	-1.117	-6.856	-19.031	-13.084	-13.051	-11.749	-10.058	-11.445	-10.820	-7.294	-5.601	5.570	14.868	27.511	14.438	26.390	187.500
-19.758	-13.705	-14.250	-10.711	-8.117	-6.915	4.390	10.057	21.726	14.210	22.269	18.130	-1.203	-6.854	-19.099	-13.081	-12.967	-11.635	-9.911	-11.472	-10.759	-7.087	-5.402	5.726	14.905	27.581	14.472	26.196	191.406
-19.616	-13.597	-14.083	-10.540	-7.930	-6.694	4.439	9.917	21.468	13.926	21.748	17.380	-1.265	-6.762	-18.976	-12.974	-12.736	-11.380	-9.639	-11.414	-10.600	-6.798	-5.161	5.825	14.787	27.318	14.349	25.722	195.312
-19.294	-13.348	-13.782	-10.263	-7.661	-6.405	4.438	9.683	20.949	13.508	21.041	16.496	-1.319	-6.604	-18.656	-12.752	-12.360	-10.994	-9.255	-11.261	-10.362	-6.446	-4.887	5.853	14.531	26.739	14.068	24.991	199.219
-18.799	-12.955	-13.354	-9.892	-7.325	-6.062	4.372	9.366	20.193	12.961	20.167	15.507	-1.383	-6.403	-18.147	-12.410	-11.851	-10.495	-8.779	-11.016	-10.067	-6.049	-4.586	5.807	14.165	25.882	13.636	24.039	203.125
-18.147	-12.428	-12.814	-9.446	-6.943	-5.682	4.234	8.984	19.237	12.294	19.153	14.446	-1.465	-6.182	-17.468	-11.956	-11.232	-9.903	-8.240	-10.690	-9.740	-5.631	-4.261	5.686	13.724	24.801	13.068	22.915	207.031
-17.361	-11.793	-12.187	-8.953	-6.537	-5.286	4.023	8.559	18.131	11.528	18.027	13.345	-1.572	-5.961	-16.648	-11.411	-10.534	-9.242	-7.668	-10.304	-9.401	-5.214	-3.919	5.495	13.245	23.565	12.386	21.675	210.938
-16.471	-11.089	-11.505	-8.444	-6.132	-4.894	3.747	8.112	16.933	10.687	16.823	12.234	-1.703	-5.753	-15.726	-10.806	-9.794	-8.539	-7.095	-9.884	-9.067	-4.816	-3.563	5.244	12.763	22.251	11.621	20.378	214.844
-15.512	-10.360	-10.802	-7.951	-5.751	-4.524	3.417	7.667	15.698	9.801	15.580	11.143	-1.850	-5.565	-14.744	-10.179	-9.053	-7.821	-6.552	-9.459	-8.751	-4.455	-3.202	4.948	12.307	20.934	10.807	19.083	218.750
-14.522	-9.650	-10.112	-7.499	-5.411	-4.192	3.051	7.240	14.484	8.903	14.338	10.101	-2.002	-5.401	-13.748	-9.567	-8.349	-7.117	-6.064	-9.059	-8.460	-4.145	-2.846	4.624	11.902	19.688	9.980	17.845	222.656
-13.542	-8.998	-9.464	-7.102	-5.124	-3.911	2.666	6.845	13.337	8.027	13.138	9.135	-2.144	-5.258	-12.779	-9.009	-7.717	-6.454	-5.650	-8.708	-8.200	-3.898	-2.508	4.290	11.564	18.572	9.177	16.710	226.562
-12.610	-8.431	-8.877	-6.770	-4.898	-3.685	2.278	6.491	12.296	7.203	12.018	8.265	-2.263	-5.135	-11.878	-8.535	-7.184	-5.855	-5.324	-8.423	-7.976	-3.719	-2.205	3.965	11.303	17.631	8.431	15.714	230.469
-11.759	-7.966	-8.361	-6.502	-4.730	-3.518	1.899	6.182	11.390	6.455	11.011	7.510	-2.345	-5.029	-11.073	-8.166	-6.767	-5.336	-5.092	-8.214	-7.790	-3.612	-1.952	3.665	11.122	16.894	7.770	14.882	234.375
-11.015	-7.605	-7.913	-6.294	-4.619	-3.408	1.539	5.919	10.634	5.804	10.143	6.880	-2.385	-4.940	-10.388	-7.910	-6.472	-4.911	-4.955	-8.083	-7.644	-3.575	-1.765	3.403	11.019	16.369	7.216	14.226	238.281
-10.394	-7.345	-7.524	-6.141	-4.557	-3.348	1.207	5.705	10.040	5.261	9.431	6.381	-2.384	-4.868	-9.835	-7.766	-6.296	-4.583	-4.909	-8.024	-7.540	-3.604	-1.655	3.186	10.986	16.051	6.781	13.747	242.188
-9.906	-7.173	-7.180	-6.038	-4.538	-3.332	0.909	5.545	9.609	4.831	8.883	6.013	-2.348	-4.815	-9.421	-7.723	-6.230	-4.352	-4.945	-8.029	-7.478	-3.691	-1.627	3.019	11.016	15.924	6.469	13.441	246.094
-9.554	-7.078	-6.873	-5.984	-4.557	-3.353	0.654	5.446	9.340	4.517	8.502	5.771	-2.292	-4.786	-9.145	-7.765	-6.257	-4.215	-5.055	-8.089	-7.462	-3.827	-1.678	2.899	11.100	15.961	6.276	13.296	250.000
-9.338	-7.050	-6.599	-5.980	-4.610	-3.402	0.448	5.416	9.227	4.317	8.284	5.647	-2.231	-4.785	-9.005	-7.874	-6.361	-4.161	-5.227	-8.196	-7.493	-4.003	-1.793	2.825	11.233	16.135	6.194	13.293	253.906
-9.254	-7.081	-6.362	-6.030	-4.695	-3.473	0.301	5.464	9.260	4.225	8.220	5.630	-2.181	-4.815	-8.993	-8.033	-6.526	-4.176	-5.449	-8.343	-7.574	-4.206	-1.952	2.791	11.412	16.417	6.212	13.414	257.812
-9.294	-7.167	-6.174	-6.134	-4.807	-3.557	0.219	5.592	9.424	4.232	8.293	5.703	-2.154	-4.877	-9.099	-8.227	-6.734	-4.245	-5.709	-8.525	-7.705	-4.424	-2.129	2.794	11.634	16.775	6.315	13.631	261.719
-9.446	-7.303	-6.048	-6.293	-4.943	-3.647	0.207	5.798	9.694	4.328	8.480	5.850	-2.155	-4.968	-9.307	-8.443	-6.970	-4.347	-5.990	-8.737	-7.883	-4.642	-2.296	2.830	11.898	17.178	6.488	13.915	265.625
-9.690	-7.484	-5.995	-6.497	-5.094	-3.735	0.264	6.072	10.043	4.495	8.751	6.048	-2.181	-5.080	-9.595	-8.671	-7.216	-4.467	-6.274	-8.973	-8.098	-4.844	-2.429	2.896	12.193	17.592	6.717	14.229	269.531
-10.001	-7.701	-6.021	-6.734	-5.252	-3.814	0.386	6.397	10.435	4.714	9.071	6.275	-2.223	-5.201	-9.937	-8.899	-7.458	-4.588	-6.541	-9.220	-8.336	-5.015	-2.508	2.991	12.505	17.982	6.983	14.536	273.438
-10.349	-7.940	-6.123	-6.984	-5.403	-3.876	0.562	6.751	10.833	4.966	9.407	6.508	-2.261	-5.314	-10.303	-9.117	-7.678	-4.702	-6.771	-9.466	-8.574	-5.139	-2.522	3.112	12.813	18.315	7.268	14.802	277.344
-10.701	-8.184	-6.286	-7.221	-5.534	-3.917	0.777	7.109	11.200	5.230	9.723	6.724	-2.277	-5.401	-10.663	-9.311	-7.863	-4.807	-6.945	-9.691	-8.788	-5.201	-2.470	3.257	13.091	18.561	7.555	14.996	281.250
-11.022	-8.414	-6.489	-7.419	-5.633	-3.931	1.016	7.444	11.504	5.485	9.993	6.903	-2.251	-5.447	-10.987	-9.471	-8.000	-4.905	-7.051	-9.876	-8.949	-5.194	-2.363	3.421	13.312	18.699	7.824	15.095	285.156
-11.283	-8.607	-6.701	-7.555	-5.688	-3.916	1.259	7.733	11.719	5.714	10.193	7.031	-2.168	-5.441	-11.252	-9.585	-8.084	-5.000	-7.083	-10.002	-9.036	-5.118	-2.216	3.594	13.453	18.717	8.059	15.086	289.062
-11.461	-8.745	-6.891	-7.610	-5.691	-3.872	1.490	7.954	11.831	5.903	10.309	7.097	-2.023	-5.376	-11.438	-9.644	-8.113	-5.099	-7.044	-10.052	-9.034	-4.978	-2.051	3.767	13.494	18.612	8.243	14.967	292.969
-11.543	-8.815	-7.030	-7.577	-5.641	-3.800	1.694	8.092	11.836	6.040	10.334	7.099	-1.818	-5.252	-11.533	-9.643	-8.089	-5.203	-6.942	-10.016	-8.936	-4.788	-1.893	3.928	13.425	18.392	8.364	14.746	296.875
-11.526	-8.809	-7.098	-7.456	-5.542	-3.705	1.857	8.140	11.737	6.119	10.269	7.040	-1.568	-5.075	-11.532	-9.582	-8.019	-5.311	-6.791	-9.892	-8.750	-4.566	-1.758	4.065	13.249	18.073	8.415	14.442	300.781
-11.415	-8.728	-7.086	-7.261	-5.402	-3.594	1.973	8.099	11.550	6.137	10.123	6.930	-1.291	-4.857	-11.441	-9.467	-7.911	-5.416	-6.603	-9.686	-8.493	-4.334	-1.656	4.168	12.978	17.680	8.395	14.078	304.688
-11.227	-8.584	-7.000	-7.013	-5.237	-3.478	2.036	7.978	11.295	6.097	9.907	6.783	-1.013	-4.612	-11.271	-9.306	-7.774	-5.511	-6.394	-9.413	-8.189	-4.111	-1.588	4.231	12.636	17.244	8.311	13.684	308.594
-10.984	-8.395	-6.856	-6.738	-5.064	-3.368	2.047	7.794	10.993	6.006	9.641	6.613	-0.759	-4.357	-11.044	-9.112	-7.617	-5.585	-6.174	-9.093	-7.864	-3.913	-1.548	4.255	12.258	16.795	8.175	13.288	312.500
-10.716	-8.182	-6.681	-6.465	-4.899	-3.278	2.012	7.572	10.672	5.874	9.345	6.438	-0.546	-4.105	-10.785	-8.902	-7.449	-5.635	-5.954	-8.749	-7.545	-3.752	-1.522	4.243	11.878	16.364	8.004	12.916	316.406
-10.449	-7.968	-6.505	-6.218	-4.757	-3.217	1.942	7.340	10.353	5.718	9.043	6.271	-0.386	-3.866	-10.520	-8.692	-7.279	-5.657	-5.743	-8.406	-7.253	-3.630	-1.496	4.205	11.531	15.975	7.817	12.588	320.312
-10.210	-7.775	-6.354	-6.016	-4.647	-3.189	1.852	7.126	10.058	5.553	8.757	6.123	-0.279	-3.648	-10.275	-8.495	-7.117	-5.656	-5.549	-8.084	-6.998	-3.545	-1.460	4.153	11.243	15.645	7.635	12.316	324.219
-10.016	-7.615	-6.247	-5.868	-4.572	-3.194	1.759	6.955	9.799	5.398	8.505	6.001	-0.214	-3.450	-10.064	-8.324	-6.968	-5.640	-5.379	-7.799	-6.786	-3.491	-1.405	4.096	11.030	15.379	7.471	12.102	328.125
-9.878	-7.495	-6.192	-5.774	-4.526	-3.222	1.680	6.842	9.580	5.265	8.300	5.906	-0.177	-3.271	-9.894	-8.184	-6.835	-5.618	-5.240	-7.559	-6.614	-3.456	-1.330	4.047	10.894	15.174	7.332	11.935	332.031
-9.794	-7.412	-6.187	-5.723	-4.500	-3.257	1.627	6.791	9.395	5.163	8.144	5.836	-0.148	-3.105	-9.763	-8.072	-6.719	-5.601	-5.134	-7.365	-6.471	-3.427	-1.237	4.010	10.829	15.016	7.219	11.797	335.938
-9.752	-7.354	-6.221	-5.697	-4.477	-3.284	1.607	6.795	9.232	5.092	8.031	5.785	-0.111	-2.949	-9.660	-7.981	-6.618	-5.596	-5.061	-7.209	-6.346	-3.390	-1.131	3.989	10.817	14.882	7.122	11.660	339.844
-9.731	-7.308	-6.275	-5.678	-4.445	-3.286	1.621	6.840	9.073	5.048	7.948	5.745	-0.055	-2.796	-9.572	-7.902	-6.528	-5.608	-5.014	-7.077	-6.224	-3.332	-1.016	3.985	10.839	14.751	7.032	11.494	343.750
-9.709	-7.260	-6.329	-5.649	-4.390	-3.250	1.664	6.905	8.904	5.020	7.874	5.705	0.027	-2.643	-9.484	-7.820	-6.446	-5.638	-4.986	-6.956	-6.093	-3.242	-0.894	3.996	10.875	14.599	6.935	11.269	347.656
-9.664	-7.199	-6.366	-5.599	-4.308	-3.173	1.727	6.967	8.713	4.995	7.790	5.654	0.137	-2.489	-9.388	-7.725	-6.369	-5.681	-4.963	-6.829	-5.944	-3.113	-0.763	4.021	10.911	14.415	6.822	10.966	351.562
-9.583	-7.122	-6.376	-5.528	-4.200	-3.060	1.798	7.010	8.502	4.963	7.676	5.582	0.273	-2.333	-9.282	-7.611	-6.294	-5.729	-4.934	-6.687	-5.771	-2.941	-0.620	4.061	10.940	14.198	6.694	10.578	355.469
-9.469	-7.034	-6.361	-5.443	-4.074	-2.922	1.867	7.026	8.280	4.918	7.522	5.483	0.431	-2.178	-9.173	-7.479	-6.221	-5.772	-4.887	-6.529	-5.578	-2.727	-0.463	4.121	10.963	13.967	6.559	10.123	359.375
-9.343	-6.951	-6.335	-5.363	-3.946	-2.779	1.928	7.018	8.071	4.859	7.329	5.356	0.607	-2.028	-9.080	-7.342	-6.156	-5.802	-4.816	-6.362	-5.374	-2.477	-0.289	4.206	10.990	13.756	6.440	9.638	363.281
-9.243	-6.901	-6.322	-5.316	-3.834	-2.653	1.978	7.002	7.913	4.799	7.115	5.205	0.797	-1.889	-9.034	-7.222	-6.106	-5.816	-4.724	-6.207	-5.176	-2.204	-0.101	4.326	11.039	13.619	6.366	9.186	367.188
-9.223	-6.917	-6.355	-5.331	-3.760	-2.568	2.024	7.002	7.845	4.754	6.908	5.044	0.997	-1.770	-9.069	-7.152	-6.089	-5.818	-4.622	-6.090	-5.004	-1.924	0.094	4.487	11.132	13.618	6.372	8.842	371.094
-9.334	-7.035	-6.465	-5.437	-3.743	-2.542	2.072	7.048	7.909	4.749	6.750	4.899	1.200	-1.679	-9.224	-7.166	-6.122	-5.817	-4.531	-6.044	-4.883	-1.656	0.288	4.695	11.294	13.813	6.488	8.685	375.000
-9.617	-7.283	-6.675	-5.657	-3.796	-2.590	2.130	7.165	8.131	4.805	6.681	4.802	1.399	-1.627	-9.526	-7.296	-6.224	-5.831	-4.474	-6.099	-4.834	-1.422	0.465	4.947	11.546	14.247	6.733	8.781	378.906
-10.086	-7.672	-6.993	-6.001	-3.926	-2.718	2.204	7.369	8.518	4.937	6.736	4.788	1.581	-1.621	-9.982	-7.557	-6.409	-5.873	-4.474	-6.273	-4.872	-1.240	0.612	5.233	11.896	14.931	7.108	9.168	382.812
-10.718	-8.192	-7.404	-6.458	-4.130	-2.920	2.290	7.654	9.045	5.145	6.931	4.895	1.735	-1.666	-10.570	-7.946	-6.677	-5.954	-4.547	-6.568	-5.001	-1.124	0.718	5.536	12.339	15.835	7.589	9.843	386.719
-11.452	-8.808	-7.873	-7.000	-4.395	-3.184	2.380	7.997	9.654	5.417	7.258	5.147	1.848	-1.758	-11.237	-8.435	-7.017	-6.074	-4.694	-6.964	-5.213	-1.077	0.776	5.829	12.846	16.881	8.129	10.754	390.625
-12.197	-9.462	-8.344	-7.581	-4.699	-3.485	2.459	8.354	10.266	5.722	7.685	5.550	1.914	-1.885	-11.905	-8.972	-7.397	-6.222	-4.903	-7.420	-5.485	-1.096	0.781	6.080	13.370	17.951	8.665	11.804	394.531
-12.845	-10.085	-8.752	-8.142	-5.011	-3.794	2.512	8.669	10.791	6.023	8.159	6.086	1.934	-2.030	-12.479	-9.489	-7.776	-6.376	-5.145	-7.882	-5.785	-1.167	0.737	6.260	13.849	18.899	9.126	12.857	398.438
-13.294	-10.600	-9.034	-8.621	-5.297	-4.075	2.530	8.887	11.145	6.281	8.612	6.706	1.919	-2.164	-12.871	-9.916	-8.107	-6.509	-5.385	-8.289	-6.070	-1.272	0.652	6.345	14.213	19.582	9.445	13.763	402.344
-13.465	-10.947	-9.139	-8.963	-5.518	-4.295	2.511	8.964	11.270	6.459	8.974	7.337	1.887	-2.257	-13.009	-10.192	-8.346	-6.592	-5.583	-8.586	-6.298	-1.386	0.539	6.323	14.399	19.874	9.573	14.375	406.250
-13.322	-11.082	-9.041	-9.125	-5.643	-4.423	2.466	8.880	11.143	6.535	9.182	7.882	1.866	-2.276	-12.861	-10.276	-8.458	-6.601	-5.706	-8.727	-6.429	-1.488	0.414	6.198	14.361	19.700	9.489	14.579	410.156
-12.871	-10.990	-8.742	-9.087	-5.645	-4.440	2.411	8.640	10.782	6.495	9.186	8.241	1.883	-2.193	-12.431	-10.151	-8.427	-6.521	-5.730	-8.690	-6.432	-1.555	0.297	5.989	14.078	19.044	9.201	14.308	414.062
-12.166	-10.684	-8.271	-8.849	-5.509	-4.334	2.369	8.275	10.238	6.343	8.957	8.324	1.963	-1.988	-11.766	-9.829	-8.250	-6.353	-5.644	-8.468	-6.285	-1.571	0.204	5.732	13.560	17.955	8.748	13.560	417.969
-11.294	-10.199	-7.674	-8.433	-5.236	-4.111	2.358	7.831	9.578	6.090	8.490	8.068	2.120	-1.658	-10.942	-9.344	-7.944	-6.105	-5.449	-8.079	-5.986	-1.525	0.151	5.464	12.843	16.539	8.188	12.394	421.875
-10.355	-9.587	-7.012	-7.877	-4.842	-3.789	2.391	7.363	8.877	5.757	7.807	7.457	2.353	-1.214	-10.050	-8.745	-7.535	-5.798	-5.159	-7.553	-5.546	-1.417	0.146	5.225	11.987	14.940	7.591	10.926	425.781
-9.447	-8.908	-6.338	-7.232	-4.358	-3.398	2.468	6.921	8.194	5.367	6.952	6.530	2.646	-0.687	-9.178	-8.085	-7.055	-5.454	-4.795	-6.935	-4.997	-1.252	0.188	5.040	11.061	13.308	7.017	9.305	429.688
-8.647	-8.217	-5.699	-6.555	-3.826	-2.973	2.578	6.539	7.567	4.947	5.991	5.375	2.969	-0.125	-8.393	-7.416	-6.536	-5.093	-4.383	-6.273	-4.382	-1.049	0.270	4.916	10.134	11.775	6.512	7.690	433.594
-7.992	-7.558	-5.120	-5.897	-3.292	-2.551	2.702	6.233	7.000	4.516	5.000	4.114	3.276	0.417	-7.727	-6.776	-6.004	-4.725	-3.947	-5.614	-3.754	-0.828	0.377	4.838	9.261	10.424	6.091	6.216	437.500
-7.479	-6.955	-4.605	-5.297	-2.796	-2.160	2.810	5.997	6.473	4.090	4.050	2.883	3.523	0.885	-7.178	-6.185	-5.473	-4.350	-3.508	-4.992	-3.164	-0.615	0.493	4.771	8.473	9.279	5.736	4.974	441.406
-7.065	-6.412	-4.141	-4.773	-2.367	-1.817	2.874	5.807	5.943	3.672	3.199	1.800	3.667	1.237	-6.706	-5.644	-4.945	-3.959	-3.077	-4.425	-2.652	-0.429	0.602	4.668	7.772	8.303	5.408	3.992	445.312
-6.685	-5.915	-3.699	-4.321	-2.014	-1.528	2.869	5.629	5.359	3.261	2.478	0.942	3.683	1.451	-6.253	-5.136	-4.412	-3.537	-2.655	-3.914	-2.238	-0.287	0.692	4.482	7.139	7.416	5.051	3.242	449.219
-6.267	-5.440	-3.249	-3.919	-1.730	-1.285	2.782	5.426	4.683	2.849	1.895	0.338	3.565	1.529	-5.763	-4.635	-3.864	-3.076	-2.238	-3.441	-1.923	-0.192	0.756	4.178	6.538	6.529	4.615	2.652	453.125
-5.761	-4.960	-2.770	-3.536	-1.495	-1.079	2.615	5.167	3.899	2.432	1.433	-0.032	3.331	1.495	-5.194	-4.114	-3.293	-2.580	-1.819	-2.981	-1.689	-0.140	0.792	3.749	5.933	5.572	4.073	2.138	457.031
-5.151	-4.463	-2.262	-3.139	-1.283	-0.896	2.384	4.837	3.026	2.014	1.065	-0.222	3.019	1.391	-4.543	-3.559	-2.706	-2.067	-1.393	-2.509	-1.504	-0.119	0.802	3.216	5.302	4.522	3.433	1.628	460.938
-4.465	-3.951	-1.745	-2.710	-1.070	-0.732	2.118	4.439	2.111	1.609	0.764	-0.297	2.680	1.269	-3.843	-2.972	-2.119	-1.573	-0.964	-2.010	-1.334	-0.110	0.790	2.628	4.644	3.416	2.738	1.087	464.844
-3.766	-3.444	-1.262	-2.247	-0.839	-0.587	1.853	3.992	1.226	1.239	0.510	-0.317	2.368	1.176	-3.158	-2.376	-1.565	-1.143	-0.542	-1.484	-1.149	-0.094	0.760	2.052	3.982	2.337	2.056	0.522	468.750
-3.135	-2.975	-0.863	-1.767	-0.586	-0.468	1.624	3.530	0.444	0.934	0.293	-0.324	2.133	1.152	-2.568	-1.806	-1.079	-0.826	-0.145	-0.947	-0.930	-0.057	0.719	1.561	3.354	1.394	1.467	-0.023	472.656
-2.652	-2.579	-0.597	-1.300	-0.318	-0.383	1.462	3.091	-0.170	0.719	0.116	-0.334	2.011	1.221	-2.142	-1.301	-0.694	-0.656	0.207	-0.423	-0.670	0.014	0.675	1.213	2.805	0.687	1.039	-0.490	476.562
-2.368	-2.285	-0.494	-0.878	-0.050	-0.341	1.382	2.710	-0.580	0.611	-0.012	-0.346	2.019	1.388	-1.924	-0.895	-0.430	-0.653	0.501	0.058	-0.376	0.123	0.634	1.046	2.372	0.279	0.813	-0.824	480.469
-2.302	-2.104	-0.562	-0.534	0.200	-0.344	1.387	2.414	-0.782	0.614	-0.083	-0.349	2.155	1.642	-1.921	-0.609	-0.289	-0.813	0.727	0.472	-0.063	0.271	0.605	1.063	2.077	0.180	0.792	-0.993	484.375
-2.428	-2.032	-0.780	-0.285	0.416	-0.388	1.465	2.213	-0.799	0.715	-0.092	-0.330	2.399	1.959	-2.103	-0.445	-0.256	-1.108	0.888	0.802	0.249	0.449	0.598	1.241	1.923	0.349	0.947	-0.995	488.281
-2.692	-2.048	-1.109	-0.139	0.586	-0.464	1.592	2.103	-0.677	0.889	-0.043	-0.283	2.717	2.305	-2.413	-0.386	-0.300	-1.491	0.997	1.044	0.542	0.647	0.620	1.532	1.893	0.701	1.214	-0.861	492.188
-3.018	-2.120	-1.490	-0.087	0.704	-0.559	1.737	2.067	-0.474	1.099	0.052	-0.216	3.064	2.644	-2.780	-0.404	-0.383	-1.905	1.071	1.206	0.797	0.853	0.678	1.873	1.960	1.134	1.521	-0.642	496.094
-3.329	-2.211	-1.864	-0.111	0.772	-0.660	1.867	2.079	-0.245	1.304	0.168	-0.147	3.393	2.944	-3.133	-0.462	-0.464	-2.292	1.133	1.303	1.006	1.056	0.778	2.202	2.090	1.550	1.792	-0.400	500.000
-3.561	-2.287	-2.175	-0.187	0.798	-0.754	1.952	2.110	-0.036	1.464	0.278	-0.106	3.661	3.180	-3.414	-0.523	-0.509	-2.599	1.205	1.357	1.162	1.244	0.921	2.465	2.245	1.874	1.967	-0.193	503.906
-3.675	-2.323	-2.380	-0.287	0.794	-0.831	1.971	2.135	0.121	1.549	0.353	-0.124	3.831	3.336	-3.588	-0.560	-0.494	-2.789	1.300	1.389	1.268	1.410	1.101	2.626	2.395	2.066	2.012	-0.063	507.812
-3.660	-2.305	-2.456	-0.387	0.771	-0.883	1.914	2.138	0.215	1.539	0.372	-0.226	3.881	3.407	-3.646	-0.556	-0.411	-2.846	1.426	1.412	1.327	1.546	1.308	2.670	2.519	2.126	1.920	-0.030	511.719
-3.535	-2.235	-2.400	-0.471	0.740	-0.907	1.784	2.115	0.254	1.433	0.325	-0.423	3.806	3.399	-3.603	-0.509	-0.271	-2.777	1.576	1.435	1.345	1.647	1.523	2.604	2.605	2.089	1.714	-0.086	515.625
-3.339	-2.130	-2.229	-0.528	0.706	-0.905	1.599	2.077	0.262	1.250	0.220	-0.704	3.618	3.327	-3.493	-0.435	-0.099	-2.611	1.731	1.454	1.327	1.707	1.721	2.453	2.656	2.014	1.442	-0.198	519.531
-3.126	-2.011	-1.977	-0.560	0.671	-0.880	1.386	2.041	0.272	1.024	0.081	-1.038	3.348	3.212	-3.364	-0.358	0.067	-2.395	1.865	1.460	1.276	1.722	1.876	2.254	2.682	1.968	1.160	-0.316	523.438
-2.946	-1.907	-1.689	-0.575	0.634	-0.838	1.177	2.030	0.319	0.799	-0.053	-1.374	3.036	3.074	-3.265	-0.304	0.190	-2.185	1.947	1.438	1.198	1.687	1.961	2.047	2.699	2.008	0.927	-0.388	527.344
-2.839	-1.839	-1.409	-0.585	0.592	-0.784	1.007	2.064	0.430	0.621	-0.141	-1.656	2.726	2.936	-3.233	-0.298	0.235	-2.034	1.951	1.377	1.099	1.604	1.959	1.865	2.720	2.165	0.788	-0.366	531.250
-2.825	-1.819	-1.176	-0.602	0.543	-0.726	0.901	2.153	0.616	0.528	-0.144	-1.832	2.459	2.813	-3.289	-0.352	0.182	-1.980	1.862	1.272	0.987	1.474	1.860	1.732	2.752	2.439	0.764	-0.228	535.156
-2.897	-1.844	-1.009	-0.634	0.490	-0.667	0.872	2.292	0.868	0.541	-0.039	-1.869	2.265	2.715	-3.428	-0.464	0.032	-2.044	1.678	1.130	0.874	1.308	1.672	1.656	2.793	2.795	0.851	0.022	539.062
-3.028	-1.899	-0.914	-0.682	0.437	-0.609	0.918	2.465	1.157	0.659	0.175	-1.759	2.157	2.641	-3.625	-0.617	-0.199	-2.216	1.417	0.964	0.771	1.116	1.415	1.627	2.831	3.168	1.016	0.350	542.969
-3.174	-1.959	-0.874	-0.738	0.392	-0.552	1.023	2.643	1.441	0.856	0.474	-1.524	2.130	2.588	-3.834	-0.785	-0.476	-2.464	1.109	0.796	0.688	0.917	1.122	1.626	2.849	3.485	1.209	0.700	546.875
-3.285	-1.995	-0.859	-0.788	0.364	-0.497	1.157	2.794	1.670	1.091	0.812	-1.213	2.165	2.545	-4.005	-0.933	-0.755	-2.739	0.794	0.652	0.632	0.729	0.835	1.624	2.833	3.676	1.371	1.004	550.781
-3.314	-1.979	-0.837	-0.814	0.358	-0.442	1.285	2.891	1.796	1.308	1.131	-0.888	2.231	2.503	-4.090	-1.031	-0.992	-2.984	0.516	0.555	0.606	0.569	0.593	1.594	2.771	3.690	1.449	1.199	554.688
-3.230	-1.895	-0.773	-0.800	0.377	-0.387	1.374	2.911	1.785	1.456	1.368	-0.616	2.293	2.454	-4.054	-1.056	-1.147	-3.148	0.310	0.519	0.609	0.453	0.431	1.517	2.662	3.511	1.409	1.238	558.594
-3.019	-1.736	-0.646	-0.734	0.420	-0.334	1.394	2.848	1.622	1.491	1.471	-0.455	2.322	2.394	-3.880	-0.998	-1.196	-3.193	0.203	0.550	0.638	0.390	0.370	1.385	2.514	3.153	1.235	1.103	562.500
-2.686	-1.509	-0.445	-0.616	0.478	-0.284	1.331	2.707	1.313	1.389	1.406	-0.440	2.292	2.324	-3.571	-0.860	-1.131	-3.105	0.203	0.644	0.684	0.381	0.414	1.201	2.341	2.661	0.939	0.801	566.406
-2.257	-1.232	-0.178	-0.451	0.542	-0.239	1.182	2.505	0.888	1.149	1.168	-0.583	2.196	2.245	-3.151	-0.657	-0.962	-2.891	0.301	0.785	0.739	0.420	0.553	0.981	2.160	2.100	0.553	0.369	570.312
-1.766	-0.928	0.140	-0.254	0.601	-0.200	0.960	2.269	0.388	0.789	0.775	-0.866	2.034	2.166	-2.657	-0.413	-0.714	-2.579	0.472	0.955	0.796	0.493	0.759	0.747	1.988	1.541	0.124	-0.137	574.219
-1.254	-0.621	0.481	-0.043	0.647	-0.167	0.687	2.025	-0.135	0.349	0.266	-1.253	1.821	2.094	-2.133	-0.155	-0.423	-2.211	0.682	1.132	0.850	0.584	0.997	0.522	1.837	1.048	-0.300	-0.657	578.125
-0.759	-0.333	0.820	0.164	0.677	-0.137	0.393	1.799	-0.636	-0.128	-0.304	-1.694	1.580	2.038	-1.619	0.093	-0.126	-1.834	0.894	1.298	0.901	0.674	1.227	0.328	1.713	0.663	-0.673	-1.135	582.031
-0.309	-0.073	1.134	0.357	0.693	-0.107	0.109	1.608	-1.081	-0.594	-0.880	-2.140	1.338	2.005	-1.151	0.314	0.143	-1.492	1.075	1.442	0.954	0.750	1.415	0.179	1.615	0.403	-0.967	-1.532	585.938
0.080	0.153	1.408	0.529	0.702	-0.074	-0.140	1.459	-1.452	-1.011	-1.413	-2.549	1.122	2.004	-0.747	0.498	0.362	-1.215	1.205	1.561	1.016	0.803	1.535	0.080	1.536	0.260	-1.166	-1.830	589.844
0.402	0.353	1.635	0.681	0.714	-0.035	-0.334	1.351	-1.748	-1.353	-1.868	-2.894	0.955	2.038	-0.415	0.647	0.522	-1.020	1.279	1.662	1.095	0.831	1.576	0.028	1.467	0.202	-1.275	-2.033	593.750
0.662	0.533	1.816	0.819	0.737	0.009	-0.467	1.274	-1.982	-1.607	-2.222	-3.164	0.851	2.108	-0.151	0.770	0.627	-0.906	1.304	1.754	1.199	0.840	1.542	0.014	1.394	0.189	-1.309	-2.160	597.656
0.869	0.703	1.957	0.948	0.774	0.055	-0.542	1.214	-2.172	-1.773	-2.469	-3.360	0.819	2.210	0.054	0.879	0.692	-0.859	1.300	1.847	1.329	0.838	1.449	0.027	1.309	0.179	-1.289	-2.237	601.562
1.032	0.870	2.064	1.071	0.824	0.098	-0.570	1.160	-2.331	-1.861	-2.613	-3.491	0.854	2.332	0.211	0.985	0.735	-0.857	1.287	1.947	1.477	0.837	1.321	0.055	1.205	0.143	-1.239	-2.291	605.469
1.162	1.033	2.143	1.189	0.878	0.130	-0.568	1.105	-2.465	-1.884	-2.664	-3.570	0.944	2.458	0.327	1.096	0.774	-0.877	1.283	2.054	1.629	0.841	1.184	0.089	1.081	0.070	-1.175	-2.336	609.375
1.260	1.189	2.200	1.298	0.922	0.146	-0.555	1.049	-2.570	-1.859	-2.634	-3.606	1.068	2.568	0.407	1.211	0.823	-0.899	1.298	2.159	1.761	0.851	1.062	0.119	0.943	-0.037	-1.109	-2.376	613.281
1.330	1.327	2.238	1.391	0.943	0.142	-0.546	1.000	-2.627	-1.798	-2.536	-3.603	1.198	2.640	0.452	1.325	0.883	-0.910	1.329	2.249	1.848	0.861	0.968	0.140	0.796	-0.162	-1.047	-2.404	617.188
1.370	1.439	2.260	1.463	0.931	0.120	-0.552	0.974	-2.616	-1.711	-2.380	-3.562	1.307	2.655	0.458	1.429	0.949	-0.904	1.367	2.308	1.866	0.857	0.907	0.144	0.651	-0.283	-0.992	-2.409	621.094
1.383	1.515	2.273	1.506	0.878	0.085	-0.579	0.984	-2.517	-1.607	-2.175	-3.476	1.371	2.600	0.428	1.510	1.011	-0.881	1.395	2.319	1.797	0.826	0.873	0.125	0.514	-0.383	-0.948	-2.377	625.000
1.373	1.552	2.283	1.518	0.784	0.044	-0.624	1.046	-2.318	-1.488	-1.930	-3.345	1.376	2.469	0.365	1.561	1.054	-0.845	1.399	2.274	1.638	0.753	0.853	0.077	0.386	-0.455	-0.920	-2.305	628.906
1.348	1.546	2.298	1.495	0.657	0.006	-0.681	1.163	-2.024	-1.359	-1.656	-3.170	1.321	2.273	0.278	1.576	1.069	-0.799	1.371	2.172	1.396	0.633	0.830	-0.007	0.267	-0.502	-0.916	-2.198	632.812
1.321	1.502	2.326	1.438	0.507	-0.022	-0.739	1.332	-1.659	-1.223	-1.366	-2.960	1.216	2.029	0.183	1.557	1.050	-0.745	1.310	2.020	1.093	0.471	0.793	-0.129	0.152	-0.540	-0.945	-2.076	636.719
1.305	1.427	2.370	1.347	0.350	-0.035	-0.787	1.540	-1.258	-1.088	-1.076	-2.734	1.080	1.767	0.097	1.508	0.997	-0.681	1.223	1.831	0.761	0.278	0.735	-0.287	0.035	-0.590	-1.016	-1.964	640.625
1.312	1.329	2.433	1.228	0.200	-0.031	-0.816	1.770	-0.869	-0.960	-0.804	-2.515	0.940	1.519	0.041	1.435	0.916	-0.608	1.126	1.622	0.437	0.077	0.657	-0.474	-0.089	-0.673	-1.134	-1.892	644.531
1.350	1.221	2.511	1.085	0.073	-0.009	-0.819	2.000	-0.535	-0.848	-0.565	-2.325	0.819	1.317	0.028	1.346	0.817	-0.522	1.032	1.410	0.156	-0.106	0.570	-0.680	-0.220	-0.805	-1.296	-1.886	648.438
1.420	1.112	2.595	0.926	-0.021	0.027	-0.793	2.214	-0.295	-0.756	-0.372	-2.181	0.736	1.184	0.063	1.247	0.709	-0.428	0.955	1.206	-0.059	-0.249	0.488	-0.887	-0.356	-0.989	-1.489	-1.958	652.344
1.514	1.012	2.675	0.758	-0.079	0.069	-0.737	2.398	-0.168	-0.687	-0.233	-2.090	0.704	1.131	0.141	1.141	0.598	-0.330	0.899	1.018	-0.194	-0.336	0.423	-1.076	-0.488	-1.214	-1.693	-2.104	656.250
1.619	0.926	2.740	0.591	-0.103	0.109	-0.656	2.545	-0.155	-0.637	-0.148	-2.044	0.729	1.156	0.246	1.029	0.487	-0.241	0.862	0.846	-0.254	-0.358	0.387	-1.228	-0.607	-1.454	-1.878	-2.302	660.156
1.719	0.855	2.780	0.431	-0.103	0.134	-0.555	2.654	-0.237	-0.601	-0.107	-2.028	0.808	1.241	0.357	0.911	0.372	-0.175	0.834	0.685	-0.255	-0.322	0.383	-1.324	-0.696	-1.673	-2.015	-2.514	664.062
1.798	0.797	2.789	0.280	-0.095	0.130	-0.444	2.729	-0.379	-0.568	-0.098	-2.016	0.934	1.363	0.448	0.783	0.245	-0.146	0.801	0.528	-0.223	-0.242	0.407	-1.350	-0.744	-1.834	-2.077	-2.694	667.969
1.844	0.744	2.767	0.141	-0.098	0.084	-0.333	2.775	-0.537	-0.531	-0.102	-1.986	1.092	1.490	0.500	0.646	0.099	-0.165	0.749	0.367	-0.184	-0.136	0.452	-1.298	-0.738	-1.901	-2.044	-2.802	671.875
1.851	0.688	2.718	0.010	-0.128	-0.010	-0.235	2.802	-0.670	-0.480	-0.103	-1.921	1.267	1.598	0.500	0.498	-0.071	-0.233	0.668	0.198	-0.164	-0.026	0.510	-1.170	-0.676	-1.853	-1.915	-2.808	675.781
1.825	0.622	2.649	-0.113	-0.197	-0.153	-0.159	2.814	-0.742	-0.416	-0.088	-1.816	1.439	1.664	0.449	0.346	-0.263	-0.344	0.555	0.023	-0.176	0.072	0.574	-0.976	-0.561	-1.691	-1.701	-2.704	679.688
1.780	0.542	2.570	-0.228	-0.307	-0.336	-0.115	2.816	-0.734	-0.342	-0.052	-1.684	1.588	1.680	0.358	0.201	-0.469	-0.479	0.418	-0.148	-0.225	0.146	0.639	-0.738	-0.408	-1.437	-1.434	-2.510	683.594
1.738	0.454	2.489	-0.332	-0.450	-0.540	-0.109	2.809	-0.646	-0.270	-0.004	-1.550	1.698	1.645	0.251	0.079	-0.668	-0.614	0.272	-0.299	-0.300	0.192	0.707	-0.485	-0.237	-1.133	-1.157	-2.269	687.500
1.722	0.368	2.419	-0.417	-0.609	-0.743	-0.145	2.792	-0.495	-0.218	0.040	-1.449	1.754	1.570	0.161	0.000	-0.834	-0.720	0.140	-0.409	-0.383	0.214	0.781	-0.252	-0.077	-0.838	-0.918	-2.037	691.406
1.757	0.302	2.371	-0.470	-0.757	-0.917	-0.221	2.762	-0.314	-0.206	0.054	-1.418	1.748	1.469	0.118	-0.015	-0.939	-0.770	0.044	-0.456	-0.449	0.221	0.864	-0.071	0.046	-0.611	-0.764	-1.875	695.312
1.858	0.276	2.355	-0.482	-0.868	-1.042	-0.334	2.715	-0.142	-0.251	0.009	-1.485	1.679	1.363	0.151	0.048	-0.958	-0.746	0.007	-0.422	-0.477	0.227	0.960	0.030	0.110	-0.504	-0.730	-1.833	699.219
2.033	0.303	2.379	-0.444	-0.920	-1.102	-0.476	2.650	-0.019	-0.367	-0.119	-1.665	1.554	1.268	0.277	0.195	-0.875	-0.639	0.040	-0.297	-0.448	0.241	1.068	0.037	0.101	-0.546	-0.832	-1.938	703.125
2.278	0.392	2.450	-0.355	-0.900	-1.093	-0.638	2.568	0.026	-0.557	-0.343	-1.958	1.387	1.198	0.498	0.422	-0.689	-0.457	0.146	-0.084	-0.354	0.273	1.181	-0.053	0.017	-0.743	-1.066	-2.191	707.031
2.578	0.540	2.567	-0.221	-0.809	-1.020	-0.808	2.473	-0.024	-0.812	-0.663	-2.341	1.197	1.163	0.804	0.709	-0.417	-0.218	0.313	0.199	-0.200	0.325	1.295	-0.227	-0.134	-1.071	-1.405	-2.564	710.938
2.912	0.733	2.723	-0.059	-0.664	-0.899	-0.973	2.371	-0.165	-1.114	-1.056	-2.776	1.002	1.164	1.170	1.029	-0.092	0.047	0.517	0.525	0.001	0.394	1.399	-0.459	-0.334	-1.486	-1.807	-3.007	714.844
3.248	0.945	2.905	0.107	-0.490	-0.752	-1.117	2.273	-0.373	-1.428	-1.482	-3.213	0.823	1.199	1.556	1.344	0.242	0.305	0.727	0.856	0.226	0.472	1.486	-0.714	-0.560	-1.930	-2.216	-3.461	718.750
3.550	1.146	3.090	0.253	-0.319	-0.607	-1.225	2.191	-0.607	-1.714	-1.887	-3.598	0.677	1.258	1.919	1.615	0.536	0.523	0.908	1.154	0.448	0.547	1.551	-0.957	-0.786	-2.342	-2.576	-3.861	722.656
3.780	1.305	3.248	0.353	-0.184	-0.491	-1.283	2.137	-0.819	-1.930	-2.209	-3.877	0.577	1.331	2.211	1.810	0.747	0.676	1.028	1.383	0.638	0.608	1.589	-1.150	-0.986	-2.666	-2.837	-4.153	726.562
3.907	1.395	3.350	0.387	-0.109	-0.428	-1.280	2.118	-0.956	-2.036	-2.389	-4.008	0.534	1.405	2.393	1.901	0.842	0.744	1.063	1.517	0.775	0.646	1.601	-1.267	-1.139	-2.861	-2.959	-4.294	730.469
3.906	1.396	3.367	0.346	-0.110	-0.436	-1.211	2.140	-0.981	-2.006	-2.388	-3.965	0.550	1.467	2.433	1.878	0.804	0.722	1.001	1.545	0.842	0.657	1.589	-1.290	-1.227	-2.899	-2.922	-4.265	734.375
3.770	1.306	3.282	0.230	-0.194	-0.525	-1.081	2.198	-0.875	-1.831	-2.188	-3.741	0.625	1.507	2.319	1.744	0.637	0.613	0.846	1.468	0.834	0.641	1.557	-1.215	-1.236	-2.774	-2.724	-4.061	738.281
3.511	1.132	3.090	0.051	-0.355	-0.692	-0.904	2.282	-0.645	-1.528	-1.807	-3.352	0.750	1.515	2.063	1.518	0.363	0.432	0.616	1.301	0.755	0.601	1.511	-1.053	-1.158	-2.494	-2.383	-3.698	742.188
3.155	0.895	2.802	-0.174	-0.580	-0.927	-0.704	2.371	-0.326	-1.132	-1.290	-2.832	0.909	1.488	1.694	1.229	0.018	0.197	0.339	1.068	0.617	0.543	1.456	-0.821	-0.992	-2.083	-1.933	-3.206	746.094
2.742	0.622	2.443	-0.420	-0.853	-1.213	-0.510	2.441	0.027	-0.696	-0.706	-2.232	1.081	1.423	1.263	0.914	-0.352	-0.063	0.050	0.799	0.437	0.474	1.398	-0.548	-0.743	-1.577	-1.418	-2.624	750.000
2.318	0.340	2.046	-0.667	-1.151	-1.527	-0.350	2.468	0.351	-0.277	-0.130	-1.606	1.247	1.323	0.825	0.608	-0.705	-0.324	-0.217	0.523	0.236	0.399	1.344	-0.263	-0.422	-1.016	-0.886	-1.995	753.906
1.921	0.074	1.650	-0.895	-1.454	-1.844	-0.243	2.437	0.592	0.075	0.368	-1.009	1.388	1.195	0.432	0.337	-1.003	-0.561	-0.437	0.265	0.029	0.322	1.296	0.009	-0.047	-0.443	-0.382	-1.364	757.812
1.581	-0.161	1.286	-1.095	-1.743	-2.142	-0.199	2.344	0.717	0.331	0.745	-0.480	1.495	1.049	0.122	0.117	-1.229	-0.757	-0.599	0.038	-0.168	0.243	1.258	0.244	0.354	0.105	0.062	-0.768	761.719
1.311	-0.360	0.976	-1.265	-2.000	-2.404	-0.210	2.204	0.729	0.485	0.990	-0.039	1.567	0.896	-0.094	-0.053	-1.381	-0.908	-0.708	-0.155	-0.350	0.161	1.229	0.432	0.753	0.597	0.428	-0.231	765.625
1.110	-0.532	0.728	-1.417	-2.216	-2.620	-0.254	2.049	0.666	0.563	1.134	0.318	1.615	0.753	-0.228	-0.186	-1.481	-1.018	-0.784	-0.323	-0.514	0.070	1.205	0.568	1.122	1.019	0.716	0.232	769.531
0.962	-0.692	0.534	-1.572	-2.385	-2.787	-0.295	1.927	0.594	0.615	1.237	0.621	1.654	0.631	-0.314	-0.306	-1.567	-1.108	-0.861	-0.483	-0.667	-0.036	1.178	0.656	1.438	1.365	0.941	0.624	773.438
0.841	-0.861	0.374	-1.755	-2.508	-2.912	-0.297	1.888	0.596	0.700	1.377	0.913	1.704	0.540	-0.399	-0.439	-1.683	-1.204	-0.976	-0.659	-0.818	-0.164	1.138	0.705	1.685	1.644	1.128	0.961	777.344
0.720	-1.063	0.225	-1.991	-2.592	-3.005	-0.226	1.975	0.747	0.879	1.634	1.243	1.780	0.488	-0.529	-0.611	-1.871	-1.335	-1.163	-0.870	-0.978	-0.320	1.073	0.728	1.862	1.875	1.307	1.266	781.250
0.573	-1.312	0.060	-2.298	-2.648	-3.082	-0.060	2.214	1.100	1.193	2.064	1.654	1.895	0.472	-0.740	-0.840	-2.163	-1.524	-1.444	-1.132	-1.156	-0.510	0.974	0.736	1.975	2.076	1.502	1.566	785.156
0.385	-1.616	-0.136	-2.682	-2.688	-3.155	0.204	2.603	1.665	1.656	2.688	2.167	2.049	0.488	-1.047	-1.131	-2.567	-1.782	-1.824	-1.451	-1.360	-0.731	0.840	0.740	2.041	2.270	1.732	1.882	789.062
0.154	-1.969	-0.369	-3.130	-2.724	-3.234	0.550	3.113	2.410	2.249	3.483	2.778	2.239	0.527	-1.444	-1.476	-3.068	-2.103	-2.288	-1.819	-1.587	-0.979	0.675	0.747	2.081	2.473	2.000	2.225	792.969
-0.110	-2.356	-0.634	-3.620	-2.764	-3.323	0.945	3.692	3.265	2.926	4.389	3.459	2.452	0.574	-1.901	-1.857	-3.631	-2.466	-2.804	-2.220	-1.832	-1.242	0.493	0.763	2.113	2.692	2.302	2.598	796.875
