FP1	F3	F7	FC3	C3	C5	P3	P7	PO7	PO3	O1	Oz	Pz	CPz	FP2	Fz	F4	F8	FC4	FCz	Cz	C4	C6	P4	P8	PO8	PO4	O2	time
-0.118	1.714	3.100	1.633	0.432	1.419	-0.349	-0.484	-1.163	-0.892	-1.065	-0.694	-1.321	-1.320	1.527	0.214	0.406	1.220	0.246	-0.418	-0.921	-0.097	0.480	-1.035	-0.391	-1.521	-1.702	-1.623	-199.219
0.370	1.513	2.740	1.454	0.404	1.087	-0.301	-0.553	-1.188	-0.746	-0.840	-0.676	-0.969	-0.923	1.224	0.377	0.276	0.823	0.172	-0.169	-0.633	-0.211	0.239	-1.041	-0.509	-1.476	-1.554	-1.446	-195.312
0.802	1.322	2.391	1.291	0.391	0.797	-0.232	-0.584	-1.169	-0.584	-0.596	-0.628	-0.625	-0.543	0.908	0.504	0.114	0.433	0.073	0.038	-0.366	-0.332	0.004	-1.040	-0.626	-1.424	-1.397	-1.261	-191.406
1.129	1.151	2.067	1.155	0.402	0.587	-0.130	-0.555	-1.079	-0.400	-0.327	-0.528	-0.297	-0.197	0.580	0.571	-0.099	0.060	-0.064	0.173	-0.136	-0.461	-0.215	-1.020	-0.734	-1.355	-1.223	-1.060	-187.500
1.320	1.007	1.782	1.049	0.442	0.476	0.008	-0.453	-0.906	-0.198	-0.037	-0.369	0.002	0.098	0.245	0.563	-0.368	-0.288	-0.245	0.220	0.045	-0.596	-0.413	-0.973	-0.821	-1.259	-1.028	-0.842	-183.594
1.373	0.891	1.550	0.971	0.502	0.463	0.171	-0.284	-0.655	0.012	0.261	-0.159	0.261	0.330	-0.087	0.481	-0.684	-0.602	-0.462	0.174	0.168	-0.729	-0.587	-0.891	-0.874	-1.127	-0.812	-0.609	-179.688
1.306	0.802	1.378	0.908	0.568	0.527	0.342	-0.072	-0.354	0.212	0.543	0.086	0.467	0.490	-0.402	0.337	-1.022	-0.873	-0.696	0.051	0.232	-0.847	-0.736	-0.768	-0.877	-0.949	-0.579	-0.365	-175.781
1.149	0.733	1.269	0.849	0.624	0.637	0.497	0.152	-0.041	0.382	0.783	0.338	0.615	0.576	-0.682	0.154	-1.348	-1.094	-0.924	-0.123	0.242	-0.937	-0.857	-0.606	-0.816	-0.723	-0.338	-0.119	-171.875
0.939	0.676	1.218	0.782	0.654	0.757	0.613	0.350	0.235	0.501	0.954	0.567	0.700	0.593	-0.907	-0.043	-1.623	-1.256	-1.117	-0.316	0.209	-0.986	-0.942	-0.406	-0.683	-0.451	-0.096	0.121	-167.969
0.707	0.623	1.207	0.701	0.647	0.855	0.671	0.487	0.434	0.559	1.034	0.749	0.726	0.551	-1.065	-0.230	-1.816	-1.354	-1.253	-0.495	0.144	-0.984	-0.984	-0.178	-0.480	-0.143	0.135	0.345	-164.062
0.475	0.566	1.214	0.605	0.599	0.908	0.665	0.543	0.527	0.550	1.017	0.870	0.700	0.463	-1.150	-0.390	-1.905	-1.388	-1.315	-0.636	0.059	-0.926	-0.970	0.067	-0.216	0.190	0.349	0.550	-160.156
0.256	0.499	1.210	0.496	0.515	0.908	0.600	0.515	0.506	0.485	0.908	0.929	0.637	0.345	-1.170	-0.516	-1.889	-1.362	-1.299	-0.728	-0.038	-0.815	-0.894	0.316	0.090	0.529	0.541	0.735	-156.250
0.053	0.415	1.164	0.378	0.407	0.854	0.494	0.420	0.387	0.381	0.730	0.936	0.553	0.211	-1.140	-0.612	-1.781	-1.287	-1.213	-0.774	-0.143	-0.661	-0.751	0.552	0.410	0.856	0.707	0.902	-152.344
-0.134	0.311	1.052	0.256	0.290	0.758	0.370	0.287	0.207	0.266	0.516	0.911	0.463	0.074	-1.081	-0.688	-1.611	-1.177	-1.072	-0.789	-0.256	-0.478	-0.548	0.761	0.713	1.150	0.844	1.053	-148.438
-0.308	0.184	0.860	0.134	0.180	0.638	0.256	0.157	0.011	0.168	0.303	0.876	0.384	-0.056	-1.014	-0.759	-1.412	-1.046	-0.902	-0.792	-0.377	-0.285	-0.299	0.927	0.968	1.389	0.952	1.187	-144.531
-0.469	0.036	0.586	0.015	0.091	0.512	0.177	0.065	-0.152	0.111	0.126	0.849	0.327	-0.171	-0.954	-0.838	-1.219	-0.907	-0.725	-0.804	-0.505	-0.100	-0.025	1.040	1.147	1.553	1.025	1.301	-140.625
-0.617	-0.128	0.243	-0.101	0.033	0.398	0.145	0.036	-0.246	0.111	0.009	0.841	0.298	-0.265	-0.909	-0.933	-1.056	-0.765	-0.565	-0.837	-0.634	0.061	0.251	1.094	1.231	1.627	1.062	1.385	-136.719
-0.751	-0.300	-0.144	-0.210	0.009	0.310	0.164	0.081	-0.251	0.169	-0.038	0.852	0.298	-0.333	-0.875	-1.041	-0.933	-0.624	-0.437	-0.891	-0.754	0.187	0.504	1.087	1.214	1.604	1.058	1.431	-132.812
-0.868	-0.466	-0.542	-0.309	0.017	0.254	0.221	0.188	-0.171	0.273	-0.021	0.876	0.319	-0.374	-0.844	-1.152	-0.849	-0.480	-0.348	-0.959	-0.852	0.273	0.718	1.023	1.104	1.487	1.013	1.429	-128.906
-0.962	-0.611	-0.913	-0.391	0.049	0.231	0.294	0.330	-0.028	0.399	0.040	0.895	0.351	-0.387	-0.803	-1.248	-0.788	-0.330	-0.295	-1.021	-0.913	0.318	0.881	0.911	0.920	1.290	0.924	1.373	-125.000
-1.025	-0.715	-1.225	-0.448	0.095	0.234	0.358	0.468	0.139	0.515	0.113	0.890	0.377	-0.373	-0.738	-1.306	-0.728	-0.171	-0.268	-1.054	-0.924	0.328	0.991	0.762	0.690	1.036	0.792	1.258	-121.094
-1.044	-0.760	-1.449	-0.475	0.142	0.250	0.384	0.562	0.284	0.588	0.166	0.841	0.381	-0.337	-0.637	-1.302	-0.643	-0.004	-0.250	-1.034	-0.874	0.311	1.052	0.589	0.447	0.753	0.620	1.083	-117.188
-1.008	-0.733	-1.568	-0.464	0.184	0.265	0.353	0.579	0.367	0.593	0.166	0.732	0.351	-0.282	-0.490	-1.220	-0.515	0.167	-0.223	-0.944	-0.762	0.280	1.070	0.405	0.218	0.465	0.411	0.847	-113.281
-0.905	-0.630	-1.578	-0.413	0.215	0.268	0.258	0.500	0.360	0.515	0.092	0.555	0.280	-0.213	-0.298	-1.051	-0.334	0.331	-0.172	-0.774	-0.590	0.247	1.056	0.222	0.030	0.195	0.174	0.556	-109.375
-0.731	-0.459	-1.487	-0.325	0.233	0.251	0.103	0.325	0.258	0.355	-0.062	0.314	0.168	-0.136	-0.069	-0.801	-0.104	0.477	-0.085	-0.530	-0.372	0.225	1.017	0.051	-0.104	-0.043	-0.080	0.222	-105.469
-0.491	-0.242	-1.315	-0.210	0.238	0.209	-0.095	0.074	0.073	0.128	-0.285	0.027	0.024	-0.055	0.181	-0.490	0.157	0.595	0.039	-0.226	-0.124	0.224	0.958	-0.098	-0.176	-0.241	-0.334	-0.132	-101.562
-0.200	-0.011	-1.093	-0.085	0.230	0.143	-0.312	-0.217	-0.158	-0.139	-0.548	-0.280	-0.139	0.026	0.426	-0.149	0.424	0.677	0.191	0.111	0.134	0.248	0.882	-0.218	-0.191	-0.395	-0.569	-0.478	-97.656
0.115	0.198	-0.854	0.031	0.206	0.055	-0.520	-0.505	-0.389	-0.411	-0.813	-0.572	-0.301	0.101	0.640	0.184	0.664	0.718	0.358	0.448	0.380	0.299	0.791	-0.305	-0.159	-0.507	-0.767	-0.784	-93.750
0.418	0.351	-0.628	0.116	0.162	-0.052	-0.695	-0.747	-0.570	-0.654	-1.038	-0.818	-0.446	0.167	0.801	0.474	0.848	0.722	0.520	0.753	0.596	0.371	0.685	-0.356	-0.099	-0.577	-0.909	-1.017	-89.844
0.670	0.426	-0.441	0.155	0.093	-0.176	-0.821	-0.907	-0.658	-0.838	-1.184	-0.988	-0.558	0.218	0.897	0.689	0.956	0.694	0.659	0.994	0.766	0.454	0.566	-0.370	-0.031	-0.606	-0.981	-1.154	-85.938
0.834	0.415	-0.310	0.141	-0.001	-0.311	-0.888	-0.966	-0.628	-0.940	-1.224	-1.067	-0.629	0.252	0.926	0.814	0.981	0.646	0.758	1.154	0.883	0.537	0.435	-0.351	0.025	-0.596	-0.976	-1.184	-82.031
0.883	0.326	-0.241	0.075	-0.119	-0.449	-0.895	-0.921	-0.475	-0.952	-1.149	-1.051	-0.656	0.271	0.896	0.847	0.930	0.590	0.807	1.221	0.943	0.607	0.295	-0.304	0.049	-0.551	-0.897	-1.111	-78.125
0.808	0.180	-0.232	-0.027	-0.250	-0.578	-0.847	-0.785	-0.215	-0.873	-0.967	-0.947	-0.640	0.278	0.825	0.799	0.823	0.535	0.803	1.198	0.949	0.652	0.150	-0.237	0.030	-0.475	-0.752	-0.951	-74.219
0.617	0.006	-0.274	-0.147	-0.379	-0.687	-0.750	-0.584	0.115	-0.714	-0.701	-0.773	-0.587	0.281	0.729	0.692	0.685	0.487	0.749	1.099	0.907	0.663	0.004	-0.161	-0.036	-0.378	-0.556	-0.728	-70.312
0.341	-0.169	-0.354	-0.264	-0.490	-0.761	-0.614	-0.351	0.469	-0.493	-0.385	-0.552	-0.503	0.286	0.621	0.552	0.547	0.447	0.655	0.942	0.827	0.635	-0.139	-0.087	-0.143	-0.268	-0.329	-0.469	-66.406
0.020	-0.326	-0.458	-0.361	-0.568	-0.793	-0.448	-0.117	0.801	-0.233	-0.058	-0.311	-0.395	0.298	0.509	0.404	0.433	0.413	0.539	0.752	0.718	0.568	-0.273	-0.023	-0.277	-0.154	-0.090	-0.200	-62.500
-0.297	-0.454	-0.571	-0.432	-0.607	-0.787	-0.262	0.090	1.070	0.040	0.244	-0.075	-0.271	0.319	0.398	0.270	0.363	0.378	0.419	0.554	0.591	0.468	-0.393	0.024	-0.416	-0.042	0.143	0.058	-58.594
-0.568	-0.554	-0.684	-0.480	-0.606	-0.752	-0.069	0.253	1.250	0.299	0.492	0.132	-0.138	0.345	0.287	0.164	0.350	0.338	0.313	0.369	0.457	0.346	-0.492	0.050	-0.538	0.063	0.355	0.287	-54.688
-0.761	-0.636	-0.790	-0.515	-0.577	-0.705	0.118	0.364	1.330	0.521	0.669	0.294	-0.003	0.368	0.176	0.095	0.393	0.289	0.239	0.216	0.326	0.218	-0.564	0.060	-0.618	0.161	0.536	0.477	-50.781
-0.861	-0.712	-0.885	-0.551	-0.532	-0.668	0.283	0.423	1.314	0.686	0.767	0.399	0.126	0.380	0.066	0.062	0.485	0.232	0.205	0.108	0.208	0.100	-0.603	0.059	-0.640	0.249	0.678	0.618	-46.875
-0.869	-0.789	-0.964	-0.597	-0.488	-0.655	0.414	0.439	1.216	0.783	0.789	0.441	0.238	0.373	-0.038	0.062	0.613	0.171	0.214	0.048	0.113	0.009	-0.604	0.056	-0.592	0.325	0.777	0.701	-42.969
-0.802	-0.867	-1.023	-0.658	-0.455	-0.675	0.497	0.422	1.055	0.804	0.745	0.420	0.325	0.339	-0.129	0.089	0.759	0.114	0.263	0.037	0.044	-0.046	-0.566	0.058	-0.475	0.384	0.831	0.720	-39.062
-0.686	-0.937	-1.054	-0.728	-0.441	-0.722	0.525	0.385	0.850	0.749	0.648	0.338	0.374	0.278	-0.195	0.138	0.907	0.073	0.342	0.068	0.004	-0.059	-0.490	0.070	-0.301	0.418	0.836	0.670	-35.156
-0.546	-0.981	-1.046	-0.793	-0.444	-0.783	0.494	0.338	0.616	0.624	0.513	0.199	0.377	0.189	-0.220	0.204	1.040	0.060	0.438	0.129	-0.012	-0.034	-0.383	0.089	-0.090	0.416	0.792	0.547	-31.250
-0.403	-0.977	-0.992	-0.833	-0.456	-0.835	0.407	0.287	0.364	0.440	0.352	0.012	0.325	0.078	-0.191	0.286	1.149	0.085	0.535	0.208	-0.010	0.015	-0.256	0.110	0.128	0.366	0.695	0.351	-27.344
-0.264	-0.908	-0.885	-0.829	-0.464	-0.853	0.272	0.234	0.103	0.210	0.179	-0.217	0.216	-0.048	-0.094	0.382	1.227	0.154	0.621	0.294	0.003	0.073	-0.125	0.118	0.322	0.258	0.547	0.089	-23.438
-0.126	-0.763	-0.725	-0.763	-0.453	-0.818	0.103	0.176	-0.163	-0.048	0.001	-0.476	0.054	-0.180	0.077	0.492	1.278	0.266	0.683	0.376	0.021	0.121	-0.005	0.099	0.457	0.085	0.347	-0.229	-19.531
0.025	-0.541	-0.516	-0.629	-0.411	-0.718	-0.085	0.104	-0.434	-0.318	-0.174	-0.755	-0.151	-0.306	0.320	0.616	1.307	0.417	0.718	0.453	0.043	0.143	0.087	0.041	0.509	-0.154	0.103	-0.587	-15.625
0.202	-0.256	-0.271	-0.428	-0.328	-0.550	-0.277	0.011	-0.710	-0.583	-0.342	-1.037	-0.384	-0.416	0.628	0.753	1.332	0.596	0.724	0.526	0.073	0.131	0.139	-0.067	0.461	-0.454	-0.178	-0.968	-11.719
0.412	0.070	-0.010	-0.176	-0.205	-0.327	-0.461	-0.110	-0.989	-0.829	-0.501	-1.309	-0.623	-0.502	0.980	0.897	1.368	0.792	0.710	0.599	0.114	0.085	0.147	-0.222	0.312	-0.799	-0.478	-1.350	-7.812
0.653	0.406	0.248	0.103	-0.049	-0.071	-0.625	-0.260	-1.271	-1.044	-0.646	-1.553	-0.847	-0.559	1.353	1.041	1.432	0.990	0.682	0.677	0.171	0.014	0.113	-0.415	0.073	-1.164	-0.778	-1.713	-3.906
0.910	0.719	0.480	0.377	0.125	0.189	-0.761	-0.433	-1.546	-1.219	-0.773	-1.754	-1.037	-0.589	1.716	1.173	1.530	1.176	0.649	0.760	0.240	-0.067	0.050	-0.625	-0.228	-1.519	-1.053	-2.033	0.000
1.164	0.977	0.669	0.609	0.291	0.420	-0.867	-0.618	-1.803	-1.348	-0.876	-1.900	-1.175	-0.598	2.038	1.275	1.657	1.338	0.619	0.841	0.312	-0.142	-0.024	-0.825	-0.554	-1.825	-1.276	-2.288	3.906
1.390	1.155	0.801	0.768	0.425	0.590	-0.942	-0.802	-2.026	-1.428	-0.949	-1.982	-1.253	-0.595	2.291	1.331	1.795	1.468	0.595	0.907	0.371	-0.192	-0.088	-0.989	-0.859	-2.047	-1.419	-2.458	7.812
1.566	1.236	0.870	0.830	0.502	0.677	-0.987	-0.966	-2.196	-1.458	-0.990	-1.997	-1.269	-0.587	2.449	1.324	1.917	1.564	0.579	0.941	0.397	-0.206	-0.120	-1.092	-1.102	-2.156	-1.462	-2.524	11.719
1.677	1.217	0.877	0.782	0.504	0.669	-1.006	-1.097	-2.300	-1.442	-0.998	-1.950	-1.227	-0.585	2.498	1.245	1.991	1.625	0.567	0.927	0.374	-0.178	-0.108	-1.121	-1.247	-2.135	-1.395	-2.476	15.625
1.715	1.106	0.827	0.627	0.423	0.571	-1.006	-1.182	-2.330	-1.386	-0.976	-1.849	-1.140	-0.592	2.436	1.095	1.997	1.658	0.559	0.855	0.292	-0.111	-0.044	-1.075	-1.273	-1.986	-1.223	-2.316	19.531
1.680	0.923	0.730	0.383	0.262	0.401	-0.992	-1.213	-2.284	-1.304	-0.930	-1.713	-1.026	-0.613	2.276	0.888	1.927	1.669	0.549	0.723	0.148	-0.013	0.063	-0.967	-1.178	-1.727	-0.966	-2.056	23.438
1.583	0.698	0.598	0.078	0.035	0.188	-0.972	-1.189	-2.170	-1.209	-0.868	-1.561	-0.906	-0.649	2.048	0.646	1.791	1.666	0.535	0.540	-0.047	0.097	0.196	-0.820	-0.978	-1.391	-0.659	-1.723	27.344
1.444	0.459	0.444	-0.253	-0.235	-0.037	-0.955	-1.111	-2.001	-1.115	-0.796	-1.414	-0.804	-0.704	1.790	0.399	1.616	1.653	0.514	0.324	-0.277	0.199	0.328	-0.665	-0.707	-1.024	-0.345	-1.354	31.250
1.288	0.234	0.286	-0.572	-0.518	-0.244	-0.948	-0.985	-1.792	-1.036	-0.716	-1.291	-0.738	-0.777	1.545	0.175	1.435	1.627	0.481	0.100	-0.518	0.271	0.430	-0.537	-0.405	-0.666	-0.071	-0.988	35.156
1.141	0.044	0.141	-0.849	-0.787	-0.408	-0.956	-0.815	-1.550	-0.974	-0.622	-1.202	-0.722	-0.870	1.346	-0.004	1.275	1.582	0.432	-0.107	-0.749	0.292	0.475	-0.462	-0.117	-0.353	0.127	-0.659	39.062
1.023	-0.106	0.022	-1.063	-1.017	-0.518	-0.978	-0.600	-1.273	-0.925	-0.502	-1.142	-0.764	-0.985	1.205	-0.129	1.149	1.503	0.358	-0.283	-0.952	0.243	0.439	-0.459	0.121	-0.097	0.225	-0.386	42.969
0.940	-0.218	-0.058	-1.207	-1.192	-0.570	-1.005	-0.339	-0.941	-0.872	-0.327	-1.093	-0.858	-1.122	1.114	-0.209	1.048	1.375	0.245	-0.426	-1.122	0.111	0.310	-0.536	0.288	0.113	0.221	-0.168	46.875
0.879	-0.313	-0.101	-1.290	-1.308	-0.575	-1.024	-0.021	-0.518	-0.788	-0.061	-1.019	-0.993	-1.285	1.038	-0.269	0.943	1.179	0.078	-0.550	-1.266	-0.112	0.078	-0.682	0.384	0.315	0.139	0.024	50.781
0.805	-0.417	-0.118	-1.335	-1.375	-0.551	-1.015	0.366	0.040	-0.639	0.343	-0.872	-1.152	-1.479	0.929	-0.351	0.792	0.902	-0.163	-0.686	-1.408	-0.429	-0.256	-0.878	0.431	0.567	0.021	0.237	54.688
0.669	-0.566	-0.132	-1.379	-1.415	-0.521	-0.962	0.835	0.778	-0.389	0.930	-0.603	-1.316	-1.711	0.733	-0.498	0.546	0.539	-0.496	-0.874	-1.580	-0.837	-0.685	-1.091	0.469	0.933	-0.075	0.534	58.594
0.417	-0.794	-0.178	-1.460	-1.457	-0.508	-0.850	1.394	1.730	-0.008	1.735	-0.163	-1.468	-1.990	0.401	-0.756	0.167	0.091	-0.935	-1.155	-1.819	-1.324	-1.196	-1.287	0.547	1.475	-0.084	0.978	62.500
0.003	-1.128	-0.288	-1.616	-1.532	-0.533	-0.677	2.040	2.900	0.518	2.774	0.479	-1.593	-2.320	-0.100	-1.154	-0.366	-0.430	-1.480	-1.561	-2.155	-1.872	-1.766	-1.427	0.716	2.233	0.050	1.623	66.406
-0.597	-1.583	-0.491	-1.874	-1.669	-0.615	-0.447	2.761	4.266	1.185	4.028	1.331	-1.685	-2.704	-0.779	-1.706	-1.049	-1.006	-2.121	-2.108	-2.607	-2.454	-2.367	-1.480	1.017	3.219	0.370	2.499	70.312
-1.382	-2.160	-0.803	-2.250	-1.889	-0.762	-0.180	3.527	5.767	1.967	5.450	2.379	-1.739	-3.137	-1.623	-2.399	-1.852	-1.610	-2.828	-2.787	-3.177	-3.035	-2.960	-1.421	1.472	4.408	0.897	3.609	74.219
-2.322	-2.842	-1.226	-2.741	-2.203	-0.981	0.104	4.298	7.317	2.823	6.965	3.585	-1.754	-3.606	-2.597	-3.203	-2.725	-2.213	-3.563	-3.571	-3.846	-3.575	-3.501	-1.235	2.081	5.747	1.624	4.925	78.125
-3.364	-3.601	-1.747	-3.331	-2.608	-1.272	0.378	5.027	8.817	3.697	8.484	4.895	-1.728	-4.090	-3.652	-4.073	-3.607	-2.789	-4.278	-4.417	-4.579	-4.039	-3.950	-0.922	2.820	7.161	2.523	6.394	82.031
-4.440	-4.403	-2.340	-3.993	-3.090	-1.626	0.626	5.668	10.164	4.536	9.915	6.246	-1.655	-4.558	-4.727	-4.955	-4.439	-3.314	-4.929	-5.273	-5.332	-4.396	-4.273	-0.490	3.646	8.569	3.549	7.948	85.938
-5.481	-5.207	-2.972	-4.690	-3.624	-2.030	0.837	6.180	11.272	5.291	11.176	7.574	-1.523	-4.975	-5.763	-5.802	-5.169	-3.774	-5.480	-6.088	-6.054	-4.628	-4.455	0.043	4.499	9.894	4.646	9.514	89.844
-6.424	-5.975	-3.603	-5.378	-4.174	-2.458	1.012	6.530	12.071	5.933	12.205	8.821	-1.318	-5.305	-6.704	-6.569	-5.765	-4.161	-5.906	-6.816	-6.696	-4.731	-4.499	0.652	5.311	11.072	5.756	11.020	93.750
-7.216	-6.666	-4.190	-6.009	-4.693	-2.878	1.163	6.698	12.519	6.443	12.960	9.938	-1.024	-5.509	-7.503	-7.223	-6.210	-4.477	-6.198	-7.419	-7.213	-4.712	-4.427	1.310	6.006	12.056	6.827	12.405	97.656
-7.824	-7.244	-4.692	-6.532	-5.132	-3.250	1.306	6.668	12.590	6.820	13.420	10.883	-0.628	-5.556	-8.123	-7.735	-6.498	-4.729	-6.358	-7.866	-7.564	-4.589	-4.276	1.984	6.517	12.812	7.810	13.616	101.562
-8.226	-7.669	-5.072	-6.901	-5.439	-3.533	1.458	6.430	12.272	7.070	13.579	11.628	-0.126	-5.423	-8.536	-8.081	-6.636	-4.922	-6.395	-8.130	-7.718	-4.384	-4.087	2.641	6.781	13.317	8.668	14.613	105.469
-8.413	-7.906	-5.299	-7.076	-5.568	-3.690	1.632	5.980	11.564	7.200	13.442	12.153	0.475	-5.099	-8.726	-8.241	-6.633	-5.057	-6.318	-8.189	-7.647	-4.119	-3.901	3.247	6.753	13.556	9.368	15.363	109.375
-8.385	-7.927	-5.359	-7.027	-5.483	-3.695	1.833	5.315	10.473	7.220	13.027	12.445	1.158	-4.585	-8.685	-8.193	-6.499	-5.130	-6.135	-8.024	-7.335	-3.811	-3.751	3.773	6.411	13.517	9.885	15.842	113.281
-8.148	-7.711	-5.249	-6.742	-5.167	-3.538	2.061	4.440	9.018	7.133	12.357	12.498	1.892	-3.894	-8.412	-7.921	-6.239	-5.132	-5.847	-7.622	-6.777	-3.470	-3.653	4.193	5.755	13.191	10.202	16.031	117.188
-7.712	-7.250	-4.980	-6.221	-4.617	-3.229	2.306	3.368	7.233	6.940	11.462	12.313	2.645	-3.045	-7.920	-7.415	-5.854	-5.052	-5.449	-6.978	-5.978	-3.097	-3.609	4.486	4.809	12.574	10.305	15.916	121.094
-7.096	-6.553	-4.573	-5.483	-3.851	-2.793	2.557	2.125	5.171	6.639	10.374	11.889	3.382	-2.068	-7.228	-6.673	-5.341	-4.878	-4.930	-6.096	-4.959	-2.682	-3.603	4.644	3.621	11.667	10.186	15.487	125.000
-6.322	-5.640	-4.056	-4.561	-2.906	-2.269	2.796	0.749	2.909	6.230	9.128	11.232	4.069	-0.997	-6.364	-5.704	-4.693	-4.605	-4.277	-4.994	-3.752	-2.214	-3.607	4.663	2.255	10.482	9.846	14.736	128.906
-5.422	-4.553	-3.465	-3.503	-1.835	-1.701	3.006	-0.705	0.546	5.716	7.759	10.350	4.678	0.132	-5.367	-4.537	-3.909	-4.235	-3.484	-3.707	-2.402	-1.678	-3.584	4.554	0.789	9.043	9.295	13.669	132.812
-4.436	-3.347	-2.834	-2.367	-0.704	-1.138	3.170	-2.167	-1.797	5.109	6.313	9.261	5.186	1.276	-4.285	-3.217	-2.999	-3.780	-2.555	-2.286	-0.967	-1.071	-3.502	4.334	-0.693	7.397	8.552	12.306	136.719
-3.412	-2.093	-2.198	-1.222	0.412	-0.622	3.276	-3.557	-3.983	4.429	4.844	7.995	5.575	2.387	-3.176	-1.808	-1.986	-3.260	-1.516	-0.803	0.487	-0.399	-3.336	4.026	-2.103	5.612	7.651	10.688	140.625
-2.403	-0.872	-1.593	-0.144	1.436	-0.184	3.317	-4.787	-5.870	3.710	3.417	6.604	5.831	3.411	-2.105	-0.395	-0.911	-2.702	-0.412	0.657	1.882	0.314	-3.076	3.659	-3.361	3.779	6.636	8.881	144.531
-1.469	0.230	-1.047	0.795	2.298	0.153	3.292	-5.774	-7.322	2.993	2.113	5.155	5.943	4.294	-1.136	0.928	0.165	-2.137	0.691	1.997	3.135	1.027	-2.733	3.261	-4.396	2.003	5.561	6.976	148.438
-0.667	1.129	-0.588	1.527	2.939	0.381	3.206	-6.442	-8.226	2.330	1.017	3.731	5.909	4.980	-0.326	2.060	1.168	-1.598	1.714	3.122	4.166	1.685	-2.332	2.856	-5.156	0.393	4.487	5.080	152.344
-0.048	1.758	-0.235	2.003	3.321	0.501	3.073	-6.735	-8.502	1.773	0.217	2.422	5.731	5.422	0.282	2.913	2.022	-1.116	2.572	3.946	4.899	2.229	-1.915	2.464	-5.611	-0.953	3.473	3.308	156.250
0.349	2.071	0.006	2.194	3.430	0.525	2.909	-6.624	-8.114	1.371	-0.216	1.317	5.414	5.582	0.665	3.415	2.656	-0.719	3.190	4.404	5.278	2.603	-1.528	2.094	-5.756	-1.956	2.571	1.769	160.156
0.509	2.055	0.135	2.099	3.276	0.472	2.733	-6.106	-7.074	1.163	-0.232	0.486	4.972	5.438	0.819	3.531	3.018	-0.429	3.510	4.463	5.267	2.761	-1.219	1.748	-5.611	-2.573	1.822	0.553	164.062
0.439	1.729	0.164	1.741	2.892	0.363	2.561	-5.213	-5.446	1.171	0.185	-0.022	4.421	4.986	0.759	3.258	3.086	-0.260	3.503	4.122	4.863	2.678	-1.025	1.423	-5.216	-2.790	1.249	-0.283	167.969
0.168	1.143	0.112	1.168	2.327	0.217	2.404	-4.002	-3.337	1.397	1.012	-0.191	3.780	4.243	0.512	2.636	2.867	-0.219	3.173	3.418	4.093	2.353	-0.969	1.110	-4.625	-2.626	0.856	-0.715	171.875
-0.262	0.369	-0.001	0.437	1.640	0.051	2.267	-2.554	-0.882	1.823	2.191	-0.037	3.071	3.246	0.116	1.733	2.399	-0.302	2.556	2.417	3.015	1.810	-1.059	0.801	-3.898	-2.123	0.634	-0.755	175.781
-0.799	-0.512	-0.160	-0.384	0.890	-0.127	2.147	-0.962	1.766	2.411	3.639	0.400	2.319	2.052	-0.392	0.641	1.741	-0.498	1.720	1.206	1.710	1.097	-1.284	0.491	-3.090	-1.339	0.563	-0.448	179.688
-1.398	-1.424	-0.358	-1.235	0.129	-0.314	2.042	0.676	4.456	3.114	5.252	1.056	1.550	0.732	-0.972	-0.543	0.965	-0.788	0.749	-0.120	0.275	0.277	-1.619	0.182	-2.253	-0.338	0.616	0.141	183.594
-2.020	-2.303	-0.599	-2.067	-0.601	-0.516	1.944	2.270	7.054	3.876	6.927	1.863	0.796	-0.634	-1.595	-1.724	0.141	-1.144	-0.267	-1.469	-1.188	-0.579	-2.027	-0.117	-1.425	0.814	0.767	0.936	187.500
-2.640	-3.108	-0.893	-2.843	-1.270	-0.739	1.849	3.743	9.451	4.644	8.566	2.750	0.088	-1.962	-2.234	-2.826	-0.669	-1.540	-1.241	-2.762	-2.586	-1.400	-2.464	-0.389	-0.633	2.057	0.996	1.862	191.406
-3.247	-3.818	-1.258	-3.544	-1.862	-0.989	1.759	5.038	11.571	5.375	10.088	3.656	-0.542	-3.172	-2.871	-3.798	-1.425	-1.948	-2.110	-3.940	-3.840	-2.127	-2.889	-0.615	0.105	3.335	1.287	2.848	195.312
-3.835	-4.434	-1.704	-4.161	-2.369	-1.267	1.680	6.120	13.369	6.036	11.432	4.532	-1.061	-4.200	-3.491	-4.614	-2.104	-2.347	-2.833	-4.964	-4.893	-2.718	-3.268	-0.776	0.781	4.597	1.635	3.838	199.219
-4.407	-4.967	-2.235	-4.693	-2.790	-1.565	1.624	6.973	14.828	6.616	12.565	5.349	-1.441	-4.997	-4.081	-5.273	-2.707	-2.724	-3.401	-5.817	-5.714	-3.153	-3.579	-0.854	1.392	5.800	2.037	4.791	203.125
-4.964	-5.436	-2.844	-5.146	-3.127	-1.866	1.607	7.602	15.953	7.114	13.473	6.088	-1.660	-5.537	-4.629	-5.794	-3.247	-3.073	-3.826	-6.501	-6.293	-3.432	-3.816	-0.838	1.938	6.910	2.495	5.681	207.031
-5.510	-5.861	-3.508	-5.527	-3.386	-2.153	1.646	8.022	16.763	7.546	14.160	6.746	-1.701	-5.815	-5.124	-6.208	-3.743	-3.396	-4.139	-7.027	-6.645	-3.572	-3.990	-0.723	2.417	7.900	3.011	6.496	210.938
-6.042	-6.258	-4.195	-5.843	-3.571	-2.413	1.754	8.259	17.286	7.931	14.645	7.330	-1.558	-5.843	-5.558	-6.551	-4.211	-3.699	-4.376	-7.415	-6.797	-3.600	-4.119	-0.510	2.831	8.755	3.584	7.233	214.844
-6.558	-6.641	-4.870	-6.107	-3.693	-2.639	1.938	8.338	17.553	8.288	14.956	7.853	-1.235	-5.653	-5.927	-6.857	-4.660	-3.991	-4.571	-7.688	-6.785	-3.548	-4.225	-0.204	3.183	9.474	4.212	7.900	218.750
-7.052	-7.019	-5.501	-6.333	-3.760	-2.836	2.197	8.286	17.592	8.634	15.122	8.331	-0.743	-5.281	-6.236	-7.152	-5.088	-4.278	-4.749	-7.867	-6.651	-3.445	-4.326	0.187	3.480	10.070	4.889	8.511	222.656
-7.519	-7.398	-6.066	-6.533	-3.788	-3.018	2.520	8.128	17.435	8.972	15.174	8.775	-0.107	-4.773	-6.492	-7.457	-5.491	-4.562	-4.925	-7.975	-6.431	-3.319	-4.432	0.653	3.733	10.567	5.605	9.082	226.562
-7.952	-7.782	-6.552	-6.723	-3.789	-3.204	2.889	7.884	17.109	9.298	15.137	9.195	0.640	-4.175	-6.712	-7.779	-5.863	-4.839	-5.105	-8.029	-6.160	-3.190	-4.542	1.183	3.960	10.997	6.347	9.628	230.469
-8.345	-8.171	-6.952	-6.912	-3.778	-3.409	3.277	7.577	16.643	9.595	15.030	9.590	1.457	-3.531	-6.908	-8.118	-6.203	-5.098	-5.289	-8.045	-5.861	-3.071	-4.646	1.763	4.180	11.390	7.095	10.159	234.375
-8.686	-8.558	-7.270	-7.102	-3.767	-3.642	3.655	7.224	16.063	9.838	14.863	9.947	2.299	-2.880	-7.090	-8.462	-6.512	-5.323	-5.470	-8.032	-5.552	-2.968	-4.728	2.375	4.410	11.767	7.827	10.672	238.281
-8.966	-8.931	-7.508	-7.288	-3.763	-3.902	3.994	6.840	15.397	10.000	14.637	10.249	3.118	-2.259	-7.258	-8.789	-6.795	-5.496	-5.638	-7.997	-5.243	-2.879	-4.770	2.998	4.663	12.140	8.517	11.156	242.188
-9.178	-9.275	-7.673	-7.456	-3.770	-4.174	4.268	6.442	14.671	10.059	14.347	10.473	3.871	-1.695	-7.407	-9.074	-7.056	-5.602	-5.780	-7.942	-4.942	-2.800	-4.757	3.607	4.942	12.503	9.137	11.591	246.094
-9.317	-9.571	-7.773	-7.589	-3.786	-4.433	4.461	6.041	13.916	10.004	13.991	10.600	4.522	-1.210	-7.526	-9.294	-7.293	-5.630	-5.885	-7.868	-4.652	-2.720	-4.678	4.178	5.242	12.842	9.665	11.953	250.000
-9.389	-9.804	-7.816	-7.668	-3.804	-4.649	4.566	5.651	13.164	9.839	13.572	10.620	5.050	-0.818	-7.606	-9.429	-7.499	-5.580	-5.942	-7.777	-4.380	-2.631	-4.531	4.687	5.546	13.136	10.087	12.223	253.906
-9.406	-9.965	-7.815	-7.680	-3.819	-4.797	4.593	5.284	12.451	9.589	13.105	10.538	5.448	-0.525	-7.646	-9.472	-7.662	-5.460	-5.943	-7.674	-4.136	-2.523	-4.320	5.118	5.833	13.363	10.399	12.387	257.812
-9.390	-10.056	-7.781	-7.621	-3.823	-4.861	4.562	4.950	11.810	9.292	12.620	10.375	5.727	-0.328	-7.654	-9.430	-7.767	-5.289	-5.882	-7.568	-3.930	-2.391	-4.054	5.465	6.079	13.511	10.610	12.449	261.719
-9.368	-10.084	-7.731	-7.498	-3.809	-4.839	4.502	4.662	11.272	8.997	12.157	10.168	5.909	-0.214	-7.651	-9.322	-7.800	-5.091	-5.763	-7.470	-3.771	-2.231	-3.748	5.729	6.260	13.574	10.740	12.425	265.625
-9.367	-10.065	-7.680	-7.329	-3.772	-4.742	4.449	4.427	10.860	8.755	11.762	9.963	6.028	-0.164	-7.665	-9.177	-7.752	-4.896	-5.593	-7.393	-3.666	-2.044	-3.417	5.922	6.358	13.557	10.816	12.346	269.531
-9.410	-10.015	-7.643	-7.135	-3.708	-4.593	4.434	4.253	10.589	8.610	11.479	9.806	6.119	-0.154	-7.726	-9.026	-7.624	-4.730	-5.384	-7.344	-3.611	-1.833	-3.079	6.060	6.361	13.475	10.865	12.249	273.438
-9.513	-9.951	-7.634	-6.940	-3.617	-4.423	4.486	4.145	10.464	8.592	11.339	9.737	6.215	-0.154	-7.860	-8.896	-7.428	-4.618	-5.154	-7.327	-3.597	-1.604	-2.752	6.162	6.264	13.344	10.910	12.169	277.344
-9.683	-9.884	-7.661	-6.764	-3.498	-4.258	4.620	4.106	10.477	8.713	11.360	9.781	6.338	-0.141	-8.083	-8.806	-7.184	-4.575	-4.919	-7.336	-3.605	-1.362	-2.452	6.244	6.070	13.180	10.966	12.135	281.250
-9.918	-9.818	-7.727	-6.620	-3.353	-4.120	4.839	4.134	10.611	8.964	11.537	9.946	6.501	-0.093	-8.393	-8.760	-6.921	-4.612	-4.696	-7.355	-3.609	-1.112	-2.192	6.319	5.792	12.998	11.039	12.162	285.156
-10.204	-9.754	-7.833	-6.513	-3.186	-4.019	5.130	4.224	10.840	9.317	11.846	10.219	6.702	0.002	-8.771	-8.750	-6.665	-4.729	-4.491	-7.361	-3.582	-0.860	-1.983	6.391	5.447	12.802	11.126	12.249	289.062
-10.523	-9.689	-7.972	-6.439	-3.003	-3.955	5.472	4.366	11.131	9.734	12.244	10.570	6.930	0.145	-9.184	-8.757	-6.439	-4.917	-4.307	-7.330	-3.501	-0.609	-1.832	6.461	5.057	12.597	11.217	12.382	292.969
-10.851	-9.621	-8.137	-6.389	-2.809	-3.915	5.833	4.546	11.445	10.168	12.681	10.956	7.166	0.328	-9.590	-8.758	-6.253	-5.156	-4.136	-7.237	-3.353	-0.362	-1.739	6.523	4.651	12.378	11.299	12.531	296.875
-11.160	-9.547	-8.318	-6.350	-2.610	-3.881	6.178	4.743	11.740	10.571	13.098	11.332	7.390	0.537	-9.949	-8.727	-6.107	-5.421	-3.967	-7.065	-3.137	-0.127	-1.705	6.569	4.257	12.146	11.362	12.668	300.781
-11.425	-9.466	-8.507	-6.310	-2.414	-3.839	6.472	4.937	11.977	10.898	13.443	11.653	7.581	0.750	-10.226	-8.642	-5.984	-5.680	-3.786	-6.806	-2.868	0.087	-1.723	6.589	3.899	11.900	11.396	12.761	304.688
-11.618	-9.377	-8.690	-6.258	-2.228	-3.774	6.687	5.107	12.122	11.113	13.671	11.879	7.718	0.945	-10.401	-8.493	-5.859	-5.903	-3.582	-6.466	-2.571	0.268	-1.785	6.574	3.601	11.646	11.395	12.788	308.594
-11.720	-9.281	-8.857	-6.186	-2.057	-3.680	6.804	5.236	12.150	11.192	13.750	11.982	7.791	1.098	-10.465	-8.274	-5.706	-6.060	-3.351	-6.060	-2.276	0.405	-1.879	6.521	3.375	11.389	11.354	12.734	312.500
-11.718	-9.174	-8.994	-6.090	-1.904	-3.557	6.816	5.314	12.051	11.122	13.663	11.946	7.789	1.195	-10.418	-7.994	-5.500	-6.135	-3.095	-5.615	-2.011	0.485	-1.992	6.426	3.223	11.138	11.270	12.595	316.406
-11.610	-9.052	-9.094	-5.968	-1.767	-3.407	6.726	5.335	11.828	10.908	13.411	11.767	7.712	1.224	-10.270	-7.664	-5.229	-6.117	-2.825	-5.159	-1.798	0.506	-2.109	6.295	3.142	10.899	11.141	12.373	320.312
-11.407	-8.909	-9.146	-5.819	-1.646	-3.233	6.549	5.307	11.495	10.564	13.007	11.456	7.564	1.185	-10.035	-7.303	-4.893	-6.012	-2.556	-4.722	-1.651	0.469	-2.213	6.133	3.116	10.672	10.963	12.079	324.219
-11.127	-8.739	-9.147	-5.647	-1.533	-3.040	6.307	5.239	11.080	10.118	12.479	11.036	7.353	1.086	-9.732	-6.932	-4.507	-5.830	-2.306	-4.332	-1.571	0.384	-2.292	5.952	3.130	10.455	10.735	11.725	328.125
-10.795	-8.536	-9.093	-5.455	-1.426	-2.827	6.027	5.146	10.614	9.603	11.862	10.542	7.093	0.941	-9.381	-6.570	-4.097	-5.592	-2.093	-4.007	-1.554	0.265	-2.334	5.762	3.163	10.240	10.461	11.328	332.031
-10.436	-8.299	-8.982	-5.250	-1.321	-2.595	5.735	5.045	10.132	9.055	11.196	10.013	6.801	0.770	-9.006	-6.235	-3.695	-5.317	-1.934	-3.764	-1.591	0.130	-2.336	5.573	3.196	10.014	10.145	10.906	335.938
-10.073	-8.030	-8.811	-5.038	-1.216	-2.340	5.456	4.952	9.667	8.511	10.525	9.493	6.495	0.594	-8.630	-5.943	-3.336	-5.026	-1.841	-3.609	-1.671	-0.004	-2.298	5.394	3.211	9.763	9.799	10.473	339.844
-9.723	-7.740	-8.582	-4.828	-1.110	-2.056	5.211	4.881	9.246	8.003	9.889	9.022	6.194	0.432	-8.274	-5.706	-3.054	-4.735	-1.824	-3.548	-1.788	-0.126	-2.229	5.230	3.195	9.474	9.438	10.046	343.750
-9.400	-7.444	-8.303	-4.630	-1.003	-1.742	5.016	4.842	8.894	7.558	9.330	8.640	5.916	0.299	-7.959	-5.533	-2.877	-4.462	-1.889	-3.579	-1.933	-0.226	-2.140	5.088	3.142	9.143	9.082	9.640	347.656
-9.121	-7.165	-7.993	-4.455	-0.897	-1.403	4.881	4.844	8.628	7.199	8.883	8.380	5.677	0.205	-7.704	-5.434	-2.822	-4.223	-2.034	-3.700	-2.104	-0.299	-2.045	4.976	3.058	8.777	8.753	9.278	351.562
-8.901	-6.930	-7.679	-4.317	-0.794	-1.048	4.814	4.890	8.462	6.942	8.582	8.265	5.494	0.154	-7.527	-5.419	-2.902	-4.036	-2.251	-3.907	-2.293	-0.342	-1.954	4.902	2.956	8.397	8.477	8.986	355.469
-8.763	-6.773	-7.401	-4.230	-0.699	-0.698	4.817	4.984	8.405	6.801	8.453	8.315	5.380	0.146	-7.444	-5.497	-3.117	-3.923	-2.526	-4.194	-2.493	-0.351	-1.871	4.880	2.861	8.040	8.279	8.796	359.375
-8.730	-6.722	-7.203	-4.211	-0.617	-0.376	4.891	5.126	8.467	6.785	8.515	8.535	5.348	0.180	-7.471	-5.679	-3.461	-3.906	-2.840	-4.553	-2.694	-0.325	-1.794	4.921	2.802	7.749	8.181	8.739	363.281
-8.828	-6.803	-7.127	-4.275	-0.553	-0.111	5.037	5.318	8.652	6.901	8.775	8.917	5.403	0.255	-7.618	-5.972	-3.921	-4.001	-3.173	-4.977	-2.883	-0.263	-1.718	5.036	2.805	7.568	8.199	8.839	367.188
-9.070	-7.029	-7.204	-4.429	-0.514	0.076	5.253	5.557	8.963	7.151	9.225	9.437	5.550	0.370	-7.886	-6.376	-4.475	-4.215	-3.504	-5.454	-3.046	-0.170	-1.639	5.229	2.888	7.529	8.341	9.104	371.094
-9.457	-7.397	-7.442	-4.672	-0.499	0.167	5.536	5.840	9.395	7.533	9.842	10.055	5.783	0.525	-8.263	-6.880	-5.096	-4.542	-3.814	-5.967	-3.174	-0.051	-1.556	5.494	3.051	7.645	8.598	9.518	375.000
-9.970	-7.888	-7.829	-4.989	-0.508	0.160	5.879	6.162	9.935	8.031	10.585	10.717	6.090	0.716	-8.726	-7.461	-5.751	-4.962	-4.091	-6.493	-3.258	0.079	-1.473	5.816	3.278	7.904	8.949	10.041	378.906
-10.568	-8.461	-8.326	-5.353	-0.534	0.064	6.270	6.512	10.560	8.621	11.402	11.363	6.450	0.937	-9.240	-8.085	-6.404	-5.442	-4.323	-7.005	-3.296	0.208	-1.402	6.170	3.540	8.268	9.358	10.611	382.812
-11.197	-9.067	-8.881	-5.730	-0.568	-0.099	6.689	6.878	11.238	9.267	12.228	11.936	6.835	1.175	-9.763	-8.707	-7.018	-5.940	-4.506	-7.475	-3.292	0.318	-1.356	6.522	3.797	8.682	9.779	11.157	386.719
-11.797	-9.651	-9.429	-6.078	-0.600	-0.301	7.111	7.245	11.926	9.923	12.995	12.387	7.214	1.411	-10.252	-9.285	-7.559	-6.408	-4.640	-7.876	-3.254	0.395	-1.347	6.836	4.012	9.083	10.165	11.607	390.625
-12.313	-10.161	-9.914	-6.363	-0.621	-0.508	7.507	7.595	12.577	10.537	13.642	12.684	7.553	1.621	-10.667	-9.781	-8.001	-6.799	-4.728	-8.190	-3.195	0.427	-1.381	7.080	4.157	9.412	10.473	11.905	394.531
-12.702	-10.560	-10.288	-6.562	-0.626	-0.692	7.844	7.910	13.141	11.056	14.115	12.816	7.821	1.783	-10.977	-10.168	-8.327	-7.073	-4.779	-8.406	-3.129	0.409	-1.456	7.229	4.221	9.626	10.672	12.021	398.438
-12.936	-10.827	-10.524	-6.665	-0.614	-0.830	8.092	8.170	13.572	11.435	14.376	12.788	7.992	1.876	-11.160	-10.436	-8.529	-7.202	-4.803	-8.525	-3.072	0.340	-1.561	7.271	4.207	9.702	10.743	11.948	402.344
-13.003	-10.961	-10.607	-6.678	-0.585	-0.913	8.229	8.353	13.830	11.638	14.408	12.620	8.050	1.887	-11.201	-10.586	-8.611	-7.172	-4.811	-8.554	-3.030	0.227	-1.681	7.205	4.137	9.636	10.685	11.705	406.250
-12.907	-10.973	-10.542	-6.618	-0.540	-0.939	8.240	8.444	13.884	11.642	14.207	12.338	7.991	1.817	-11.097	-10.631	-8.584	-6.988	-4.812	-8.503	-3.006	0.082	-1.798	7.042	4.039	9.441	10.507	11.327	410.156
-12.660	-10.886	-10.342	-6.509	-0.479	-0.918	8.127	8.429	13.716	11.445	13.790	11.969	7.821	1.680	-10.851	-10.587	-8.468	-6.670	-4.811	-8.385	-2.989	-0.078	-1.895	6.803	3.939	9.140	10.226	10.854	414.062
-12.280	-10.722	-10.027	-6.369	-0.399	-0.859	7.903	8.302	13.324	11.060	13.184	11.533	7.558	1.501	-10.475	-10.474	-8.285	-6.254	-4.806	-8.208	-2.962	-0.235	-1.962	6.510	3.858	8.755	9.862	10.326	417.969
-11.788	-10.498	-9.620	-6.212	-0.295	-0.773	7.591	8.065	12.718	10.516	12.425	11.046	7.226	1.315	-9.990	-10.303	-8.054	-5.781	-4.791	-7.976	-2.902	-0.368	-1.990	6.189	3.802	8.305	9.437	9.771	421.875
-11.200	-10.225	-9.143	-6.037	-0.159	-0.667	7.225	7.726	11.924	9.852	11.552	10.513	6.857	1.160	-9.425	-10.079	-7.790	-5.297	-4.751	-7.686	-2.785	-0.461	-1.979	5.861	3.764	7.801	8.964	9.208	425.781
-10.538	-9.899	-8.615	-5.834	0.016	-0.542	6.834	7.299	10.977	9.113	10.601	9.937	6.479	1.069	-8.813	-9.799	-7.498	-4.841	-4.667	-7.331	-2.592	-0.498	-1.928	5.541	3.724	7.247	8.457	8.639	429.688
-9.822	-9.515	-8.053	-5.585	0.235	-0.393	6.446	6.802	9.919	8.340	9.602	9.316	6.118	1.067	-8.191	-9.456	-7.173	-4.440	-4.517	-6.905	-2.313	-0.466	-1.837	5.240	3.656	6.643	7.926	8.060	433.594
-9.077	-9.064	-7.472	-5.271	0.500	-0.215	6.079	6.255	8.793	7.569	8.582	8.651	5.792	1.164	-7.588	-9.043	-6.805	-4.105	-4.283	-6.404	-1.946	-0.358	-1.704	4.964	3.537	5.988	7.381	7.464	437.500
-8.331	-8.546	-6.891	-4.880	0.806	-0.005	5.742	5.680	7.645	6.825	7.558	7.945	5.511	1.353	-7.025	-8.555	-6.382	-3.832	-3.954	-5.829	-1.504	-0.168	-1.521	4.713	3.351	5.289	6.833	6.847	441.406
-7.616	-7.965	-6.332	-4.410	1.144	0.236	5.433	5.097	6.514	6.119	6.544	7.207	5.274	1.615	-6.513	-7.996	-5.895	-3.606	-3.525	-5.190	-1.006	0.106	-1.282	4.485	3.092	4.558	6.293	6.208	445.312
-6.959	-7.340	-5.817	-3.873	1.500	0.496	5.143	4.526	5.435	5.453	5.551	6.449	5.075	1.923	-6.051	-7.377	-5.346	-3.404	-3.003	-4.504	-0.477	0.459	-0.982	4.277	2.770	3.819	5.775	5.557	449.219
-6.383	-6.695	-5.369	-3.295	1.855	0.761	4.863	3.981	4.439	4.826	4.588	5.688	4.903	2.245	-5.631	-6.715	-4.745	-3.203	-2.406	-3.793	0.058	0.884	-0.623	4.085	2.402	3.098	5.291	4.912	453.125
-5.899	-6.062	-5.006	-2.710	2.192	1.010	4.584	3.474	3.548	4.232	3.669	4.944	4.745	2.552	-5.245	-6.035	-4.115	-2.988	-1.763	-3.084	0.575	1.363	-0.218	3.906	2.013	2.427	4.852	4.295	457.031
-5.506	-5.471	-4.739	-2.156	2.495	1.224	4.306	3.012	2.780	3.675	2.810	4.241	4.596	2.821	-4.893	-5.365	-3.487	-2.752	-1.109	-2.407	1.053	1.870	0.208	3.742	1.625	1.834	4.467	3.735	460.938
-5.193	-4.953	-4.569	-1.671	2.749	1.384	4.034	2.596	2.149	3.166	2.036	3.610	4.453	3.037	-4.579	-4.734	-2.894	-2.502	-0.485	-1.792	1.475	2.372	0.617	3.595	1.260	1.342	4.141	3.258	464.844
-4.944	-4.532	-4.489	-1.284	2.943	1.479	3.783	2.224	1.662	2.725	1.381	3.081	4.322	3.193	-4.314	-4.170	-2.372	-2.252	0.068	-1.267	1.826	2.829	0.966	3.468	0.932	0.966	3.881	2.892	468.750
-4.742	-4.228	-4.486	-1.017	3.070	1.505	3.569	1.895	1.322	2.380	0.881	2.689	4.210	3.289	-4.112	-3.698	-1.951	-2.027	0.511	-0.854	2.094	3.202	1.213	3.368	0.648	0.709	3.690	2.655	472.656
-4.580	-4.048	-4.547	-0.875	3.129	1.466	3.413	1.606	1.127	2.158	0.571	2.462	4.129	3.329	-3.985	-3.337	-1.658	-1.848	0.816	-0.567	2.270	3.456	1.328	3.297	0.411	0.567	3.571	2.557	476.562
-4.460	-3.997	-4.655	-0.856	3.121	1.373	3.327	1.358	1.069	2.080	0.476	2.419	4.088	3.323	-3.940	-3.096	-1.508	-1.734	0.964	-0.410	2.353	3.567	1.299	3.257	0.223	0.528	3.527	2.601	480.469
-4.396	-4.065	-4.799	-0.943	3.052	1.244	3.316	1.154	1.131	2.155	0.604	2.565	4.093	3.281	-3.977	-2.976	-1.509	-1.697	0.954	-0.373	2.345	3.526	1.134	3.249	0.084	0.575	3.557	2.777	484.375
-4.407	-4.238	-4.969	-1.113	2.933	1.097	3.378	0.996	1.292	2.374	0.943	2.888	4.143	3.214	-4.088	-2.966	-1.657	-1.739	0.798	-0.439	2.262	3.342	0.859	3.270	-0.005	0.694	3.659	3.071	488.281
-4.509	-4.495	-5.161	-1.339	2.775	0.949	3.500	0.891	1.523	2.713	1.456	3.355	4.232	3.135	-4.257	-3.048	-1.942	-1.854	0.519	-0.580	2.122	3.041	0.515	3.316	-0.041	0.871	3.830	3.460	492.188
-4.713	-4.810	-5.370	-1.595	2.591	0.814	3.660	0.842	1.796	3.135	2.090	3.924	4.350	3.056	-4.470	-3.197	-2.341	-2.030	0.151	-0.762	1.953	2.659	0.145	3.385	-0.020	1.096	4.062	3.923	496.094
-5.013	-5.154	-5.593	-1.856	2.389	0.695	3.834	0.849	2.082	3.596	2.781	4.539	4.482	2.985	-4.710	-3.387	-2.823	-2.249	-0.265	-0.953	1.781	2.242	-0.210	3.474	0.059	1.361	4.344	4.434	500.000
-5.389	-5.503	-5.827	-2.106	2.178	0.590	3.998	0.913	2.357	4.053	3.463	5.147	4.611	2.926	-4.959	-3.588	-3.346	-2.492	-0.689	-1.126	1.628	1.835	-0.516	3.578	0.197	1.660	4.661	4.967	503.906
-5.811	-5.831	-6.064	-2.334	1.961	0.486	4.130	1.028	2.600	4.468	4.078	5.697	4.723	2.877	-5.203	-3.777	-3.864	-2.736	-1.081	-1.258	1.511	1.475	-0.751	3.694	0.388	1.981	4.991	5.495	507.812
-6.238	-6.115	-6.292	-2.534	1.743	0.373	4.210	1.183	2.795	4.809	4.577	6.145	4.802	2.833	-5.425	-3.929	-4.329	-2.957	-1.410	-1.337	1.437	1.192	-0.902	3.811	0.624	2.309	5.309	5.985	511.719
-6.628	-6.336	-6.493	-2.699	1.527	0.245	4.227	1.362	2.930	5.055	4.928	6.458	4.835	2.783	-5.606	-4.026	-4.696	-3.133	-1.651	-1.358	1.405	0.999	-0.968	3.915	0.890	2.616	5.579	6.397	515.625
-6.936	-6.473	-6.645	-2.821	1.320	0.106	4.173	1.547	2.990	5.187	5.108	6.615	4.811	2.714	-5.724	-4.049	-4.928	-3.238	-1.790	-1.322	1.405	0.901	-0.955	3.989	1.168	2.870	5.766	6.688	519.531
-7.124	-6.507	-6.722	-2.889	1.129	-0.029	4.045	1.714	2.964	5.194	5.111	6.601	4.719	2.620	-5.755	-3.989	-4.998	-3.254	-1.820	-1.234	1.425	0.887	-0.874	4.010	1.437	3.033	5.835	6.816	523.438
-7.161	-6.425	-6.706	-2.893	0.965	-0.138	3.845	1.840	2.840	5.067	4.939	6.413	4.553	2.493	-5.676	-3.839	-4.898	-3.164	-1.745	-1.106	1.452	0.944	-0.740	3.959	1.677	3.070	5.759	6.740	527.344
-7.028	-6.224	-6.582	-2.825	0.838	-0.198	3.577	1.904	2.613	4.802	4.601	6.059	4.310	2.338	-5.470	-3.605	-4.632	-2.961	-1.575	-0.951	1.474	1.054	-0.571	3.823	1.871	2.960	5.520	6.438	531.250
-6.724	-5.912	-6.355	-2.683	0.755	-0.190	3.252	1.893	2.286	4.402	4.115	5.553	3.997	2.163	-5.127	-3.299	-4.222	-2.642	-1.325	-0.781	1.482	1.201	-0.380	3.598	2.009	2.699	5.122	5.907	535.156
-6.272	-5.509	-6.041	-2.475	0.721	-0.104	2.882	1.802	1.873	3.878	3.505	4.924	3.624	1.982	-4.656	-2.945	-3.698	-2.217	-1.013	-0.612	1.471	1.371	-0.181	3.296	2.088	2.309	4.583	5.173	539.062
-5.714	-5.050	-5.673	-2.219	0.736	0.056	2.487	1.640	1.398	3.259	2.804	4.206	3.213	1.814	-4.083	-2.570	-3.101	-1.706	-0.660	-0.454	1.443	1.552	0.018	2.941	2.113	1.829	3.945	4.290	542.969
-5.112	-4.576	-5.294	-1.939	0.796	0.273	2.093	1.422	0.900	2.585	2.050	3.444	2.793	1.680	-3.452	-2.209	-2.475	-1.138	-0.290	-0.320	1.402	1.737	0.210	2.566	2.094	1.313	3.262	3.337	546.875
-4.534	-4.133	-4.947	-1.661	0.897	0.521	1.729	1.175	0.423	1.910	1.291	2.686	2.401	1.598	-2.815	-1.891	-1.869	-0.554	0.073	-0.216	1.356	1.918	0.389	2.211	2.046	0.822	2.602	2.405	550.781
-4.050	-3.762	-4.674	-1.411	1.031	0.768	1.427	0.930	0.015	1.294	0.576	1.983	2.074	1.584	-2.231	-1.646	-1.330	-0.002	0.404	-0.147	1.317	2.088	0.549	1.916	1.980	0.410	2.030	1.589	554.688
-3.714	-3.494	-4.506	-1.212	1.189	0.980	1.216	0.719	-0.278	0.796	-0.040	1.385	1.847	1.649	-1.754	-1.494	-0.902	0.471	0.677	-0.112	1.295	2.241	0.681	1.713	1.907	0.118	1.604	0.971	558.594
-3.556	-3.348	-4.456	-1.075	1.362	1.133	1.117	0.571	-0.422	0.466	-0.508	0.935	1.746	1.792	-1.428	-1.444	-0.617	0.819	0.874	-0.108	1.301	2.367	0.775	1.620	1.833	-0.032	1.365	0.605	562.500
-3.586	-3.325	-4.523	-1.007	1.541	1.210	1.141	0.504	-0.397	0.337	-0.788	0.666	1.784	2.006	-1.282	-1.494	-0.494	1.011	0.981	-0.127	1.340	2.460	0.820	1.642	1.759	-0.041	1.332	0.515	566.406
-3.783	-3.409	-4.686	-1.004	1.713	1.208	1.288	0.523	-0.205	0.416	-0.853	0.599	1.958	2.274	-1.327	-1.632	-0.535	1.029	0.992	-0.162	1.410	2.513	0.809	1.769	1.681	0.078	1.501	0.694	570.312
-4.112	-3.570	-4.914	-1.057	1.867	1.136	1.541	0.618	0.132	0.688	-0.696	0.742	2.249	2.572	-1.557	-1.837	-0.721	0.875	0.911	-0.206	1.506	2.523	0.739	1.978	1.599	0.297	1.846	1.106	574.219
-4.525	-3.770	-5.167	-1.152	1.991	1.013	1.874	0.763	0.569	1.115	-0.333	1.087	2.628	2.872	-1.947	-2.083	-1.022	0.566	0.750	-0.255	1.613	2.491	0.613	2.240	1.513	0.585	2.324	1.697	578.125
-4.967	-3.969	-5.410	-1.270	2.074	0.864	2.253	0.925	1.048	1.645	0.200	1.611	3.056	3.146	-2.460	-2.345	-1.397	0.138	0.526	-0.305	1.719	2.422	0.444	2.524	1.431	0.915	2.887	2.403	582.031
-5.389	-4.131	-5.615	-1.395	2.110	0.715	2.639	1.063	1.500	2.215	0.848	2.276	3.494	3.372	-3.049	-2.597	-1.809	-0.364	0.262	-0.354	1.808	2.328	0.251	2.803	1.365	1.262	3.481	3.157	585.938
-5.748	-4.230	-5.767	-1.510	2.099	0.591	2.996	1.143	1.860	2.765	1.541	3.031	3.906	3.534	-3.657	-2.819	-2.225	-0.887	-0.019	-0.400	1.871	2.223	0.061	3.055	1.330	1.606	4.055	3.896	589.844
-6.008	-4.253	-5.859	-1.602	2.047	0.510	3.293	1.144	2.078	3.242	2.209	3.811	4.261	3.625	-4.227	-2.996	-2.619	-1.380	-0.290	-0.440	1.905	2.124	-0.099	3.266	1.339	1.928	4.563	4.560	593.750
-6.146	-4.198	-5.896	-1.661	1.964	0.482	3.508	1.062	2.124	3.607	2.783	4.548	4.537	3.648	-4.706	-3.117	-2.974	-1.796	-0.530	-0.469	1.910	2.048	-0.202	3.424	1.401	2.207	4.966	5.095	597.656
-6.149	-4.077	-5.881	-1.682	1.866	0.509	3.627	0.910	1.996	3.837	3.210	5.170	4.718	3.612	-5.052	-3.179	-3.278	-2.101	-0.719	-0.484	1.894	2.008	-0.229	3.528	1.513	2.424	5.234	5.459	601.562
-6.019	-3.909	-5.821	-1.666	1.767	0.585	3.648	0.716	1.718	3.927	3.456	5.616	4.800	3.533	-5.237	-3.185	-3.526	-2.274	-0.845	-0.485	1.863	2.011	-0.168	3.578	1.668	2.559	5.350	5.626	605.469
-5.775	-3.724	-5.720	-1.622	1.678	0.699	3.578	0.514	1.338	3.887	3.510	5.845	4.785	3.428	-5.253	-3.147	-3.716	-2.309	-0.901	-0.474	1.828	2.057	-0.019	3.582	1.849	2.601	5.314	5.589	609.375
-5.446	-3.552	-5.583	-1.561	1.607	0.834	3.430	0.338	0.914	3.737	3.386	5.838	4.682	3.313	-5.109	-3.081	-3.849	-2.217	-0.891	-0.457	1.796	2.142	0.206	3.551	2.039	2.549	5.143	5.363	613.281
-5.071	-3.423	-5.417	-1.501	1.552	0.969	3.223	0.208	0.505	3.508	3.116	5.604	4.510	3.207	-4.832	-3.008	-3.929	-2.015	-0.823	-0.443	1.774	2.257	0.489	3.502	2.223	2.415	4.867	4.982	617.188
-4.690	-3.354	-5.229	-1.454	1.507	1.085	2.977	0.132	0.157	3.228	2.741	5.177	4.291	3.120	-4.457	-2.947	-3.958	-1.731	-0.711	-0.439	1.766	2.391	0.802	3.452	2.387	2.219	4.529	4.494	621.094
-4.331	-3.352	-5.028	-1.430	1.468	1.168	2.710	0.100	-0.103	2.923	2.307	4.605	4.051	3.063	-4.024	-2.908	-3.939	-1.393	-0.569	-0.451	1.772	2.534	1.116	3.414	2.519	1.986	4.170	3.949	625.000
-4.009	-3.403	-4.820	-1.427	1.428	1.210	2.440	0.091	-0.272	2.612	1.853	3.945	3.813	3.038	-3.570	-2.892	-3.873	-1.029	-0.414	-0.477	1.794	2.676	1.406	3.400	2.609	1.738	3.827	3.390	628.906
-3.722	-3.481	-4.612	-1.435	1.388	1.212	2.180	0.076	-0.366	2.304	1.407	3.252	3.599	3.042	-3.125	-2.892	-3.759	-0.667	-0.261	-0.508	1.831	2.811	1.648	3.412	2.653	1.493	3.524	2.849	632.812
-3.454	-3.550	-4.410	-1.437	1.351	1.184	1.939	0.028	-0.417	2.004	0.988	2.572	3.426	3.071	-2.711	-2.888	-3.599	-0.328	-0.121	-0.533	1.879	2.933	1.825	3.448	2.645	1.264	3.276	2.344	636.719
-3.184	-3.573	-4.220	-1.412	1.326	1.138	1.724	-0.073	-0.456	1.709	0.600	1.940	3.302	3.116	-2.340	-2.860	-3.392	-0.032	-0.002	-0.534	1.938	3.035	1.929	3.502	2.589	1.055	3.082	1.884	640.625
-2.897	-3.524	-4.053	-1.345	1.317	1.086	1.537	-0.235	-0.514	1.419	0.247	1.380	3.232	3.171	-2.018	-2.788	-3.143	0.208	0.092	-0.497	2.002	3.114	1.958	3.564	2.493	0.872	2.938	1.474	644.531
-2.595	-3.392	-3.918	-1.231	1.327	1.038	1.380	-0.453	-0.605	1.137	-0.068	0.908	3.213	3.231	-1.745	-2.659	-2.856	0.386	0.162	-0.415	2.066	3.164	1.919	3.628	2.371	0.722	2.839	1.120	648.438
-2.295	-3.184	-3.829	-1.076	1.349	0.996	1.252	-0.709	-0.730	0.871	-0.340	0.533	3.241	3.291	-1.522	-2.474	-2.542	0.498	0.211	-0.290	2.123	3.184	1.824	3.690	2.241	0.618	2.779	0.836	652.344
-2.027	-2.924	-3.794	-0.898	1.370	0.953	1.149	-0.981	-0.874	0.634	-0.557	0.262	3.305	3.347	-1.346	-2.241	-2.215	0.547	0.245	-0.133	2.161	3.174	1.690	3.747	2.126	0.574	2.759	0.638	656.250
-1.827	-2.645	-3.816	-0.727	1.372	0.899	1.067	-1.243	-1.015	0.440	-0.705	0.095	3.394	3.396	-1.213	-1.980	-1.893	0.540	0.268	0.034	2.171	3.136	1.539	3.803	2.043	0.605	2.783	0.541	660.156
-1.719	-2.384	-3.888	-0.590	1.338	0.820	0.999	-1.475	-1.130	0.301	-0.774	0.030	3.496	3.432	-1.118	-1.713	-1.595	0.486	0.286	0.189	2.148	3.079	1.391	3.858	2.003	0.716	2.852	0.554	664.062
-1.713	-2.168	-3.995	-0.512	1.254	0.707	0.940	-1.663	-1.206	0.221	-0.763	0.055	3.597	3.451	-1.051	-1.462	-1.335	0.402	0.305	0.310	2.089	3.012	1.266	3.913	2.007	0.899	2.965	0.670	667.969
-1.794	-2.011	-4.115	-0.502	1.117	0.557	0.882	-1.808	-1.242	0.195	-0.688	0.149	3.683	3.450	-1.003	-1.239	-1.120	0.304	0.328	0.386	2.000	2.948	1.180	3.965	2.046	1.130	3.111	0.867	671.875
-1.926	-1.910	-4.222	-0.553	0.937	0.377	0.821	-1.916	-1.251	0.207	-0.577	0.283	3.743	3.430	-0.960	-1.049	-0.951	0.210	0.360	0.419	1.894	2.900	1.144	4.006	2.102	1.370	3.270	1.107	675.781
-2.058	-1.846	-4.293	-0.643	0.735	0.184	0.750	-2.005	-1.256	0.233	-0.471	0.421	3.767	3.392	-0.911	-0.886	-0.822	0.141	0.406	0.424	1.789	2.877	1.162	4.027	2.151	1.567	3.414	1.340	679.688
-2.140	-1.789	-4.307	-0.737	0.540	0.004	0.668	-2.094	-1.286	0.246	-0.414	0.525	3.749	3.339	-0.842	-0.734	-0.719	0.112	0.471	0.424	1.706	2.885	1.235	4.017	2.170	1.673	3.513	1.514	683.594
-2.129	-1.706	-4.253	-0.798	0.385	-0.131	0.571	-2.200	-1.371	0.223	-0.447	0.559	3.686	3.275	-0.741	-0.577	-0.631	0.140	0.558	0.450	1.661	2.924	1.357	3.961	2.141	1.642	3.534	1.579	687.500
-2.000	-1.566	-4.123	-0.793	0.295	-0.196	0.459	-2.336	-1.531	0.145	-0.598	0.497	3.574	3.203	-0.600	-0.396	-0.545	0.236	0.669	0.526	1.665	2.991	1.518	3.850	2.055	1.447	3.452	1.497	691.406
-1.748	-1.353	-3.917	-0.700	0.289	-0.169	0.329	-2.506	-1.778	0.002	-0.877	0.322	3.414	3.123	-0.411	-0.181	-0.448	0.409	0.805	0.669	1.721	3.077	1.708	3.674	1.911	1.080	3.246	1.246	695.312
-1.386	-1.067	-3.641	-0.517	0.372	-0.047	0.185	-2.704	-2.112	-0.205	-1.280	0.030	3.205	3.036	-0.174	0.071	-0.334	0.658	0.966	0.883	1.823	3.175	1.916	3.430	1.719	0.555	2.910	0.820	699.219
-0.943	-0.721	-3.303	-0.253	0.535	0.164	0.029	-2.914	-2.521	-0.465	-1.786	-0.372	2.951	2.939	0.110	0.355	-0.200	0.977	1.151	1.158	1.962	3.274	2.134	3.123	1.497	-0.096	2.451	0.234	703.125
-0.453	-0.344	-2.916	0.064	0.762	0.444	-0.132	-3.113	-2.983	-0.763	-2.366	-0.865	2.658	2.832	0.431	0.657	-0.046	1.350	1.357	1.473	2.125	3.371	2.353	2.762	1.267	-0.829	1.885	-0.487	707.031
0.049	0.028	-2.501	0.404	1.029	0.767	-0.290	-3.278	-3.470	-1.082	-2.989	-1.429	2.337	2.720	0.777	0.958	0.122	1.756	1.582	1.804	2.301	3.466	2.567	2.365	1.050	-1.592	1.242	-1.306	710.938
0.534	0.357	-2.083	0.734	1.312	1.106	-0.438	-3.389	-3.951	-1.405	-3.625	-2.039	2.003	2.610	1.133	1.238	0.292	2.166	1.824	2.124	2.485	3.566	2.774	1.957	0.864	-2.336	0.556	-2.184	714.844
0.978	0.611	-1.688	1.026	1.593	1.435	-0.566	-3.435	-4.397	-1.717	-4.250	-2.672	1.677	2.515	1.483	1.480	0.447	2.550	2.075	2.414	2.678	3.679	2.972	1.568	0.724	-3.015	-0.132	-3.077	718.750
1.364	0.768	-1.342	1.261	1.855	1.737	-0.668	-3.414	-4.782	-2.007	-4.844	-3.305	1.380	2.448	1.809	1.668	0.566	2.879	2.327	2.660	2.885	3.817	3.158	1.232	0.636	-3.594	-0.779	-3.943	722.656
1.681	0.822	-1.069	1.432	2.089	2.001	-0.739	-3.335	-5.087	-2.265	-5.393	-3.914	1.136	2.426	2.094	1.795	0.624	3.124	2.568	2.858	3.114	3.986	3.330	0.978	0.603	-4.047	-1.343	-4.739	726.562
1.919	0.781	-0.882	1.541	2.292	2.221	-0.775	-3.214	-5.299	-2.482	-5.884	-4.475	0.967	2.462	2.321	1.856	0.597	3.263	2.780	3.007	3.368	4.187	3.482	0.833	0.621	-4.362	-1.789	-5.423	730.469
2.073	0.667	-0.784	1.597	2.462	2.399	-0.773	-3.067	-5.414	-2.646	-6.301	-4.959	0.888	2.563	2.476	1.855	0.463	3.279	2.943	3.116	3.650	4.409	3.603	0.811	0.679	-4.537	-2.086	-5.958	734.375
2.139	0.508	-0.770	1.616	2.600	2.540	-0.733	-2.907	-5.433	-2.743	-6.628	-5.336	0.911	2.730	2.542	1.799	0.211	3.164	3.036	3.191	3.952	4.636	3.679	0.915	0.762	-4.585	-2.217	-6.314	738.281
2.119	0.335	-0.825	1.611	2.707	2.645	-0.649	-2.743	-5.362	-2.757	-6.843	-5.577	1.037	2.958	2.508	1.698	-0.159	2.921	3.042	3.241	4.263	4.844	3.695	1.130	0.849	-4.525	-2.176	-6.472	742.188
2.021	0.173	-0.929	1.592	2.782	2.714	-0.522	-2.576	-5.209	-2.675	-6.929	-5.658	1.263	3.235	2.362	1.562	-0.627	2.564	2.954	3.276	4.569	5.011	3.635	1.431	0.920	-4.386	-1.974	-6.427	746.094
1.855	0.036	-1.064	1.565	2.823	2.745	-0.350	-2.410	-4.986	-2.490	-6.870	-5.565	1.576	3.545	2.103	1.403	-1.161	2.119	2.777	3.300	4.854	5.120	3.491	1.782	0.958	-4.199	-1.634	-6.191	750.000
1.636	-0.076	-1.214	1.527	2.829	2.730	-0.139	-2.246	-4.708	-2.206	-6.660	-5.299	1.958	3.871	1.734	1.230	-1.712	1.620	2.531	3.320	5.107	5.162	3.265	2.145	0.951	-3.990	-1.190	-5.790	753.906
1.374	-0.170	-1.370	1.474	2.798	2.664	0.102	-2.094	-4.393	-1.836	-6.307	-4.875	2.387	4.196	1.271	1.052	-2.227	1.107	2.247	3.335	5.318	5.136	2.972	2.486	0.901	-3.778	-0.678	-5.261	757.812
1.080	-0.261	-1.531	1.396	2.728	2.539	0.357	-1.967	-4.065	-1.408	-5.831	-4.320	2.839	4.503	0.742	0.875	-2.658	0.622	1.962	3.346	5.483	5.055	2.634	2.782	0.815	-3.569	-0.136	-4.642	761.719
0.757	-0.366	-1.699	1.285	2.618	2.354	0.606	-1.886	-3.752	-0.958	-5.270	-3.672	3.286	4.779	0.182	0.702	-2.967	0.198	1.709	3.350	5.602	4.933	2.285	3.026	0.715	-3.353	0.409	-3.967	765.625
0.405	-0.500	-1.883	1.133	2.469	2.106	0.827	-1.874	-3.486	-0.523	-4.665	-2.973	3.705	5.014	-0.367	0.532	-3.140	-0.139	1.514	3.342	5.681	4.792	1.958	3.225	0.626	-3.105	0.940	-3.262	769.531
0.023	-0.674	-2.093	0.932	2.281	1.797	0.999	-1.952	-3.296	-0.141	-4.064	-2.257	4.075	5.200	-0.866	0.360	-3.181	-0.379	1.392	3.316	5.723	4.652	1.686	3.399	0.575	-2.794	1.454	-2.534	773.438
-0.391	-0.892	-2.340	0.679	2.054	1.428	1.104	-2.135	-3.205	0.161	-3.507	-1.552	4.384	5.332	-1.286	0.178	-3.116	-0.526	1.339	3.264	5.735	4.528	1.492	3.574	0.589	-2.382	1.958	-1.779	777.344
-0.836	-1.155	-2.630	0.374	1.789	1.003	1.135	-2.427	-3.223	0.368	-3.020	-0.869	4.628	5.412	-1.609	-0.022	-2.982	-0.595	1.344	3.182	5.722	4.431	1.388	3.778	0.682	-1.841	2.467	-0.983	781.250
-1.309	-1.457	-2.966	0.018	1.487	0.525	1.093	-2.820	-3.350	0.481	-2.616	-0.209	4.810	5.444	-1.838	-0.248	-2.819	-0.611	1.388	3.064	5.687	4.362	1.371	4.029	0.859	-1.157	2.998	-0.132	785.156
-1.807	-1.792	-3.345	-0.379	1.152	0.001	0.989	-3.297	-3.568	0.515	-2.286	0.436	4.945	5.439	-1.989	-0.503	-2.658	-0.598	1.450	2.914	5.636	4.321	1.429	4.339	1.113	-0.334	3.562	0.786	789.062
-2.324	-2.148	-3.757	-0.806	0.791	-0.558	0.843	-3.833	-3.851	0.496	-2.010	1.077	5.050	5.412	-2.087	-0.784	-2.521	-0.579	1.513	2.737	5.575	4.298	1.536	4.701	1.423	0.601	4.164	1.768	792.969
-2.855	-2.514	-4.188	-1.249	0.416	-1.136	0.678	-4.395	-4.161	0.454	-1.760	1.724	5.146	5.378	-2.165	-1.084	-2.412	-0.570	1.568	2.545	5.512	4.285	1.664	5.102	1.762	1.599	4.798	2.794	796.875
