FP1	F3	F7	FC3	C3	C5	P3	P7	PO7	PO3	O1	Oz	Pz	CPz	FP2	Fz	F4	F8	FC4	FCz	Cz	C4	C6	P4	P8	PO8	PO4	O2	time
1.138	1.822	0.844	1.077	0.958	0.080	-0.085	-0.959	-1.399	-0.275	-1.068	-0.292	0.568	1.541	1.277	1.337	1.529	-0.567	0.798	1.555	1.647	0.810	-0.020	-0.408	-2.419	-2.289	-1.061	-1.438	-199.219
0.993	1.512	0.536	0.986	0.825	0.116	-0.133	-0.749	-1.294	-0.291	-0.982	-0.311	0.442	1.211	1.230	1.320	1.418	-0.422	0.634	1.451	1.520	0.575	0.038	-0.455	-2.074	-1.975	-1.007	-1.381	-195.312
0.846	1.182	0.255	0.872	0.688	0.128	-0.177	-0.542	-1.169	-0.300	-0.896	-0.325	0.318	0.896	1.162	1.258	1.283	-0.292	0.469	1.316	1.375	0.367	0.095	-0.480	-1.715	-1.642	-0.936	-1.298	-191.406
0.695	0.824	0.021	0.721	0.542	0.102	-0.211	-0.347	-1.009	-0.297	-0.803	-0.322	0.201	0.605	1.058	1.120	1.102	-0.193	0.305	1.129	1.201	0.208	0.146	-0.464	-1.329	-1.271	-0.826	-1.157	-187.500
0.531	0.435	-0.158	0.525	0.384	0.029	-0.233	-0.167	-0.807	-0.273	-0.696	-0.288	0.094	0.349	0.905	0.891	0.867	-0.138	0.142	0.879	0.994	0.111	0.191	-0.396	-0.915	-0.845	-0.664	-0.934	-183.594
0.348	0.023	-0.290	0.288	0.215	-0.092	-0.239	-0.010	-0.562	-0.223	-0.565	-0.208	0.005	0.132	0.691	0.574	0.582	-0.138	-0.013	0.573	0.761	0.081	0.227	-0.273	-0.479	-0.359	-0.439	-0.615	-179.688
0.139	-0.393	-0.391	0.025	0.038	-0.256	-0.226	0.121	-0.281	-0.140	-0.400	-0.070	-0.062	-0.041	0.414	0.194	0.268	-0.194	-0.154	0.232	0.517	0.112	0.254	-0.102	-0.034	0.180	-0.153	-0.200	-175.781
-0.098	-0.787	-0.476	-0.241	-0.140	-0.448	-0.196	0.220	0.016	-0.027	-0.200	0.130	-0.103	-0.170	0.082	-0.209	-0.048	-0.303	-0.270	-0.113	0.285	0.188	0.269	0.099	0.397	0.747	0.181	0.292	-171.875
-0.357	-1.122	-0.556	-0.482	-0.309	-0.649	-0.151	0.283	0.304	0.111	0.029	0.384	-0.118	-0.258	-0.282	-0.588	-0.333	-0.453	-0.353	-0.427	0.084	0.290	0.272	0.309	0.788	1.306	0.539	0.826	-167.969
-0.623	-1.366	-0.633	-0.672	-0.455	-0.839	-0.099	0.307	0.549	0.261	0.271	0.671	-0.108	-0.308	-0.643	-0.897	-0.563	-0.626	-0.396	-0.679	-0.066	0.396	0.263	0.503	1.114	1.811	0.887	1.355	-164.062
-0.879	-1.496	-0.701	-0.790	-0.567	-0.996	-0.046	0.291	0.722	0.408	0.503	0.960	-0.078	-0.321	-0.965	-1.103	-0.719	-0.803	-0.394	-0.844	-0.154	0.487	0.246	0.660	1.353	2.215	1.192	1.826	-160.156
-1.101	-1.503	-0.754	-0.828	-0.633	-1.105	0.006	0.240	0.804	0.536	0.698	1.213	-0.031	-0.299	-1.213	-1.188	-0.795	-0.965	-0.347	-0.912	-0.175	0.553	0.227	0.766	1.493	2.480	1.424	2.190	-156.250
-1.272	-1.399	-0.784	-0.788	-0.643	-1.156	0.057	0.163	0.789	0.636	0.833	1.398	0.030	-0.238	-1.367	-1.155	-0.796	-1.095	-0.261	-0.883	-0.132	0.590	0.212	0.814	1.532	2.582	1.561	2.410	-152.344
-1.378	-1.215	-0.789	-0.687	-0.595	-1.148	0.111	0.075	0.690	0.700	0.893	1.487	0.104	-0.136	-1.424	-1.025	-0.736	-1.181	-0.143	-0.770	-0.035	0.601	0.208	0.809	1.475	2.515	1.597	2.464	-148.438
-1.411	-0.990	-0.774	-0.547	-0.493	-1.088	0.176	-0.007	0.534	0.731	0.873	1.467	0.189	0.007	-1.394	-0.830	-0.630	-1.217	-0.005	-0.595	0.102	0.594	0.220	0.762	1.340	2.291	1.537	2.348	-144.531
-1.373	-0.765	-0.743	-0.396	-0.347	-0.987	0.256	-0.066	0.355	0.732	0.783	1.340	0.285	0.185	-1.301	-0.610	-0.498	-1.200	0.137	-0.387	0.259	0.575	0.250	0.686	1.146	1.940	1.397	2.078	-140.625
-1.270	-0.570	-0.705	-0.257	-0.176	-0.858	0.353	-0.089	0.187	0.710	0.640	1.123	0.384	0.386	-1.171	-0.402	-0.355	-1.133	0.268	-0.175	0.417	0.549	0.296	0.596	0.916	1.500	1.203	1.685	-136.719
-1.115	-0.425	-0.664	-0.147	-0.003	-0.716	0.461	-0.070	0.057	0.672	0.470	0.846	0.478	0.591	-1.029	-0.234	-0.216	-1.025	0.372	0.013	0.556	0.518	0.353	0.503	0.673	1.021	0.980	1.214	-132.812
-0.923	-0.331	-0.624	-0.073	0.150	-0.572	0.570	-0.012	-0.022	0.622	0.296	0.544	0.558	0.774	-0.893	-0.124	-0.093	-0.885	0.437	0.155	0.658	0.480	0.412	0.418	0.436	0.550	0.757	0.717	-128.906
-0.709	-0.276	-0.587	-0.035	0.263	-0.434	0.663	0.075	-0.049	0.561	0.142	0.254	0.613	0.914	-0.772	-0.075	0.005	-0.724	0.455	0.237	0.713	0.428	0.462	0.344	0.224	0.134	0.556	0.247	-125.000
-0.486	-0.243	-0.552	-0.022	0.327	-0.307	0.722	0.175	-0.035	0.488	0.020	0.007	0.636	0.990	-0.669	-0.079	0.072	-0.555	0.421	0.255	0.716	0.361	0.493	0.283	0.047	-0.191	0.396	-0.143	-121.094
-0.266	-0.210	-0.518	-0.021	0.341	-0.194	0.732	0.266	-0.001	0.400	-0.064	-0.177	0.621	0.991	-0.582	-0.119	0.107	-0.391	0.342	0.215	0.671	0.275	0.495	0.234	-0.086	-0.401	0.288	-0.415	-117.188
-0.059	-0.163	-0.483	-0.019	0.312	-0.099	0.685	0.333	0.036	0.293	-0.114	-0.288	0.567	0.916	-0.508	-0.175	0.112	-0.239	0.228	0.131	0.584	0.173	0.463	0.195	-0.173	-0.484	0.236	-0.541	-113.281
0.125	-0.095	-0.445	-0.007	0.253	-0.021	0.581	0.363	0.059	0.164	-0.138	-0.327	0.479	0.771	-0.449	-0.229	0.093	-0.105	0.095	0.018	0.465	0.059	0.397	0.164	-0.215	-0.443	0.234	-0.518	-109.375
0.275	-0.009	-0.403	0.018	0.179	0.037	0.431	0.356	0.060	0.017	-0.144	-0.305	0.362	0.572	-0.405	-0.267	0.063	0.008	-0.036	-0.108	0.322	-0.059	0.306	0.139	-0.216	-0.294	0.275	-0.359	-105.469
0.378	0.085	-0.354	0.050	0.102	0.075	0.250	0.318	0.042	-0.141	-0.141	-0.240	0.224	0.335	-0.382	-0.286	0.031	0.102	-0.147	-0.234	0.160	-0.171	0.202	0.119	-0.180	-0.062	0.342	-0.094	-101.562
0.424	0.169	-0.297	0.078	0.029	0.097	0.062	0.266	0.016	-0.298	-0.132	-0.149	0.074	0.082	-0.380	-0.290	0.008	0.178	-0.225	-0.353	-0.018	-0.271	0.101	0.099	-0.114	0.218	0.418	0.236	-97.656
0.409	0.230	-0.229	0.090	-0.037	0.110	-0.113	0.218	-0.003	-0.437	-0.119	-0.051	-0.082	-0.168	-0.398	-0.289	-0.001	0.240	-0.262	-0.461	-0.210	-0.352	0.019	0.078	-0.024	0.510	0.482	0.582	-93.750
0.337	0.255	-0.150	0.079	-0.098	0.122	-0.254	0.190	0.001	-0.542	-0.099	0.040	-0.237	-0.400	-0.428	-0.293	0.006	0.293	-0.261	-0.553	-0.414	-0.412	-0.033	0.048	0.080	0.774	0.517	0.896	-89.844
0.221	0.245	-0.060	0.042	-0.154	0.145	-0.354	0.194	0.038	-0.602	-0.071	0.112	-0.386	-0.604	-0.459	-0.311	0.026	0.341	-0.229	-0.625	-0.622	-0.452	-0.052	0.006	0.189	0.973	0.506	1.136	-85.938
0.086	0.206	0.035	-0.017	-0.206	0.191	-0.407	0.231	0.110	-0.609	-0.033	0.156	-0.528	-0.775	-0.479	-0.342	0.053	0.390	-0.178	-0.674	-0.825	-0.474	-0.040	-0.053	0.288	1.076	0.437	1.270	-82.031
-0.040	0.152	0.133	-0.086	-0.252	0.265	-0.420	0.296	0.209	-0.564	0.015	0.170	-0.658	-0.909	-0.475	-0.380	0.084	0.444	-0.120	-0.694	-1.011	-0.485	-0.003	-0.130	0.364	1.066	0.308	1.280	-78.125
-0.130	0.101	0.228	-0.152	-0.290	0.366	-0.400	0.374	0.317	-0.473	0.074	0.153	-0.771	-1.008	-0.442	-0.414	0.116	0.504	-0.064	-0.680	-1.164	-0.487	0.046	-0.221	0.404	0.938	0.124	1.166	-74.219
-0.164	0.068	0.318	-0.200	-0.312	0.484	-0.359	0.447	0.413	-0.349	0.140	0.109	-0.857	-1.068	-0.380	-0.431	0.146	0.567	-0.016	-0.631	-1.274	-0.484	0.094	-0.315	0.399	0.706	-0.098	0.941	-70.312
-0.131	0.062	0.401	-0.222	-0.312	0.606	-0.306	0.495	0.476	-0.207	0.207	0.043	-0.907	-1.087	-0.292	-0.422	0.170	0.625	0.021	-0.551	-1.329	-0.476	0.128	-0.399	0.350	0.399	-0.334	0.635	-66.406
-0.036	0.088	0.477	-0.213	-0.284	0.714	-0.250	0.501	0.488	-0.065	0.267	-0.039	-0.907	-1.060	-0.190	-0.382	0.181	0.668	0.048	-0.446	-1.326	-0.463	0.137	-0.458	0.265	0.054	-0.558	0.280	-62.500
0.109	0.140	0.544	-0.174	-0.224	0.797	-0.195	0.457	0.443	0.060	0.311	-0.133	-0.852	-0.980	-0.083	-0.313	0.170	0.690	0.063	-0.327	-1.263	-0.444	0.115	-0.479	0.158	-0.289	-0.745	-0.088	-58.594
0.277	0.210	0.604	-0.112	-0.137	0.846	-0.145	0.365	0.344	0.153	0.331	-0.235	-0.738	-0.849	0.022	-0.223	0.127	0.687	0.065	-0.207	-1.149	-0.419	0.057	-0.456	0.046	-0.597	-0.875	-0.440	-54.688
0.440	0.287	0.656	-0.037	-0.030	0.857	-0.100	0.233	0.207	0.206	0.322	-0.340	-0.574	-0.675	0.123	-0.122	0.047	0.662	0.052	-0.098	-0.997	-0.394	-0.034	-0.393	-0.052	-0.849	-0.940	-0.755	-50.781
0.572	0.361	0.698	0.039	0.081	0.831	-0.061	0.080	0.057	0.214	0.284	-0.445	-0.377	-0.475	0.229	-0.019	-0.069	0.624	0.021	-0.009	-0.825	-0.373	-0.152	-0.301	-0.127	-1.038	-0.945	-1.023	-46.875
0.654	0.424	0.733	0.106	0.176	0.771	-0.032	-0.076	-0.084	0.179	0.220	-0.546	-0.172	-0.275	0.351	0.082	-0.211	0.587	-0.028	0.054	-0.654	-0.363	-0.288	-0.201	-0.175	-1.170	-0.904	-1.242	-42.969
0.681	0.475	0.762	0.157	0.240	0.684	-0.014	-0.218	-0.194	0.109	0.136	-0.639	0.013	-0.102	0.502	0.179	-0.359	0.564	-0.091	0.094	-0.502	-0.367	-0.432	-0.116	-0.201	-1.258	-0.841	-1.417	-39.062
0.663	0.511	0.787	0.190	0.262	0.582	-0.012	-0.336	-0.261	0.013	0.040	-0.720	0.156	0.022	0.686	0.276	-0.488	0.565	-0.160	0.119	-0.379	-0.384	-0.572	-0.066	-0.220	-1.318	-0.778	-1.554	-35.156
0.616	0.533	0.811	0.207	0.239	0.476	-0.028	-0.426	-0.284	-0.096	-0.061	-0.786	0.239	0.086	0.899	0.379	-0.575	0.594	-0.225	0.143	-0.287	-0.409	-0.696	-0.063	-0.244	-1.364	-0.736	-1.657	-31.250
0.559	0.541	0.830	0.210	0.181	0.382	-0.061	-0.492	-0.271	-0.209	-0.164	-0.831	0.261	0.093	1.124	0.490	-0.605	0.647	-0.274	0.180	-0.217	-0.431	-0.794	-0.108	-0.286	-1.401	-0.723	-1.724	-27.344
0.509	0.535	0.841	0.204	0.102	0.310	-0.108	-0.538	-0.235	-0.318	-0.263	-0.853	0.229	0.058	1.334	0.607	-0.572	0.715	-0.295	0.240	-0.155	-0.434	-0.857	-0.187	-0.350	-1.426	-0.738	-1.750	-23.438
0.472	0.510	0.838	0.188	0.022	0.267	-0.162	-0.570	-0.189	-0.418	-0.356	-0.846	0.162	0.005	1.498	0.723	-0.484	0.783	-0.283	0.328	-0.087	-0.403	-0.872	-0.280	-0.432	-1.431	-0.769	-1.725	-19.531
0.447	0.464	0.814	0.164	-0.043	0.251	-0.211	-0.590	-0.140	-0.503	-0.437	-0.808	0.084	-0.038	1.587	0.826	-0.361	0.835	-0.232	0.439	-0.000	-0.325	-0.831	-0.359	-0.525	-1.407	-0.800	-1.644	-15.625
0.423	0.393	0.766	0.129	-0.081	0.257	-0.245	-0.594	-0.090	-0.569	-0.500	-0.739	0.014	-0.051	1.583	0.900	-0.228	0.858	-0.147	0.560	0.107	-0.194	-0.728	-0.403	-0.617	-1.351	-0.815	-1.506	-11.719
0.389	0.297	0.698	0.083	-0.084	0.275	-0.252	-0.576	-0.033	-0.612	-0.535	-0.641	-0.031	-0.024	1.479	0.930	-0.113	0.844	-0.033	0.672	0.229	-0.013	-0.565	-0.399	-0.698	-1.265	-0.804	-1.318	-7.812
0.332	0.179	0.616	0.028	-0.054	0.298	-0.226	-0.527	0.041	-0.625	-0.530	-0.521	-0.044	0.042	1.288	0.907	-0.037	0.791	0.098	0.756	0.351	0.207	-0.353	-0.344	-0.763	-1.161	-0.766	-1.095	-3.906
0.246	0.043	0.529	-0.034	-0.000	0.320	-0.163	-0.441	0.137	-0.603	-0.476	-0.390	-0.028	0.132	1.034	0.830	-0.014	0.704	0.232	0.795	0.455	0.444	-0.112	-0.249	-0.806	-1.052	-0.706	-0.858	0.000
0.130	-0.103	0.443	-0.101	0.065	0.336	-0.067	-0.319	0.259	-0.543	-0.368	-0.257	0.006	0.224	0.750	0.709	-0.047	0.594	0.354	0.780	0.526	0.670	0.130	-0.133	-0.827	-0.948	-0.637	-0.627	3.906
-0.011	-0.254	0.360	-0.173	0.127	0.345	0.051	-0.165	0.398	-0.446	-0.207	-0.132	0.043	0.294	0.476	0.560	-0.129	0.473	0.451	0.711	0.551	0.857	0.346	-0.017	-0.821	-0.856	-0.568	-0.421	7.812
-0.166	-0.401	0.274	-0.247	0.169	0.348	0.176	0.004	0.539	-0.321	-0.006	-0.024	0.069	0.319	0.246	0.406	-0.247	0.358	0.509	0.597	0.528	0.979	0.513	0.080	-0.784	-0.772	-0.510	-0.249	11.719
-0.316	-0.536	0.178	-0.321	0.182	0.345	0.291	0.168	0.658	-0.180	0.213	0.063	0.071	0.284	0.090	0.273	-0.385	0.263	0.523	0.455	0.460	1.020	0.620	0.143	-0.710	-0.693	-0.468	-0.119	15.625
-0.441	-0.646	0.065	-0.388	0.164	0.337	0.380	0.304	0.731	-0.041	0.419	0.124	0.041	0.184	0.026	0.184	-0.527	0.198	0.491	0.306	0.355	0.974	0.672	0.166	-0.597	-0.618	-0.444	-0.034	19.531
-0.521	-0.716	-0.063	-0.439	0.118	0.328	0.431	0.392	0.734	0.075	0.578	0.154	-0.019	0.028	0.059	0.155	-0.657	0.172	0.416	0.170	0.228	0.846	0.684	0.148	-0.451	-0.554	-0.441	0.003	23.438
-0.539	-0.731	-0.193	-0.461	0.057	0.320	0.439	0.417	0.654	0.150	0.662	0.149	-0.101	-0.167	0.182	0.195	-0.763	0.188	0.305	0.065	0.095	0.653	0.678	0.093	-0.287	-0.515	-0.460	-0.013	27.344
-0.488	-0.680	-0.308	-0.442	-0.003	0.320	0.407	0.376	0.493	0.172	0.653	0.107	-0.191	-0.377	0.376	0.301	-0.833	0.245	0.170	0.003	-0.030	0.420	0.680	0.008	-0.128	-0.522	-0.504	-0.085	31.250
-0.369	-0.559	-0.385	-0.376	-0.047	0.331	0.347	0.276	0.269	0.142	0.556	0.030	-0.275	-0.575	0.610	0.457	-0.861	0.336	0.024	-0.014	-0.133	0.172	0.707	-0.098	-0.003	-0.588	-0.573	-0.210	35.156
-0.200	-0.378	-0.407	-0.265	-0.066	0.358	0.275	0.134	0.020	0.070	0.396	-0.077	-0.339	-0.739	0.848	0.639	-0.844	0.453	-0.121	0.007	-0.207	-0.065	0.767	-0.218	0.063	-0.718	-0.665	-0.379	39.062
-0.008	-0.162	-0.369	-0.125	-0.059	0.399	0.207	-0.023	-0.197	-0.019	0.225	-0.199	-0.374	-0.856	1.049	0.815	-0.784	0.577	-0.255	0.046	-0.254	-0.277	0.853	-0.342	0.057	-0.890	-0.770	-0.569	42.969
0.167	0.050	-0.279	0.018	-0.039	0.447	0.160	-0.162	-0.316	-0.092	0.110	-0.314	-0.377	-0.926	1.171	0.947	-0.698	0.685	-0.376	0.077	-0.284	-0.456	0.945	-0.459	-0.012	-1.061	-0.868	-0.744	46.875
0.281	0.211	-0.164	0.125	-0.031	0.486	0.144	-0.247	-0.265	-0.111	0.127	-0.393	-0.352	-0.961	1.179	0.995	-0.615	0.750	-0.491	0.064	-0.319	-0.611	1.012	-0.557	-0.114	-1.156	-0.929	-0.851	50.781
0.293	0.270	-0.059	0.151	-0.067	0.496	0.161	-0.246	0.020	-0.041	0.348	-0.401	-0.311	-0.989	1.046	0.921	-0.578	0.740	-0.618	-0.028	-0.390	-0.757	1.019	-0.621	-0.196	-1.086	-0.917	-0.829	54.688
0.161	0.181	-0.011	0.054	-0.182	0.449	0.208	-0.129	0.587	0.144	0.825	-0.298	-0.267	-1.044	0.756	0.693	-0.640	0.626	-0.784	-0.235	-0.531	-0.917	0.935	-0.636	-0.188	-0.754	-0.793	-0.613	58.594
-0.144	-0.091	-0.060	-0.201	-0.407	0.324	0.274	0.122	1.460	0.456	1.584	-0.047	-0.235	-1.162	0.305	0.290	-0.853	0.386	-1.019	-0.585	-0.778	-1.114	0.738	-0.589	-0.017	-0.077	-0.523	-0.146	62.500
-0.641	-0.564	-0.243	-0.634	-0.762	0.105	0.347	0.515	2.627	0.892	2.611	0.383	-0.228	-1.375	-0.298	-0.297	-1.260	0.009	-1.352	-1.092	-1.157	-1.366	0.426	-0.468	0.381	0.995	-0.084	0.616	66.406
-1.334	-1.234	-0.580	-1.242	-1.250	-0.211	0.417	1.044	4.040	1.435	3.859	1.008	-0.253	-1.699	-1.034	-1.060	-1.879	-0.502	-1.798	-1.756	-1.682	-1.681	0.016	-0.271	1.045	2.463	0.531	1.685	70.312
-2.207	-2.078	-1.071	-2.004	-1.852	-0.613	0.480	1.689	5.618	2.056	5.248	1.829	-0.309	-2.133	-1.874	-1.969	-2.699	-1.129	-2.357	-2.557	-2.344	-2.053	-0.458	-0.002	1.978	4.273	1.309	3.042	74.219
-3.220	-3.052	-1.697	-2.878	-2.532	-1.078	0.540	2.412	7.246	2.720	6.680	2.826	-0.382	-2.653	-2.779	-2.978	-3.677	-1.836	-3.004	-3.456	-3.112	-2.461	-0.949	0.329	3.139	6.317	2.218	4.631	78.125
-4.314	-4.099	-2.415	-3.802	-3.235	-1.574	0.609	3.162	8.797	3.393	8.046	3.955	-0.448	-3.211	-3.703	-4.026	-4.741	-2.581	-3.698	-4.397	-3.930	-2.873	-1.406	0.707	4.442	8.445	3.213	6.360	82.031
-5.410	-5.146	-3.171	-4.706	-3.896	-2.064	0.708	3.879	10.137	4.046	9.247	5.155	-0.472	-3.743	-4.594	-5.040	-5.803	-3.313	-4.380	-5.311	-4.724	-3.249	-1.787	1.115	5.762	10.483	4.240	8.116	85.938
-6.425	-6.116	-3.901	-5.511	-4.446	-2.510	0.859	4.495	11.148	4.658	10.201	6.353	-0.411	-4.173	-5.397	-5.946	-6.767	-3.984	-4.986	-6.123	-5.412	-3.546	-2.061	1.541	6.952	12.253	5.242	9.773	89.844
-7.278	-6.934	-4.543	-6.145	-4.821	-2.875	1.083	4.947	11.741	5.213	10.856	7.474	-0.222	-4.426	-6.062	-6.671	-7.543	-4.549	-5.452	-6.759	-5.910	-3.723	-2.217	1.975	7.858	13.596	6.168	11.213	93.750
-7.899	-7.531	-5.046	-6.544	-4.970	-3.127	1.393	5.174	11.855	5.699	11.185	8.453	0.132	-4.437	-6.544	-7.155	-8.057	-4.974	-5.724	-7.156	-6.149	-3.749	-2.263	2.410	8.339	14.391	6.975	12.341	97.656
-8.242	-7.855	-5.372	-6.665	-4.861	-3.243	1.788	5.127	11.468	6.104	11.194	9.237	0.671	-4.163	-6.810	-7.355	-8.258	-5.235	-5.768	-7.266	-6.081	-3.607	-2.218	2.840	8.296	14.564	7.630	13.093	101.562
-8.281	-7.876	-5.499	-6.491	-4.490	-3.208	2.249	4.772	10.589	6.412	10.907	9.796	1.394	-3.593	-6.841	-7.249	-8.124	-5.319	-5.567	-7.062	-5.686	-3.298	-2.113	3.255	7.683	14.103	8.108	13.442	105.469
-8.017	-7.587	-5.422	-6.030	-3.880	-3.026	2.743	4.095	9.257	6.601	10.361	10.116	2.269	-2.753	-6.634	-6.836	-7.660	-5.224	-5.129	-6.546	-4.979	-2.842	-1.977	3.639	6.519	13.057	8.393	13.397	109.375
-7.473	-7.010	-5.150	-5.320	-3.081	-2.714	3.223	3.106	7.537	6.648	9.600	10.199	3.239	-1.700	-6.198	-6.144	-6.903	-4.956	-4.485	-5.746	-4.007	-2.273	-1.836	3.968	4.892	11.532	8.474	12.996	113.281
-6.694	-6.193	-4.705	-4.421	-2.166	-2.305	3.636	1.845	5.522	6.530	8.669	10.054	4.225	-0.525	-5.554	-5.222	-5.911	-4.529	-3.685	-4.717	-2.846	-1.640	-1.705	4.214	2.948	9.677	8.343	12.294	117.188
-5.742	-5.201	-4.117	-3.411	-1.218	-1.843	3.934	0.383	3.327	6.230	7.615	9.698	5.133	0.668	-4.736	-4.142	-4.765	-3.966	-2.791	-3.542	-1.595	-0.997	-1.588	4.345	0.873	7.670	8.001	11.359	121.094
-4.689	-4.118	-3.425	-2.373	-0.324	-1.373	4.078	-1.185	1.090	5.747	6.482	9.150	5.872	1.766	-3.791	-2.990	-3.557	-3.296	-1.874	-2.317	-0.362	-0.399	-1.479	4.334	-1.129	5.700	7.455	10.262	125.000
-3.616	-3.030	-2.674	-1.391	0.440	-0.943	4.042	-2.746	-1.042	5.095	5.319	8.436	6.363	2.670	-2.776	-1.862	-2.379	-2.557	-1.000	-1.150	0.744	0.110	-1.364	4.165	-2.863	3.939	6.726	9.077	128.906
-2.599	-2.025	-1.912	-0.540	1.013	-0.590	3.822	-4.182	-2.922	4.303	4.176	7.588	6.552	3.303	-1.761	-0.850	-1.318	-1.791	-0.225	-0.144	1.629	0.497	-1.227	3.836	-4.166	2.533	5.850	7.876	132.812
-1.704	-1.178	-1.184	0.121	1.361	-0.340	3.430	-5.384	-4.421	3.412	3.105	6.646	6.417	3.621	-0.819	-0.037	-0.447	-1.046	0.408	0.616	2.225	0.745	-1.052	3.364	-4.928	1.586	4.875	6.725	136.719
-0.982	-0.547	-0.532	0.554	1.475	-0.204	2.893	-6.267	-5.437	2.473	2.157	5.658	5.969	3.615	-0.022	0.517	0.186	-0.364	0.874	1.073	2.496	0.852	-0.835	2.779	-5.102	1.150	3.861	5.687	140.625
-0.463	-0.168	0.013	0.747	1.371	-0.176	2.248	-6.774	-5.911	1.538	1.380	4.676	5.249	3.310	0.571	0.779	0.555	0.212	1.166	1.206	2.445	0.830	-0.579	2.126	-4.709	1.220	2.868	4.809	144.531
-0.156	-0.054	0.430	0.706	1.083	-0.241	1.539	-6.884	-5.828	0.657	0.810	3.753	4.324	2.755	0.917	0.746	0.666	0.652	1.289	1.029	2.107	0.701	-0.301	1.453	-3.826	1.746	1.956	4.127	148.438
-0.056	-0.191	0.705	0.459	0.660	-0.372	0.812	-6.611	-5.215	-0.121	0.477	2.939	3.273	2.018	1.001	0.445	0.545	0.937	1.260	0.591	1.544	0.489	-0.025	0.806	-2.577	2.638	1.172	3.658	152.344
-0.144	-0.549	0.833	0.048	0.155	-0.541	0.112	-5.999	-4.136	-0.755	0.396	2.274	2.179	1.172	0.837	-0.073	0.236	1.062	1.101	-0.039	0.835	0.219	0.215	0.225	-1.107	3.788	0.551	3.405	156.250
-0.397	-1.085	0.813	-0.481	-0.382	-0.722	-0.521	-5.110	-2.678	-1.211	0.571	1.791	1.122	0.285	0.458	-0.744	-0.212	1.030	0.838	-0.785	0.057	-0.087	0.388	-0.258	0.438	5.085	0.111	3.359	160.156
-0.791	-1.751	0.647	-1.081	-0.909	-0.896	-1.054	-4.022	-0.941	-1.462	0.994	1.510	0.166	-0.583	-0.081	-1.502	-0.748	0.859	0.494	-1.575	-0.720	-0.412	0.464	-0.623	1.932	6.429	-0.141	3.501	164.062
-1.302	-2.501	0.342	-1.714	-1.398	-1.054	-1.463	-2.812	0.975	-1.494	1.647	1.438	-0.639	-1.387	-0.723	-2.286	-1.333	0.568	0.090	-2.351	-1.445	-0.746	0.427	-0.860	3.282	7.746	-0.208	3.807	167.969
-1.911	-3.290	-0.090	-2.348	-1.834	-1.198	-1.735	-1.556	2.973	-1.307	2.503	1.571	-1.266	-2.099	-1.413	-3.053	-1.940	0.185	-0.356	-3.078	-2.090	-1.082	0.275	-0.968	4.436	8.985	-0.099	4.253	171.875
-2.600	-4.084	-0.629	-2.962	-2.217	-1.333	-1.868	-0.319	4.968	-0.914	3.526	1.894	-1.706	-2.706	-2.106	-3.772	-2.551	-0.264	-0.832	-3.737	-2.650	-1.414	0.021	-0.950	5.378	10.122	0.170	4.817	175.781
-3.350	-4.850	-1.248	-3.543	-2.552	-1.471	-1.874	0.845	6.883	-0.345	4.672	2.383	-1.971	-3.209	-2.774	-4.430	-3.154	-0.753	-1.325	-4.332	-3.137	-1.740	-0.308	-0.819	6.122	11.151	0.580	5.476	179.688
-4.141	-5.565	-1.913	-4.083	-2.851	-1.619	-1.772	1.898	8.655	0.362	5.891	3.006	-2.084	-3.620	-3.401	-5.025	-3.740	-1.258	-1.824	-4.873	-3.574	-2.056	-0.673	-0.593	6.698	12.074	1.110	6.211	183.594
-4.947	-6.212	-2.591	-4.579	-3.125	-1.783	-1.585	2.815	10.234	1.160	7.130	3.727	-2.079	-3.956	-3.981	-5.560	-4.302	-1.761	-2.319	-5.377	-3.988	-2.360	-1.039	-0.293	7.143	12.901	1.734	6.999	187.500
-5.741	-6.781	-3.251	-5.029	-3.381	-1.961	-1.340	3.584	11.586	2.003	8.339	4.512	-1.991	-4.239	-4.517	-6.043	-4.829	-2.248	-2.798	-5.857	-4.400	-2.654	-1.376	0.054	7.489	13.637	2.422	7.820	191.406
-6.493	-7.273	-3.871	-5.432	-3.620	-2.147	-1.059	4.205	12.692	2.852	9.477	5.327	-1.849	-4.486	-5.009	-6.481	-5.309	-2.712	-3.254	-6.322	-4.824	-2.939	-1.665	0.422	7.761	14.287	3.147	8.654	195.312
-7.176	-7.693	-4.440	-5.791	-3.840	-2.337	-0.757	4.683	13.547	3.675	10.511	6.147	-1.673	-4.704	-5.459	-6.879	-5.738	-3.147	-3.682	-6.775	-5.263	-3.218	-1.904	0.789	7.973	14.855	3.883	9.481	199.219
-7.776	-8.058	-4.956	-6.110	-4.038	-2.528	-0.442	5.027	14.161	4.454	11.424	6.955	-1.469	-4.894	-5.866	-7.245	-6.114	-3.553	-4.082	-7.212	-5.706	-3.495	-2.099	1.142	8.134	15.349	4.610	10.290	203.125
-8.285	-8.387	-5.430	-6.394	-4.208	-2.723	-0.115	5.247	14.552	5.183	12.210	7.742	-1.228	-5.043	-6.232	-7.585	-6.447	-3.931	-4.456	-7.629	-6.134	-3.767	-2.266	1.477	8.254	15.785	5.317	11.072	207.031
-8.715	-8.707	-5.878	-6.653	-4.353	-2.929	0.228	5.354	14.751	5.863	12.876	8.507	-0.932	-5.131	-6.559	-7.909	-6.757	-4.282	-4.809	-8.022	-6.524	-4.029	-2.418	1.803	8.344	16.183	6.001	11.827	210.938
-9.087	-9.042	-6.321	-6.900	-4.475	-3.160	0.595	5.361	14.791	6.501	13.436	9.256	-0.560	-5.134	-6.857	-8.230	-7.067	-4.612	-5.147	-8.387	-6.848	-4.266	-2.561	2.135	8.425	16.572	6.666	12.556	214.844
-9.430	-9.419	-6.781	-7.147	-4.586	-3.428	0.990	5.283	14.711	7.103	13.904	9.990	-0.094	-5.029	-7.138	-8.565	-7.401	-4.922	-5.472	-8.727	-7.085	-4.456	-2.692	2.496	8.528	16.979	7.319	13.262	218.750
-9.775	-9.857	-7.271	-7.408	-4.697	-3.741	1.411	5.135	14.551	7.670	14.296	10.711	0.471	-4.801	-7.420	-8.932	-7.776	-5.214	-5.783	-9.045	-7.220	-4.575	-2.797	2.906	8.684	17.429	7.968	13.943	222.656
-10.147	-10.365	-7.796	-7.694	-4.818	-4.103	1.852	4.938	14.346	8.194	14.617	11.405	1.124	-4.448	-7.719	-9.345	-8.195	-5.482	-6.071	-9.347	-7.253	-4.599	-2.851	3.379	8.922	17.932	8.613	14.591	226.562
-10.559	-10.936	-8.344	-8.006	-4.957	-4.505	2.296	4.715	14.126	8.660	14.867	12.051	1.841	-3.980	-8.046	-9.809	-8.648	-5.716	-6.324	-9.638	-7.192	-4.511	-2.829	3.919	9.262	18.486	9.245	15.186	230.469
-11.005	-11.543	-8.889	-8.339	-5.115	-4.928	2.723	4.490	13.915	9.046	15.033	12.614	2.582	-3.424	-8.404	-10.318	-9.111	-5.904	-6.528	-9.919	-7.056	-4.305	-2.706	4.513	9.703	19.069	9.845	15.697	234.375
-11.468	-12.143	-9.392	-8.677	-5.284	-5.346	3.111	4.287	13.729	9.331	15.103	13.050	3.301	-2.816	-8.787	-10.850	-9.553	-6.034	-6.670	-10.186	-6.871	-3.988	-2.473	5.136	10.226	19.649	10.389	16.091	238.281
-11.918	-12.680	-9.811	-8.996	-5.453	-5.729	3.441	4.128	13.579	9.502	15.065	13.318	3.953	-2.197	-9.179	-11.370	-9.939	-6.097	-6.740	-10.427	-6.661	-3.580	-2.135	5.753	10.793	20.184	10.849	16.335	242.188
-12.327	-13.097	-10.110	-9.266	-5.604	-6.050	3.702	4.029	13.468	9.556	14.917	13.386	4.506	-1.606	-9.558	-11.837	-10.237	-6.096	-6.734	-10.625	-6.447	-3.112	-1.716	6.326	11.352	20.630	11.201	16.409	246.094
-12.668	-13.347	-10.269	-9.458	-5.721	-6.291	3.892	3.995	13.402	9.507	14.673	13.242	4.940	-1.073	-9.902	-12.209	-10.426	-6.041	-6.654	-10.760	-6.241	-2.622	-1.256	6.818	11.845	20.947	11.429	16.309	250.000
-12.926	-13.401	-10.287	-9.550	-5.787	-6.442	4.021	4.026	13.380	9.387	14.364	12.900	5.253	-0.616	-10.191	-12.452	-10.495	-5.951	-6.510	-10.816	-6.046	-2.150	-0.809	7.201	12.215	21.106	11.531	16.052	253.906
-13.093	-13.257	-10.185	-9.528	-5.790	-6.502	4.107	4.110	13.400	9.238	14.039	12.405	5.460	-0.242	-10.414	-12.547	-10.449	-5.854	-6.320	-10.781	-5.858	-1.735	-0.426	7.457	12.416	21.088	11.516	15.678	257.812
-13.173	-12.941	-9.999	-9.391	-5.722	-6.481	4.178	4.232	13.461	9.110	13.756	11.826	5.590	0.055	-10.569	-12.498	-10.303	-5.777	-6.103	-10.654	-5.671	-1.410	-0.157	7.578	12.415	20.889	11.403	15.244	261.719
-13.174	-12.499	-9.771	-9.155	-5.584	-6.389	4.260	4.375	13.558	9.052	13.570	11.250	5.676	0.285	-10.668	-12.327	-10.086	-5.746	-5.888	-10.449	-5.479	-1.202	-0.037	7.569	12.201	20.520	11.222	14.814	265.625
-13.108	-11.995	-9.538	-8.844	-5.383	-6.241	4.376	4.522	13.683	9.100	13.528	10.770	5.748	0.461	-10.726	-12.075	-9.830	-5.777	-5.698	-10.189	-5.284	-1.127	-0.085	7.440	11.781	20.002	11.003	14.452	269.531
-12.986	-11.491	-9.327	-8.490	-5.128	-6.050	4.543	4.661	13.826	9.274	13.652	10.463	5.831	0.591	-10.759	-11.787	-9.568	-5.878	-5.559	-9.905	-5.092	-1.190	-0.298	7.211	11.184	19.366	10.777	14.205	273.438
-12.822	-11.041	-9.153	-8.126	-4.836	-5.826	4.762	4.781	13.969	9.567	13.934	10.379	5.937	0.682	-10.780	-11.507	-9.321	-6.042	-5.484	-9.628	-4.913	-1.384	-0.654	6.904	10.449	18.645	10.565	14.100	277.344
-12.627	-10.676	-9.013	-7.777	-4.520	-5.577	5.023	4.876	14.087	9.948	14.331	10.531	6.064	0.732	-10.792	-11.263	-9.101	-6.248	-5.477	-9.378	-4.759	-1.688	-1.109	6.547	9.627	17.873	10.382	14.134	281.250
-12.414	-10.403	-8.893	-7.458	-4.195	-5.306	5.302	4.942	14.150	10.364	14.773	10.888	6.199	0.741	-10.789	-11.064	-8.901	-6.466	-5.530	-9.164	-4.637	-2.068	-1.610	6.171	8.767	17.082	10.232	14.279	285.156
-12.187	-10.205	-8.770	-7.171	-3.874	-5.017	5.564	4.974	14.124	10.749	15.174	11.384	6.319	0.709	-10.759	-10.897	-8.700	-6.661	-5.618	-8.983	-4.549	-2.480	-2.098	5.805	7.916	16.299	10.108	14.482	289.062
-11.947	-10.046	-8.622	-6.910	-3.568	-4.714	5.772	4.963	13.979	11.033	15.446	11.931	6.401	0.638	-10.685	-10.733	-8.468	-6.799	-5.712	-8.817	-4.492	-2.877	-2.520	5.477	7.112	15.546	9.998	14.686	292.969
-11.689	-9.884	-8.428	-6.660	-3.287	-4.403	5.891	4.903	13.695	11.157	15.516	12.428	6.424	0.536	-10.553	-10.537	-8.178	-6.857	-5.776	-8.642	-4.456	-3.212	-2.835	5.211	6.385	14.842	9.884	14.829	296.875
-11.402	-9.679	-8.176	-6.405	-3.039	-4.092	5.894	4.789	13.266	11.079	15.336	12.787	6.371	0.417	-10.354	-10.273	-7.810	-6.818	-5.778	-8.434	-4.429	-3.442	-3.018	5.021	5.757	14.200	9.751	14.862	300.781
-11.077	-9.404	-7.863	-6.134	-2.832	-3.793	5.764	4.616	12.701	10.783	14.894	12.940	6.237	0.296	-10.087	-9.919	-7.359	-6.682	-5.692	-8.177	-4.401	-3.537	-3.061	4.912	5.243	13.632	9.585	14.753	304.688
-10.712	-9.048	-7.498	-5.840	-2.671	-3.514	5.500	4.389	12.028	10.277	14.208	12.848	6.023	0.188	-9.755	-9.467	-6.836	-6.456	-5.505	-7.863	-4.363	-3.481	-2.967	4.879	4.855	13.141	9.377	14.488	308.594
-10.314	-8.622	-7.102	-5.526	-2.556	-3.261	5.114	4.120	11.284	9.593	13.324	12.506	5.736	0.103	-9.370	-8.932	-6.268	-6.156	-5.214	-7.499	-4.308	-3.273	-2.746	4.906	4.600	12.731	9.124	14.071	312.500
-9.902	-8.149	-6.702	-5.203	-2.486	-3.036	4.631	3.832	10.518	8.776	12.304	11.936	5.388	0.050	-8.951	-8.345	-5.687	-5.799	-4.830	-7.101	-4.236	-2.923	-2.412	4.972	4.479	12.399	8.825	13.522	316.406
-9.501	-7.667	-6.329	-4.890	-2.453	-2.832	4.086	3.555	9.780	7.884	11.217	11.178	4.996	0.028	-8.519	-7.750	-5.133	-5.403	-4.370	-6.695	-4.146	-2.458	-1.980	5.053	4.489	12.138	8.485	12.869	320.312
-9.141	-7.218	-6.013	-4.604	-2.444	-2.641	3.519	3.326	9.124	6.975	10.130	10.289	4.574	0.033	-8.098	-7.194	-4.637	-4.982	-3.858	-6.310	-4.039	-1.909	-1.465	5.124	4.615	11.936	8.109	12.140	324.219
-8.846	-6.845	-5.777	-4.364	-2.442	-2.449	2.973	3.179	8.596	6.102	9.103	9.325	4.143	0.059	-7.712	-6.724	-4.228	-4.551	-3.319	-5.974	-3.916	-1.313	-0.886	5.167	4.834	11.777	7.705	11.366	328.125
-8.638	-6.579	-5.636	-4.181	-2.428	-2.246	2.491	3.145	8.236	5.316	8.187	8.345	3.722	0.098	-7.380	-6.373	-3.922	-4.126	-2.782	-5.706	-3.778	-0.708	-0.263	5.171	5.112	11.643	7.285	10.575	332.031
-8.535	-6.441	-5.593	-4.061	-2.384	-2.021	2.113	3.245	8.075	4.660	7.425	7.407	3.336	0.145	-7.121	-6.160	-3.722	-3.728	-2.271	-5.519	-3.628	-0.129	0.370	5.133	5.410	11.513	6.865	9.799	335.938
-8.549	-6.437	-5.645	-4.000	-2.296	-1.771	1.871	3.483	8.125	4.169	6.855	6.566	3.014	0.195	-6.948	-6.087	-3.627	-3.381	-1.811	-5.416	-3.471	0.391	0.978	5.065	5.686	11.372	6.468	9.072	339.844
-8.684	-6.560	-5.778	-3.990	-2.153	-1.495	1.791	3.851	8.385	3.871	6.509	5.880	2.782	0.252	-6.876	-6.142	-3.624	-3.114	-1.427	-5.390	-3.315	0.827	1.517	4.982	5.901	11.206	6.122	8.433	343.750
-8.940	-6.791	-5.978	-4.021	-1.955	-1.201	1.883	4.322	8.831	3.788	6.410	5.399	2.668	0.321	-6.913	-6.301	-3.699	-2.954	-1.139	-5.430	-3.172	1.159	1.942	4.909	6.028	11.010	5.859	7.923	347.656
-9.308	-7.104	-6.231	-4.083	-1.709	-0.897	2.147	4.858	9.420	3.925	6.567	5.167	2.689	0.410	-7.065	-6.535	-3.840	-2.921	-0.965	-5.521	-3.053	1.372	2.215	4.867	6.053	10.787	5.704	7.580	351.562
-9.767	-7.468	-6.518	-4.164	-1.431	-0.598	2.563	5.413	10.090	4.272	6.969	5.206	2.855	0.527	-7.330	-6.812	-4.034	-3.024	-0.917	-5.644	-2.967	1.464	2.313	4.874	5.976	10.547	5.676	7.431	355.469
-10.287	-7.850	-6.822	-4.257	-1.139	-0.320	3.096	5.936	10.769	4.800	7.583	5.514	3.157	0.680	-7.692	-7.102	-4.272	-3.256	-0.996	-5.779	-2.915	1.436	2.230	4.937	5.816	10.307	5.780	7.484	359.375
-10.827	-8.215	-7.120	-4.350	-0.853	-0.077	3.699	6.378	11.377	5.461	8.348	6.054	3.573	0.873	-8.125	-7.381	-4.545	-3.597	-1.193	-5.907	-2.895	1.301	1.985	5.053	5.598	10.086	6.004	7.724	363.281
-11.341	-8.530	-7.392	-4.432	-0.592	0.116	4.317	6.697	11.845	6.192	9.185	6.761	4.065	1.103	-8.591	-7.626	-4.847	-4.009	-1.487	-6.008	-2.893	1.079	1.617	5.206	5.359	9.906	6.323	8.117	367.188
-11.784	-8.768	-7.616	-4.492	-0.368	0.251	4.895	6.865	12.119	6.923	10.007	7.549	4.586	1.361	-9.045	-7.821	-5.167	-4.451	-1.845	-6.067	-2.897	0.795	1.183	5.375	5.133	9.784	6.697	8.609	371.094
-12.117	-8.911	-7.780	-4.519	-0.189	0.326	5.387	6.871	12.169	7.584	10.733	8.327	5.086	1.634	-9.448	-7.959	-5.493	-4.875	-2.230	-6.074	-2.892	0.480	0.745	5.536	4.952	9.734	7.088	9.142	375.000
-12.315	-8.956	-7.884	-4.509	-0.057	0.344	5.760	6.726	11.999	8.122	11.302	9.013	5.520	1.901	-9.768	-8.039	-5.810	-5.238	-2.604	-6.030	-2.870	0.163	0.361	5.670	4.838	9.763	7.458	9.658	378.906
-12.372	-8.920	-7.939	-4.469	0.026	0.311	6.002	6.454	11.637	8.504	11.682	9.554	5.855	2.139	-9.986	-8.069	-6.107	-5.508	-2.936	-5.945	-2.830	-0.130	0.077	5.766	4.807	9.872	7.780	10.117	382.812
-12.303	-8.833	-7.965	-4.414	0.060	0.234	6.114	6.099	11.136	8.722	11.873	9.931	6.072	2.328	-10.098	-8.066	-6.372	-5.664	-3.205	-5.839	-2.782	-0.374	-0.081	5.824	4.862	10.055	8.040	10.491	386.719
-12.143	-8.740	-7.987	-4.370	0.047	0.119	6.114	5.712	10.566	8.789	11.902	10.156	6.166	2.451	-10.114	-8.055	-6.598	-5.697	-3.403	-5.740	-2.743	-0.554	-0.105	5.851	5.000	10.297	8.233	10.773	390.625
-11.936	-8.684	-8.025	-4.365	-0.012	-0.026	6.028	5.347	9.996	8.735	11.811	10.266	6.149	2.500	-10.049	-8.060	-6.783	-5.615	-3.531	-5.679	-2.729	-0.661	-0.006	5.861	5.211	10.574	8.361	10.964	394.531
-11.727	-8.699	-8.090	-4.422	-0.112	-0.193	5.883	5.050	9.491	8.593	11.647	10.303	6.040	2.475	-9.919	-8.102	-6.927	-5.435	-3.599	-5.678	-2.756	-0.688	0.194	5.864	5.479	10.855	8.426	11.065	398.438
-11.552	-8.801	-8.182	-4.553	-0.244	-0.371	5.702	4.858	9.095	8.393	11.445	10.300	5.863	2.389	-9.740	-8.194	-7.029	-5.180	-3.619	-5.753	-2.830	-0.638	0.468	5.867	5.785	11.103	8.425	11.072	402.344
-11.427	-8.978	-8.281	-4.750	-0.394	-0.544	5.499	4.787	8.829	8.152	11.224	10.268	5.642	2.262	-9.521	-8.335	-7.093	-4.876	-3.603	-5.901	-2.944	-0.516	0.788	5.868	6.105	11.279	8.350	10.973	406.250
-11.343	-9.195	-8.361	-4.989	-0.546	-0.694	5.280	4.835	8.686	7.872	10.979	10.193	5.392	2.120	-9.267	-8.508	-7.120	-4.547	-3.559	-6.105	-3.082	-0.331	1.129	5.855	6.414	11.352	8.188	10.750	410.156
-11.269	-9.401	-8.384	-5.229	-0.679	-0.798	5.042	4.980	8.634	7.539	10.686	10.037	5.121	1.985	-8.975	-8.687	-7.111	-4.214	-3.489	-6.332	-3.218	-0.097	1.466	5.812	6.687	11.304	7.924	10.384	414.062
-11.160	-9.536	-8.316	-5.424	-0.771	-0.837	4.778	5.189	8.625	7.134	10.310	9.750	4.831	1.877	-8.643	-8.834	-7.064	-3.889	-3.395	-6.542	-3.324	0.169	1.783	5.718	6.901	11.130	7.545	9.862	417.969
-10.964	-9.547	-8.127	-5.528	-0.805	-0.797	4.481	5.422	8.607	6.635	9.814	9.283	4.513	1.805	-8.263	-8.912	-6.976	-3.574	-3.271	-6.693	-3.375	0.448	2.066	5.554	7.040	10.841	7.046	9.186	421.875
-10.644	-9.400	-7.802	-5.509	-0.770	-0.672	4.146	5.643	8.530	6.034	9.177	8.604	4.160	1.764	-7.834	-8.888	-6.839	-3.267	-3.112	-6.749	-3.352	0.721	2.304	5.307	7.094	10.457	6.432	8.371	425.781
-10.178	-9.084	-7.344	-5.351	-0.663	-0.469	3.779	5.818	8.365	5.337	8.395	7.708	3.764	1.742	-7.354	-8.735	-6.645	-2.960	-2.911	-6.686	-3.253	0.968	2.492	4.973	7.062	10.001	5.716	7.448	429.688
-9.575	-8.618	-6.774	-5.062	-0.490	-0.204	3.392	5.929	8.097	4.572	7.493	6.624	3.328	1.721	-6.829	-8.444	-6.387	-2.644	-2.665	-6.500	-3.083	1.175	2.632	4.558	6.947	9.494	4.927	6.459	433.594
-8.870	-8.046	-6.133	-4.669	-0.265	0.096	3.006	5.962	7.732	3.782	6.519	5.416	2.866	1.686	-6.270	-8.022	-6.062	-2.311	-2.374	-6.200	-2.859	1.334	2.725	4.082	6.756	8.951	4.103	5.452	437.500
-8.119	-7.425	-5.471	-4.211	-0.009	0.398	2.646	5.913	7.286	3.025	5.539	4.176	2.404	1.628	-5.693	-7.490	-5.678	-1.963	-2.047	-5.813	-2.601	1.444	2.781	3.575	6.500	8.378	3.292	4.482	441.406
-7.392	-6.817	-4.844	-3.735	0.256	0.668	2.337	5.779	6.782	2.360	4.628	3.007	1.978	1.551	-5.116	-6.885	-5.247	-1.610	-1.694	-5.374	-2.327	1.510	2.809	3.073	6.189	7.780	2.547	3.601	445.312
-6.751	-6.278	-4.304	-3.287	0.511	0.877	2.102	5.561	6.239	1.839	3.855	2.013	1.629	1.474	-4.565	-6.253	-4.793	-1.270	-1.332	-4.919	-2.054	1.547	2.819	2.618	5.828	7.164	1.919	2.860	449.219
-6.246	-5.847	-3.889	-2.900	0.740	1.006	1.957	5.255	5.672	1.500	3.273	1.280	1.393	1.423	-4.065	-5.642	-4.343	-0.968	-0.980	-4.478	-1.788	1.568	2.822	2.244	5.425	6.540	1.452	2.300	453.125
-5.898	-5.541	-3.621	-2.593	0.938	1.050	1.906	4.862	5.090	1.356	2.908	0.861	1.298	1.429	-3.637	-5.094	-3.925	-0.731	-0.655	-4.074	-1.529	1.588	2.823	1.977	4.983	5.924	1.171	1.950	457.031
-5.707	-5.358	-3.503	-2.365	1.109	1.021	1.946	4.381	4.495	1.399	2.758	0.769	1.355	1.519	-3.300	-4.640	-3.564	-0.579	-0.369	-3.714	-1.272	1.621	2.823	1.826	4.505	5.337	1.083	1.817	460.938
-5.645	-5.272	-3.519	-2.200	1.261	0.945	2.064	3.821	3.889	1.598	2.793	0.974	1.555	1.709	-3.062	-4.291	-3.275	-0.520	-0.129	-3.391	-1.006	1.673	2.819	1.785	3.996	4.800	1.170	1.884	464.844
-5.673	-5.249	-3.637	-2.072	1.410	0.853	2.238	3.196	3.273	1.907	2.957	1.412	1.870	1.997	-2.923	-4.042	-3.063	-0.546	0.068	-3.091	-0.724	1.750	2.805	1.835	3.465	4.329	1.393	2.111	468.750
-5.748	-5.250	-3.816	-1.952	1.566	0.775	2.443	2.534	2.657	2.269	3.185	1.994	2.260	2.363	-2.875	-3.870	-2.920	-0.637	0.229	-2.793	-0.419	1.850	2.773	1.943	2.925	3.937	1.697	2.442	472.656
-5.828	-5.237	-4.011	-1.814	1.740	0.736	2.650	1.870	2.053	2.631	3.411	2.625	2.670	2.769	-2.908	-3.744	-2.832	-0.761	0.367	-2.479	-0.091	1.970	2.717	2.073	2.397	3.629	2.020	2.810	476.562
-5.884	-5.186	-4.181	-1.643	1.930	0.748	2.835	1.245	1.482	2.946	3.582	3.218	3.047	3.172	-3.010	-3.630	-2.780	-0.886	0.494	-2.135	0.254	2.103	2.638	2.189	1.905	3.403	2.305	3.151	480.469
-5.898	-5.083	-4.297	-1.435	2.132	0.811	2.975	0.701	0.972	3.177	3.663	3.706	3.343	3.523	-3.171	-3.498	-2.748	-0.983	0.618	-1.758	0.605	2.242	2.541	2.263	1.478	3.250	2.506	3.413	484.375
-5.866	-4.930	-4.339	-1.198	2.334	0.913	3.056	0.275	0.550	3.305	3.643	4.045	3.522	3.786	-3.383	-3.331	-2.721	-1.036	0.744	-1.354	0.947	2.380	2.438	2.280	1.143	3.156	2.595	3.561	488.281
-5.797	-4.740	-4.304	-0.947	2.521	1.040	3.073	-0.007	0.239	3.324	3.529	4.220	3.562	3.935	-3.634	-3.123	-2.691	-1.039	0.871	-0.936	1.264	2.510	2.347	2.234	0.923	3.104	2.562	3.578	492.188
-5.705	-4.533	-4.197	-0.703	2.681	1.176	3.031	-0.127	0.058	3.240	3.346	4.232	3.464	3.964	-3.910	-2.880	-2.656	-1.000	0.993	-0.528	1.540	2.626	2.285	2.134	0.827	3.075	2.412	3.466	496.094
-5.610	-4.330	-4.032	-0.488	2.803	1.308	2.942	-0.084	0.018	3.069	3.124	4.103	3.241	3.882	-4.192	-2.621	-2.622	-0.937	1.100	-0.154	1.763	2.726	2.266	1.997	0.853	3.055	2.167	3.239	500.000
-5.530	-4.153	-3.824	-0.319	2.883	1.433	2.827	0.116	0.119	2.836	2.898	3.860	2.922	3.712	-4.458	-2.374	-2.604	-0.876	1.180	0.157	1.921	2.805	2.298	1.843	0.984	3.032	1.854	2.922	503.906
-5.479	-4.018	-3.592	-0.209	2.923	1.555	2.712	0.456	0.356	2.570	2.700	3.539	2.546	3.486	-4.686	-2.172	-2.619	-0.840	1.220	0.382	2.009	2.862	2.374	1.698	1.191	3.000	1.507	2.545	507.812
-5.466	-3.938	-3.353	-0.161	2.931	1.683	2.622	0.917	0.717	2.301	2.555	3.175	2.151	3.240	-4.859	-2.045	-2.693	-0.850	1.204	0.499	2.025	2.892	2.479	1.580	1.439	2.963	1.155	2.141	511.719
-5.490	-3.920	-3.124	-0.176	2.915	1.828	2.573	1.469	1.185	2.058	2.479	2.801	1.774	3.004	-4.971	-2.023	-2.845	-0.916	1.124	0.499	1.976	2.892	2.590	1.504	1.692	2.927	0.828	1.744	515.625
-5.547	-3.966	-2.914	-0.247	2.888	1.998	2.577	2.083	1.734	1.864	2.480	2.444	1.442	2.803	-5.024	-2.120	-3.086	-1.036	0.975	0.380	1.873	2.858	2.679	1.474	1.921	2.902	0.543	1.381	519.531
-5.625	-4.069	-2.728	-0.362	2.858	2.193	2.628	2.721	2.336	1.732	2.553	2.122	1.173	2.650	-5.031	-2.338	-3.413	-1.195	0.765	0.154	1.728	2.787	2.724	1.486	2.104	2.898	0.312	1.073	523.438
-5.709	-4.215	-2.563	-0.508	2.829	2.404	2.715	3.344	2.952	1.666	2.685	1.845	0.972	2.548	-5.010	-2.662	-3.802	-1.370	0.509	-0.157	1.557	2.679	2.711	1.530	2.229	2.921	0.135	0.833	527.344
-5.781	-4.382	-2.413	-0.671	2.802	2.615	2.814	3.907	3.541	1.654	2.853	1.612	0.838	2.492	-4.981	-3.062	-4.215	-1.534	0.228	-0.522	1.377	2.539	2.638	1.590	2.298	2.973	0.009	0.666	531.250
-5.826	-4.546	-2.265	-0.837	2.771	2.804	2.902	4.365	4.057	1.680	3.031	1.419	0.764	2.474	-4.959	-3.497	-4.605	-1.667	-0.053	-0.904	1.203	2.373	2.515	1.649	2.315	3.054	-0.073	0.570	535.156
-5.833	-4.683	-2.112	-0.992	2.731	2.950	2.960	4.678	4.457	1.722	3.192	1.259	0.744	2.485	-4.952	-3.923	-4.925	-1.752	-0.311	-1.268	1.047	2.192	2.359	1.698	2.292	3.161	-0.113	0.544	539.062
-5.799	-4.775	-1.950	-1.128	2.675	3.031	2.978	4.813	4.705	1.759	3.317	1.130	0.778	2.523	-4.963	-4.298	-5.139	-1.786	-0.530	-1.580	0.921	2.008	2.194	1.734	2.239	3.291	-0.109	0.587	542.969
-5.732	-4.816	-1.785	-1.239	2.599	3.034	2.955	4.750	4.775	1.780	3.394	1.037	0.873	2.593	-4.988	-4.592	-5.230	-1.774	-0.699	-1.816	0.835	1.838	2.044	1.767	2.165	3.441	-0.053	0.701	546.875
-5.650	-4.809	-1.633	-1.323	2.503	2.952	2.903	4.487	4.661	1.783	3.424	0.990	1.038	2.705	-5.024	-4.790	-5.204	-1.729	-0.813	-1.965	0.797	1.699	1.927	1.814	2.079	3.610	0.069	0.891	550.781
-5.573	-4.769	-1.512	-1.383	2.392	2.785	2.845	4.040	4.374	1.778	3.418	1.006	1.284	2.872	-5.070	-4.892	-5.090	-1.668	-0.875	-2.026	0.811	1.607	1.859	1.902	1.986	3.799	0.273	1.160	554.688
-5.521	-4.719	-1.443	-1.426	2.271	2.542	2.802	3.445	3.941	1.784	3.393	1.099	1.619	3.106	-5.129	-4.914	-4.931	-1.608	-0.895	-2.013	0.877	1.576	1.846	2.055	1.893	4.003	0.572	1.509	558.594
-5.511	-4.679	-1.441	-1.458	2.151	2.234	2.797	2.749	3.403	1.822	3.372	1.282	2.040	3.411	-5.204	-4.878	-4.772	-1.561	-0.881	-1.948	0.991	1.616	1.893	2.289	1.807	4.217	0.970	1.928	562.500
-5.551	-4.665	-1.515	-1.487	2.039	1.877	2.844	2.010	2.809	1.909	3.373	1.560	2.532	3.778	-5.300	-4.809	-4.652	-1.536	-0.847	-1.855	1.144	1.726	1.997	2.611	1.738	4.430	1.456	2.401	566.406
-5.640	-4.684	-1.663	-1.516	1.942	1.489	2.944	1.283	2.205	2.053	3.410	1.926	3.066	4.187	-5.418	-4.728	-4.592	-1.534	-0.804	-1.758	1.322	1.903	2.153	3.007	1.698	4.630	2.008	2.904	570.312
-5.771	-4.729	-1.871	-1.550	1.863	1.091	3.086	0.619	1.632	2.249	3.488	2.364	3.602	4.607	-5.554	-4.646	-4.595	-1.548	-0.759	-1.675	1.506	2.131	2.355	3.451	1.692	4.799	2.589	3.403	574.219
-5.929	-4.780	-2.119	-1.585	1.801	0.705	3.249	0.055	1.120	2.479	3.602	2.853	4.093	4.996	-5.697	-4.564	-4.643	-1.568	-0.715	-1.614	1.679	2.392	2.592	3.904	1.724	4.922	3.149	3.868	578.125
-6.093	-4.810	-2.381	-1.617	1.754	0.356	3.405	-0.387	0.687	2.711	3.743	3.363	4.493	5.313	-5.831	-4.474	-4.711	-1.581	-0.668	-1.577	1.823	2.661	2.852	4.320	1.787	4.986	3.640	4.267	582.031
-6.245	-4.790	-2.625	-1.636	1.717	0.067	3.523	-0.699	0.344	2.911	3.893	3.867	4.762	5.520	-5.940	-4.362	-4.764	-1.572	-0.615	-1.556	1.922	2.915	3.123	4.657	1.868	4.986	4.015	4.578	585.938
-6.362	-4.692	-2.822	-1.634	1.687	-0.142	3.580	-0.887	0.090	3.041	4.034	4.334	4.873	5.591	-6.009	-4.218	-4.777	-1.529	-0.548	-1.542	1.966	3.131	3.390	4.878	1.948	4.919	4.236	4.786	589.844
-6.424	-4.502	-2.942	-1.597	1.663	-0.253	3.559	-0.961	-0.077	3.070	4.145	4.737	4.814	5.514	-6.027	-4.030	-4.728	-1.443	-0.464	-1.525	1.951	3.293	3.644	4.961	2.006	4.788	4.281	4.881	593.750
-6.409	-4.215	-2.961	-1.517	1.647	-0.256	3.456	-0.934	-0.162	2.980	4.207	5.047	4.591	5.293	-5.986	-3.796	-4.610	-1.313	-0.361	-1.500	1.878	3.393	3.873	4.895	2.021	4.596	4.142	4.856	597.656
-6.296	-3.842	-2.867	-1.389	1.642	-0.148	3.279	-0.818	-0.172	2.766	4.201	5.234	4.224	4.947	-5.881	-3.520	-4.428	-1.141	-0.241	-1.463	1.752	3.429	4.069	4.687	1.979	4.346	3.827	4.704	601.562
-6.071	-3.402	-2.653	-1.209	1.653	0.063	3.043	-0.621	-0.111	2.441	4.113	5.271	3.743	4.510	-5.707	-3.209	-4.197	-0.936	-0.108	-1.418	1.585	3.408	4.224	4.355	1.871	4.038	3.355	4.421	605.469
-5.723	-2.921	-2.328	-0.983	1.684	0.363	2.772	-0.349	0.013	2.030	3.929	5.136	3.187	4.025	-5.458	-2.877	-3.941	-0.714	0.028	-1.366	1.389	3.342	4.332	3.927	1.698	3.672	2.754	4.002	609.375
-5.254	-2.426	-1.911	-0.718	1.739	0.729	2.489	-0.008	0.194	1.568	3.647	4.816	2.596	3.536	-5.129	-2.535	-3.686	-0.493	0.158	-1.312	1.182	3.245	4.389	3.438	1.466	3.251	2.063	3.448	613.281
-4.677	-1.941	-1.428	-0.426	1.816	1.133	2.220	0.392	0.423	1.096	3.271	4.312	2.012	3.088	-4.722	-2.197	-3.456	-0.293	0.271	-1.258	0.981	3.131	4.391	2.923	1.186	2.782	1.322	2.773	617.188
-4.018	-1.485	-0.911	-0.121	1.913	1.545	1.984	0.834	0.689	0.652	2.818	3.640	1.473	2.720	-4.249	-1.872	-3.275	-0.133	0.356	-1.202	0.803	3.011	4.338	2.419	0.875	2.280	0.576	2.004	621.094
-3.314	-1.076	-0.391	0.180	2.023	1.935	1.798	1.293	0.978	0.272	2.315	2.838	1.013	2.459	-3.730	-1.570	-3.157	-0.029	0.405	-1.143	0.665	2.891	4.230	1.958	0.548	1.770	-0.127	1.188	625.000
-2.613	-0.726	0.100	0.460	2.132	2.275	1.668	1.736	1.273	-0.018	1.800	1.961	0.658	2.319	-3.199	-1.300	-3.111	0.012	0.412	-1.076	0.580	2.776	4.075	1.565	0.226	1.288	-0.740	0.385	628.906
-1.968	-0.449	0.535	0.698	2.228	2.540	1.597	2.125	1.556	-0.205	1.320	1.079	0.426	2.303	-2.693	-1.071	-3.137	-0.009	0.376	-1.002	0.554	2.664	3.883	1.261	-0.075	0.874	-1.222	-0.335	632.812
-1.433	-0.260	0.886	0.875	2.291	2.713	1.577	2.423	1.806	-0.284	0.919	0.270	0.321	2.397	-2.249	-0.892	-3.225	-0.079	0.304	-0.923	0.587	2.553	3.673	1.058	-0.338	0.570	-1.538	-0.898	636.719
-1.051	-0.169	1.131	0.971	2.304	2.780	1.595	2.598	2.000	-0.264	0.639	-0.390	0.339	2.576	-1.898	-0.768	-3.361	-0.174	0.208	-0.845	0.667	2.443	3.466	0.961	-0.553	0.408	-1.663	-1.247	640.625
-0.849	-0.180	1.253	0.974	2.253	2.737	1.635	2.628	2.117	-0.161	0.505	-0.841	0.465	2.811	-1.656	-0.701	-3.521	-0.271	0.102	-0.778	0.778	2.332	3.286	0.968	-0.714	0.408	-1.591	-1.342	644.531
-0.828	-0.290	1.248	0.880	2.128	2.586	1.677	2.500	2.134	-0.002	0.525	-1.042	0.677	3.066	-1.523	-0.684	-3.679	-0.345	0.003	-0.729	0.899	2.223	3.155	1.070	-0.825	0.569	-1.330	-1.173	648.438
-0.963	-0.477	1.120	0.696	1.928	2.338	1.702	2.216	2.034	0.186	0.683	-0.983	0.949	3.312	-1.482	-0.705	-3.810	-0.381	-0.071	-0.705	1.011	2.125	3.091	1.255	-0.896	0.869	-0.906	-0.763	652.344
-1.204	-0.712	0.892	0.441	1.663	2.009	1.695	1.786	1.801	0.372	0.942	-0.687	1.254	3.528	-1.503	-0.740	-3.889	-0.375	-0.107	-0.704	1.099	2.052	3.101	1.506	-0.941	1.268	-0.360	-0.162	656.250
-1.488	-0.956	0.592	0.143	1.352	1.623	1.647	1.229	1.430	0.528	1.249	-0.204	1.569	3.705	-1.547	-0.765	-3.900	-0.328	-0.095	-0.717	1.160	2.019	3.187	1.803	-0.975	1.710	0.256	0.552	660.156
-1.744	-1.167	0.263	-0.160	1.022	1.206	1.554	0.572	0.921	0.630	1.540	0.394	1.871	3.844	-1.578	-0.751	-3.832	-0.250	-0.031	-0.728	1.202	2.043	3.338	2.124	-1.011	2.132	0.882	1.293	664.062
-1.911	-1.313	-0.055	-0.434	0.705	0.790	1.419	-0.153	0.288	0.660	1.753	1.020	2.143	3.954	-1.566	-0.677	-3.681	-0.150	0.087	-0.717	1.238	2.136	3.542	2.446	-1.055	2.474	1.459	1.965	667.969
-1.947	-1.368	-0.319	-0.645	0.435	0.409	1.250	-0.907	-0.446	0.605	1.833	1.590	2.370	4.050	-1.492	-0.527	-3.446	-0.037	0.258	-0.663	1.290	2.305	3.781	2.745	-1.106	2.682	1.931	2.483	671.875
-1.833	-1.320	-0.497	-0.767	0.242	0.095	1.059	-1.652	-1.250	0.460	1.744	2.022	2.538	4.141	-1.348	-0.297	-3.133	0.088	0.479	-0.551	1.375	2.546	4.044	2.998	-1.157	2.720	2.251	2.776	675.781
-1.579	-1.170	-0.568	-0.783	0.150	-0.124	0.860	-2.346	-2.083	0.225	1.467	2.253	2.635	4.234	-1.137	0.007	-2.748	0.227	0.749	-0.370	1.508	2.851	4.322	3.183	-1.198	2.570	2.385	2.797	679.688
-1.216	-0.925	-0.522	-0.686	0.175	-0.229	0.669	-2.948	-2.903	-0.090	1.007	2.239	2.650	4.328	-0.873	0.372	-2.304	0.389	1.065	-0.122	1.692	3.201	4.611	3.284	-1.221	2.233	2.318	2.524	683.594
-0.784	-0.600	-0.363	-0.479	0.318	-0.208	0.496	-3.422	-3.664	-0.471	0.387	1.963	2.573	4.414	-0.573	0.775	-1.819	0.581	1.422	0.184	1.921	3.575	4.912	3.289	-1.220	1.730	2.048	1.965	687.500
-0.323	-0.212	-0.104	-0.172	0.572	-0.061	0.353	-3.740	-4.326	-0.899	-0.355	1.433	2.399	4.476	-0.258	1.192	-1.319	0.809	1.810	0.530	2.178	3.950	5.224	3.195	-1.198	1.093	1.591	1.153	691.406
0.136	0.216	0.238	0.213	0.915	0.202	0.245	-3.884	-4.853	-1.352	-1.171	0.678	2.125	4.500	0.053	1.598	-0.833	1.071	2.214	0.892	2.439	4.299	5.544	3.002	-1.164	0.367	0.974	0.144	695.312
0.576	0.666	0.645	0.652	1.317	0.561	0.169	-3.849	-5.224	-1.808	-2.010	-0.251	1.756	4.468	0.347	1.971	-0.392	1.360	2.614	1.247	2.677	4.602	5.866	2.719	-1.131	-0.402	0.236	-0.995	699.219
0.990	1.115	1.099	1.114	1.742	0.989	0.123	-3.644	-5.427	-2.248	-2.820	-1.292	1.302	4.373	0.617	2.295	-0.022	1.661	2.986	1.570	2.868	4.839	6.175	2.359	-1.114	-1.167	-0.581	-2.188	703.125
1.375	1.541	1.586	1.566	2.156	1.455	0.098	-3.290	-5.467	-2.656	-3.559	-2.374	0.783	4.212	0.861	2.554	0.260	1.955	3.309	1.844	2.996	5.001	6.454	1.944	-1.126	-1.888	-1.432	-3.363	707.031
1.728	1.923	2.088	1.980	2.525	1.927	0.085	-2.819	-5.357	-3.017	-4.187	-3.430	0.227	3.996	1.083	2.742	0.446	2.221	3.565	2.055	3.057	5.088	6.686	1.496	-1.177	-2.532	-2.272	-4.455	710.938
2.038	2.236	2.580	2.329	2.826	2.375	0.079	-2.273	-5.123	-3.319	-4.676	-4.395	-0.330	3.744	1.284	2.853	0.536	2.440	3.744	2.199	3.056	5.110	6.856	1.045	-1.270	-3.073	-3.058	-5.412	714.844
2.287	2.460	3.033	2.595	3.044	2.774	0.077	-1.697	-4.795	-3.550	-5.008	-5.215	-0.848	3.486	1.463	2.884	0.539	2.596	3.846	2.276	3.013	5.084	6.956	0.623	-1.399	-3.495	-3.748	-6.194	718.750
2.451	2.574	3.412	2.764	3.175	3.104	0.080	-1.138	-4.407	-3.701	-5.175	-5.849	-1.283	3.254	1.612	2.838	0.466	2.681	3.876	2.295	2.953	5.032	6.987	0.259	-1.549	-3.793	-4.304	-6.777	722.656
2.507	2.565	3.682	2.830	3.222	3.348	0.093	-0.641	-3.995	-3.766	-5.184	-6.273	-1.595	3.082	1.720	2.720	0.330	2.695	3.850	2.271	2.906	4.978	6.957	-0.020	-1.703	-3.968	-4.696	-7.150	726.562
2.440	2.431	3.814	2.795	3.194	3.493	0.120	-0.246	-3.594	-3.742	-5.055	-6.480	-1.755	2.999	1.774	2.543	0.148	2.647	3.786	2.220	2.902	4.940	6.884	-0.193	-1.840	-4.031	-4.903	-7.316	730.469
2.247	2.181	3.792	2.670	3.104	3.527	0.165	0.020	-3.236	-3.636	-4.817	-6.479	-1.743	3.025	1.761	2.323	-0.065	2.549	3.705	2.164	2.962	4.931	6.784	-0.251	-1.946	-3.999	-4.913	-7.289	734.375
1.942	1.836	3.612	2.469	2.964	3.444	0.229	0.137	-2.951	-3.460	-4.508	-6.293	-1.559	3.170	1.672	2.082	-0.292	2.417	3.625	2.125	3.101	4.955	6.678	-0.191	-2.014	-3.893	-4.733	-7.091	738.281
1.553	1.428	3.294	2.214	2.789	3.246	0.308	0.104	-2.760	-3.233	-4.167	-5.954	-1.219	3.429	1.509	1.845	-0.517	2.263	3.564	2.121	3.320	5.007	6.581	-0.020	-2.044	-3.732	-4.380	-6.752	742.188
1.120	0.993	2.866	1.927	2.592	2.941	0.396	-0.070	-2.679	-2.978	-3.832	-5.499	-0.752	3.788	1.278	1.636	-0.723	2.096	3.529	2.166	3.612	5.081	6.504	0.245	-2.050	-3.535	-3.887	-6.302	746.094
0.690	0.568	2.372	1.633	2.386	2.546	0.483	-0.363	-2.714	-2.718	-3.530	-4.966	-0.197	4.222	0.996	1.477	-0.902	1.921	3.526	2.268	3.958	5.163	6.452	0.586	-2.050	-3.319	-3.291	-5.771	750.000
0.303	0.185	1.856	1.351	2.185	2.086	0.562	-0.745	-2.863	-2.473	-3.281	-4.392	0.398	4.699	0.682	1.383	-1.045	1.742	3.551	2.428	4.335	5.242	6.421	0.978	-2.065	-3.094	-2.637	-5.191	753.906
-0.010	-0.129	1.363	1.102	2.003	1.593	0.626	-1.184	-3.115	-2.257	-3.089	-3.807	0.989	5.185	0.361	1.362	-1.149	1.559	3.597	2.641	4.718	5.308	6.406	1.394	-2.111	-2.870	-1.969	-4.587	757.812
-0.234	-0.358	0.925	0.900	1.853	1.102	0.671	-1.645	-3.453	-2.080	-2.952	-3.235	1.535	5.649	0.055	1.416	-1.214	1.375	3.655	2.893	5.086	5.354	6.397	1.805	-2.197	-2.656	-1.330	-3.987	761.719
-0.368	-0.493	0.566	0.757	1.744	0.651	0.697	-2.097	-3.853	-1.943	-2.859	-2.696	2.001	6.063	-0.215	1.540	-1.240	1.194	3.717	3.171	5.418	5.376	6.382	2.181	-2.320	-2.459	-0.758	-3.412	765.625
-0.427	-0.532	0.294	0.680	1.684	0.273	0.706	-2.516	-4.292	-1.847	-2.796	-2.201	2.363	6.404	-0.433	1.724	-1.231	1.023	3.776	3.457	5.702	5.374	6.351	2.493	-2.473	-2.290	-0.284	-2.883	769.531
-0.433	-0.479	0.108	0.675	1.675	0.001	0.700	-2.883	-4.743	-1.789	-2.751	-1.757	2.606	6.657	-0.582	1.956	-1.188	0.874	3.826	3.736	5.930	5.348	6.297	2.717	-2.640	-2.160	0.068	-2.417	773.438
-0.413	-0.340	0.000	0.741	1.715	-0.147	0.682	-3.190	-5.186	-1.766	-2.713	-1.365	2.728	6.814	-0.651	2.223	-1.115	0.757	3.867	3.994	6.097	5.304	6.218	2.837	-2.808	-2.078	0.286	-2.027	777.344
-0.395	-0.125	-0.043	0.876	1.799	-0.162	0.655	-3.436	-5.605	-1.775	-2.677	-1.021	2.734	6.876	-0.637	2.513	-1.016	0.684	3.898	4.224	6.206	5.245	6.114	2.850	-2.966	-2.052	0.368	-1.716	781.250
-0.397	0.153	-0.039	1.070	1.919	-0.050	0.622	-3.628	-5.992	-1.811	-2.640	-0.717	2.641	6.853	-0.543	2.815	-0.895	0.658	3.922	4.422	6.264	5.177	5.990	2.763	-3.110	-2.086	0.328	-1.480	785.156
-0.432	0.477	-0.004	1.311	2.065	0.168	0.585	-3.781	-6.347	-1.869	-2.599	-0.438	2.476	6.763	-0.382	3.121	-0.758	0.676	3.940	4.593	6.282	5.104	5.851	2.596	-3.239	-2.171	0.191	-1.304	789.062
-0.500	0.829	0.044	1.582	2.226	0.457	0.547	-3.913	-6.680	-1.938	-2.555	-0.169	2.267	6.633	-0.176	3.427	-0.612	0.728	3.957	4.745	6.278	5.031	5.704	2.379	-3.356	-2.294	-0.007	-1.164	792.969
-0.594	1.189	0.087	1.864	2.391	0.776	0.510	-4.042	-7.004	-2.010	-2.508	0.103	2.048	6.490	0.047	3.730	-0.462	0.797	3.974	4.890	6.268	4.960	5.555	2.142	-3.466	-2.436	-0.225	-1.036	796.875
