FP1	F3	F7	FC3	C3	C5	P3	P7	PO7	PO3	O1	Oz	Pz	CPz	FP2	Fz	F4	F8	FC4	FCz	Cz	C4	C6	P4	P8	PO8	PO4	O2	time
-0.663	-1.105	-1.582	-0.594	-0.751	-0.469	0.406	0.306	0.526	0.273	1.013	1.345	0.121	-0.183	-1.617	-0.767	-0.146	-0.700	0.141	-0.406	-0.610	0.734	0.187	1.228	0.906	3.069	1.271	2.795	-199.219
-1.138	-1.153	-1.558	-0.685	-0.701	-0.421	0.699	0.681	1.200	0.825	1.660	1.811	0.276	-0.330	-1.751	-0.948	-0.447	-0.950	-0.035	-0.717	-0.745	0.521	0.065	1.176	0.656	2.722	1.407	2.881	-195.312
-1.547	-1.203	-1.534	-0.766	-0.642	-0.356	0.965	1.038	1.824	1.328	2.230	2.225	0.405	-0.474	-1.867	-1.117	-0.726	-1.159	-0.202	-1.010	-0.878	0.321	-0.049	1.115	0.429	2.386	1.514	2.942	-191.406
-1.834	-1.252	-1.505	-0.826	-0.574	-0.271	1.176	1.353	2.336	1.731	2.650	2.528	0.483	-0.608	-1.940	-1.256	-0.952	-1.290	-0.345	-1.258	-0.998	0.151	-0.143	1.037	0.244	2.062	1.564	2.943	-187.500
-1.963	-1.286	-1.460	-0.854	-0.495	-0.164	1.307	1.603	2.689	1.991	2.862	2.674	0.491	-0.723	-1.945	-1.342	-1.094	-1.318	-0.443	-1.437	-1.093	0.027	-0.205	0.940	0.114	1.749	1.532	2.855	-183.594
-1.922	-1.283	-1.380	-0.840	-0.410	-0.038	1.342	1.767	2.844	2.078	2.832	2.630	0.424	-0.808	-1.870	-1.353	-1.126	-1.234	-0.478	-1.521	-1.151	-0.036	-0.225	0.821	0.042	1.442	1.407	2.653	-179.688
-1.722	-1.221	-1.250	-0.775	-0.321	0.100	1.275	1.828	2.783	1.985	2.554	2.386	0.286	-0.854	-1.712	-1.270	-1.029	-1.046	-0.435	-1.494	-1.159	-0.031	-0.194	0.684	0.027	1.137	1.188	2.328	-175.781
-1.398	-1.082	-1.059	-0.657	-0.234	0.236	1.112	1.775	2.506	1.719	2.052	1.953	0.093	-0.849	-1.479	-1.086	-0.797	-0.777	-0.308	-1.348	-1.107	0.042	-0.109	0.536	0.057	0.830	0.891	1.885	-171.875
-0.998	-0.861	-0.810	-0.491	-0.156	0.356	0.868	1.610	2.035	1.310	1.378	1.371	-0.127	-0.787	-1.186	-0.804	-0.444	-0.458	-0.102	-1.091	-0.988	0.175	0.027	0.390	0.120	0.525	0.541	1.346	-167.969
-0.579	-0.570	-0.524	-0.290	-0.094	0.443	0.571	1.346	1.411	0.801	0.603	0.695	-0.344	-0.662	-0.853	-0.446	-0.003	-0.129	0.165	-0.747	-0.804	0.355	0.207	0.258	0.201	0.231	0.178	0.752	-164.062
-0.196	-0.239	-0.229	-0.075	-0.055	0.486	0.252	1.005	0.692	0.246	-0.191	-0.005	-0.525	-0.474	-0.502	-0.048	0.477	0.175	0.465	-0.352	-0.563	0.561	0.415	0.159	0.287	-0.038	-0.157	0.155	-160.156
0.106	0.090	0.034	0.126	-0.042	0.476	-0.053	0.619	-0.056	-0.298	-0.922	-0.657	-0.640	-0.229	-0.157	0.345	0.935	0.418	0.762	0.046	-0.281	0.770	0.629	0.108	0.368	-0.261	-0.420	-0.387	-156.250
0.297	0.370	0.229	0.288	-0.057	0.415	-0.309	0.225	-0.764	-0.776	-1.524	-1.196	-0.668	0.062	0.154	0.686	1.313	0.578	1.018	0.399	0.014	0.959	0.828	0.117	0.444	-0.417	-0.577	-0.817	-152.344
0.366	0.557	0.327	0.387	-0.096	0.312	-0.489	-0.144	-1.370	-1.141	-1.946	-1.571	-0.598	0.378	0.401	0.932	1.562	0.639	1.198	0.665	0.295	1.110	0.990	0.191	0.515	-0.489	-0.605	-1.090	-148.438
0.321	0.619	0.317	0.411	-0.152	0.181	-0.575	-0.455	-1.824	-1.361	-2.164	-1.754	-0.433	0.695	0.558	1.052	1.651	0.599	1.279	0.814	0.530	1.205	1.098	0.327	0.587	-0.464	-0.499	-1.178	-144.531
0.187	0.546	0.206	0.355	-0.214	0.040	-0.563	-0.688	-2.094	-1.419	-2.177	-1.739	-0.185	0.985	0.605	1.035	1.573	0.467	1.250	0.837	0.694	1.236	1.142	0.506	0.667	-0.340	-0.273	-1.079	-140.625
-0.003	0.350	0.021	0.232	-0.273	-0.093	-0.462	-0.829	-2.172	-1.318	-2.002	-1.545	0.116	1.218	0.535	0.886	1.341	0.262	1.117	0.745	0.772	1.199	1.118	0.705	0.754	-0.130	0.040	-0.813	-136.719
-0.209	0.065	-0.200	0.058	-0.321	-0.208	-0.296	-0.876	-2.069	-1.079	-1.676	-1.210	0.433	1.367	0.364	0.635	0.992	0.014	0.899	0.565	0.758	1.095	1.032	0.889	0.845	0.137	0.392	-0.426	-132.812
-0.395	-0.260	-0.411	-0.138	-0.357	-0.299	-0.096	-0.835	-1.813	-0.736	-1.242	-0.788	0.723	1.409	0.121	0.324	0.579	-0.245	0.628	0.340	0.660	0.932	0.892	1.023	0.926	0.422	0.728	0.019	-128.906
-0.529	-0.569	-0.570	-0.328	-0.381	-0.366	0.101	-0.718	-1.445	-0.336	-0.749	-0.336	0.942	1.332	-0.150	0.004	0.158	-0.479	0.340	0.112	0.496	0.721	0.714	1.075	0.980	0.679	0.995	0.454	-125.000
-0.586	-0.811	-0.646	-0.483	-0.398	-0.413	0.260	-0.542	-1.014	0.068	-0.245	0.088	1.052	1.135	-0.401	-0.273	-0.214	-0.655	0.069	-0.079	0.288	0.475	0.515	1.022	0.989	0.863	1.147	0.816	-121.094
-0.556	-0.943	-0.621	-0.583	-0.408	-0.441	0.354	-0.326	-0.564	0.430	0.228	0.439	1.028	0.829	-0.589	-0.469	-0.490	-0.749	-0.158	-0.206	0.061	0.210	0.315	0.855	0.938	0.935	1.154	1.054	-117.188
-0.440	-0.945	-0.495	-0.610	-0.410	-0.445	0.368	-0.091	-0.139	0.707	0.633	0.683	0.865	0.440	-0.683	-0.558	-0.645	-0.751	-0.325	-0.259	-0.161	-0.057	0.134	0.579	0.818	0.872	1.007	1.138	-113.281
-0.249	-0.815	-0.281	-0.558	-0.394	-0.414	0.303	0.144	0.228	0.874	0.940	0.802	0.575	0.003	-0.664	-0.536	-0.670	-0.662	-0.426	-0.242	-0.359	-0.308	-0.011	0.213	0.631	0.666	0.715	1.056	-109.375
-0.005	-0.571	-0.005	-0.428	-0.348	-0.332	0.172	0.356	0.510	0.920	1.129	0.794	0.190	-0.442	-0.532	-0.418	-0.579	-0.495	-0.467	-0.169	-0.518	-0.526	-0.104	-0.212	0.387	0.326	0.305	0.818	-105.469
0.264	-0.246	0.301	-0.228	-0.258	-0.185	-0.000	0.529	0.692	0.849	1.190	0.668	-0.248	-0.851	-0.299	-0.231	-0.402	-0.273	-0.458	-0.062	-0.626	-0.694	-0.137	-0.657	0.105	-0.125	-0.183	0.448	-101.562
0.531	0.117	0.605	0.027	-0.116	0.032	-0.186	0.647	0.769	0.681	1.124	0.445	-0.690	-1.189	0.009	-0.010	-0.178	-0.023	-0.413	0.056	-0.680	-0.800	-0.112	-1.085	-0.192	-0.647	-0.702	-0.019	-97.656
0.771	0.475	0.875	0.312	0.081	0.312	-0.361	0.704	0.748	0.446	0.946	0.154	-1.089	-1.430	0.359	0.210	0.055	0.224	-0.345	0.169	-0.678	-0.840	-0.036	-1.460	-0.477	-1.194	-1.203	-0.539	-93.750
0.967	0.788	1.085	0.600	0.319	0.630	-0.505	0.696	0.643	0.176	0.683	-0.170	-1.407	-1.562	0.713	0.397	0.263	0.438	-0.266	0.262	-0.626	-0.813	0.074	-1.753	-0.727	-1.712	-1.639	-1.062	-89.844
1.109	1.025	1.218	0.859	0.572	0.947	-0.610	0.628	0.478	-0.097	0.368	-0.489	-1.621	-1.586	1.035	0.532	0.423	0.599	-0.183	0.329	-0.533	-0.729	0.195	-1.942	-0.918	-2.148	-1.970	-1.536	-85.938
1.191	1.169	1.264	1.056	0.805	1.213	-0.678	0.509	0.279	-0.346	0.041	-0.767	-1.721	-1.517	1.293	0.605	0.529	0.692	-0.103	0.365	-0.415	-0.598	0.307	-2.016	-1.034	-2.452	-2.165	-1.914	-82.031
1.216	1.214	1.224	1.162	0.976	1.379	-0.718	0.352	0.070	-0.554	-0.261	-0.975	-1.711	-1.376	1.465	0.618	0.581	0.719	-0.032	0.367	-0.289	-0.440	0.389	-1.970	-1.062	-2.583	-2.209	-2.156	-78.125
1.191	1.166	1.109	1.155	1.049	1.403	-0.743	0.168	-0.126	-0.711	-0.509	-1.093	-1.602	-1.187	1.543	0.580	0.587	0.692	0.025	0.333	-0.173	-0.272	0.428	-1.810	-1.001	-2.518	-2.099	-2.237	-74.219
1.125	1.043	0.935	1.027	0.996	1.261	-0.767	-0.031	-0.297	-0.816	-0.689	-1.118	-1.415	-0.972	1.530	0.506	0.556	0.635	0.063	0.263	-0.083	-0.113	0.418	-1.550	-0.855	-2.258	-1.849	-2.152	-70.312
1.033	0.868	0.726	0.784	0.813	0.953	-0.797	-0.236	-0.437	-0.873	-0.798	-1.060	-1.173	-0.749	1.443	0.410	0.496	0.576	0.079	0.162	-0.025	0.022	0.358	-1.214	-0.642	-1.825	-1.488	-1.916	-66.406
0.934	0.666	0.505	0.451	0.515	0.510	-0.835	-0.439	-0.551	-0.891	-0.848	-0.943	-0.897	-0.527	1.306	0.310	0.410	0.541	0.070	0.037	0.002	0.120	0.257	-0.833	-0.387	-1.269	-1.059	-1.566	-62.500
0.844	0.464	0.297	0.068	0.143	-0.017	-0.873	-0.633	-0.647	-0.881	-0.860	-0.798	-0.607	-0.311	1.146	0.219	0.299	0.546	0.038	-0.095	0.011	0.174	0.125	-0.446	-0.124	-0.658	-0.611	-1.157	-58.594
0.780	0.287	0.125	-0.311	-0.248	-0.555	-0.897	-0.811	-0.736	-0.853	-0.853	-0.659	-0.320	-0.098	0.985	0.147	0.168	0.592	-0.016	-0.210	0.021	0.183	-0.025	-0.088	0.111	-0.068	-0.193	-0.749	-54.688
0.750	0.153	0.006	-0.632	-0.593	-1.031	-0.891	-0.966	-0.824	-0.814	-0.848	-0.550	-0.046	0.115	0.836	0.102	0.020	0.665	-0.084	-0.286	0.055	0.147	-0.182	0.205	0.285	0.430	0.151	-0.397	-50.781
0.755	0.075	-0.054	-0.847	-0.834	-1.378	-0.837	-1.089	-0.910	-0.768	-0.854	-0.488	0.205	0.330	0.705	0.086	-0.135	0.741	-0.159	-0.300	0.129	0.071	-0.336	0.409	0.371	0.779	0.393	-0.147	-46.875
0.784	0.057	-0.051	-0.923	-0.928	-1.551	-0.728	-1.175	-0.986	-0.715	-0.871	-0.474	0.431	0.544	0.589	0.098	-0.285	0.790	-0.233	-0.238	0.256	-0.038	-0.485	0.511	0.354	0.948	0.518	-0.022	-42.969
0.819	0.095	0.007	-0.849	-0.858	-1.535	-0.563	-1.219	-1.040	-0.652	-0.892	-0.496	0.628	0.752	0.485	0.132	-0.416	0.790	-0.301	-0.099	0.432	-0.174	-0.628	0.512	0.235	0.936	0.531	-0.023	-39.062
0.838	0.176	0.107	-0.641	-0.631	-1.345	-0.353	-1.220	-1.053	-0.580	-0.904	-0.536	0.793	0.941	0.390	0.178	-0.515	0.731	-0.358	0.103	0.642	-0.331	-0.768	0.425	0.029	0.768	0.453	-0.129	-35.156
0.818	0.281	0.230	-0.331	-0.284	-1.021	-0.121	-1.184	-1.013	-0.498	-0.891	-0.568	0.921	1.095	0.304	0.225	-0.576	0.619	-0.406	0.341	0.863	-0.500	-0.907	0.277	-0.233	0.491	0.314	-0.304	-31.250
0.742	0.387	0.358	0.030	0.130	-0.625	0.106	-1.116	-0.912	-0.407	-0.838	-0.569	1.008	1.199	0.232	0.256	-0.602	0.470	-0.447	0.577	1.062	-0.673	-1.042	0.099	-0.514	0.164	0.151	-0.502	-27.344
0.601	0.469	0.469	0.387	0.546	-0.219	0.299	-1.024	-0.747	-0.314	-0.734	-0.519	1.049	1.242	0.174	0.260	-0.606	0.311	-0.485	0.774	1.211	-0.838	-1.163	-0.077	-0.773	-0.153	-0.001	-0.679	-23.438
0.398	0.505	0.546	0.690	0.907	0.138	0.434	-0.912	-0.525	-0.222	-0.574	-0.406	1.042	1.216	0.130	0.226	-0.610	0.166	-0.525	0.898	1.287	-0.980	-1.257	-0.221	-0.976	-0.412	-0.113	-0.799	-19.531
0.149	0.480	0.572	0.899	1.163	0.404	0.497	-0.785	-0.257	-0.137	-0.359	-0.229	0.986	1.123	0.095	0.152	-0.637	0.054	-0.566	0.933	1.283	-1.083	-1.305	-0.313	-1.099	-0.581	-0.169	-0.840	-15.625
-0.120	0.392	0.538	0.993	1.289	0.558	0.484	-0.644	0.040	-0.066	-0.099	-0.000	0.888	0.971	0.059	0.043	-0.706	-0.019	-0.604	0.877	1.204	-1.131	-1.292	-0.343	-1.132	-0.651	-0.167	-0.799	-11.719
-0.378	0.246	0.441	0.972	1.279	0.598	0.403	-0.492	0.349	-0.012	0.186	0.260	0.755	0.775	0.010	-0.086	-0.825	-0.055	-0.630	0.749	1.071	-1.108	-1.207	-0.316	-1.080	-0.634	-0.119	-0.689	-7.812
-0.594	0.061	0.285	0.851	1.150	0.541	0.272	-0.333	0.646	0.022	0.472	0.523	0.599	0.554	-0.058	-0.216	-0.984	-0.063	-0.631	0.579	0.912	-1.007	-1.052	-0.243	-0.962	-0.556	-0.045	-0.537	-3.906
-0.743	-0.140	0.085	0.661	0.931	0.411	0.110	-0.174	0.909	0.031	0.727	0.755	0.430	0.329	-0.146	-0.322	-1.156	-0.055	-0.593	0.403	0.759	-0.827	-0.839	-0.143	-0.805	-0.454	0.030	-0.372	0.000
-0.814	-0.327	-0.136	0.436	0.661	0.236	-0.062	-0.030	1.115	0.013	0.921	0.928	0.258	0.119	-0.246	-0.382	-1.305	-0.037	-0.507	0.257	0.640	-0.579	-0.590	-0.038	-0.640	-0.359	0.083	-0.227	3.906
-0.804	-0.474	-0.349	0.213	0.380	0.042	-0.228	0.083	1.241	-0.034	1.026	1.019	0.093	-0.056	-0.337	-0.382	-1.394	-0.015	-0.368	0.166	0.577	-0.283	-0.331	0.053	-0.495	-0.299	0.098	-0.124	7.812
-0.721	-0.556	-0.522	0.020	0.122	-0.154	-0.379	0.148	1.269	-0.115	1.023	1.014	-0.060	-0.183	-0.396	-0.314	-1.393	0.015	-0.183	0.147	0.582	0.034	-0.092	0.118	-0.396	-0.289	0.067	-0.080	11.719
-0.579	-0.558	-0.627	-0.119	-0.087	-0.337	-0.509	0.151	1.188	-0.231	0.900	0.912	-0.196	-0.250	-0.401	-0.179	-1.287	0.059	0.034	0.200	0.657	0.340	0.103	0.148	-0.360	-0.335	-0.010	-0.102	15.625
-0.394	-0.471	-0.643	-0.192	-0.229	-0.497	-0.619	0.085	0.997	-0.383	0.661	0.716	-0.307	-0.249	-0.334	0.016	-1.081	0.124	0.262	0.318	0.798	0.606	0.238	0.147	-0.396	-0.436	-0.125	-0.191	19.531
-0.182	-0.297	-0.560	-0.194	-0.292	-0.622	-0.708	-0.047	0.709	-0.566	0.317	0.438	-0.389	-0.179	-0.194	0.256	-0.794	0.212	0.479	0.488	0.997	0.809	0.308	0.120	-0.503	-0.584	-0.267	-0.345	23.438
0.039	-0.050	-0.386	-0.125	-0.272	-0.701	-0.775	-0.228	0.349	-0.771	-0.107	0.090	-0.433	-0.040	0.009	0.526	-0.460	0.323	0.667	0.693	1.241	0.939	0.314	0.080	-0.673	-0.772	-0.423	-0.561	27.344
0.254	0.250	-0.144	0.006	-0.166	-0.718	-0.813	-0.436	-0.046	-0.981	-0.580	-0.310	-0.434	0.159	0.251	0.808	-0.112	0.448	0.812	0.915	1.514	0.998	0.265	0.040	-0.889	-0.988	-0.579	-0.831	31.250
0.444	0.568	0.129	0.188	0.019	-0.667	-0.816	-0.640	-0.428	-1.174	-1.058	-0.742	-0.388	0.401	0.499	1.080	0.216	0.570	0.908	1.136	1.798	0.997	0.171	0.013	-1.125	-1.213	-0.724	-1.140	35.156
0.592	0.866	0.383	0.400	0.267	-0.545	-0.776	-0.804	-0.743	-1.321	-1.490	-1.177	-0.299	0.660	0.717	1.321	0.495	0.667	0.953	1.335	2.068	0.951	0.041	0.007	-1.355	-1.422	-0.845	-1.466	39.062
0.680	1.096	0.569	0.614	0.553	-0.366	-0.687	-0.897	-0.930	-1.390	-1.815	-1.579	-0.177	0.902	0.869	1.503	0.703	0.714	0.945	1.490	2.294	0.871	-0.119	0.026	-1.546	-1.573	-0.928	-1.771	42.969
0.683	1.214	0.639	0.796	0.837	-0.156	-0.549	-0.885	-0.928	-1.351	-1.964	-1.901	-0.040	1.086	0.922	1.597	0.819	0.686	0.879	1.572	2.440	0.761	-0.309	0.068	-1.664	-1.615	-0.958	-2.002	46.875
0.574	1.178	0.559	0.902	1.073	0.044	-0.366	-0.743	-0.676	-1.174	-1.865	-2.089	0.091	1.171	0.845	1.568	0.822	0.561	0.743	1.548	2.470	0.613	-0.529	0.125	-1.673	-1.481	-0.914	-2.092	50.781
0.319	0.952	0.310	0.886	1.209	0.187	-0.148	-0.450	-0.122	-0.840	-1.455	-2.085	0.192	1.120	0.611	1.381	0.691	0.323	0.518	1.382	2.346	0.411	-0.782	0.195	-1.537	-1.102	-0.772	-1.968	54.688
-0.112	0.514	-0.112	0.707	1.195	0.223	0.088	0.007	0.772	-0.337	-0.684	-1.831	0.244	0.906	0.196	1.005	0.407	-0.034	0.182	1.037	2.038	0.130	-1.069	0.274	-1.221	-0.409	-0.504	-1.555	58.594
-0.746	-0.143	-0.695	0.331	0.995	0.115	0.329	0.628	2.021	0.332	0.470	-1.283	0.233	0.516	-0.422	0.413	-0.040	-0.511	-0.286	0.483	1.527	-0.249	-1.388	0.368	-0.700	0.652	-0.082	-0.789	62.500
-1.595	-1.015	-1.419	-0.257	0.587	-0.160	0.560	1.401	3.610	1.150	1.994	-0.416	0.160	-0.042	-1.257	-0.405	-0.652	-1.097	-0.896	-0.294	0.810	-0.738	-1.735	0.487	0.042	2.107	0.516	0.371	66.406
-2.653	-2.075	-2.259	-1.056	-0.024	-0.609	0.770	2.302	5.489	2.092	3.838	0.766	0.033	-0.741	-2.307	-1.440	-1.415	-1.774	-1.643	-1.290	-0.097	-1.330	-2.101	0.647	1.000	3.944	1.306	1.936	70.312
-3.893	-3.286	-3.185	-2.040	-0.816	-1.216	0.952	3.289	7.576	3.119	5.916	2.228	-0.128	-1.536	-3.550	-2.661	-2.296	-2.515	-2.500	-2.477	-1.156	-2.003	-2.472	0.866	2.146	6.109	2.286	3.872	74.219
-5.266	-4.592	-4.165	-3.164	-1.743	-1.951	1.108	4.311	9.758	4.190	8.114	3.904	-0.292	-2.367	-4.937	-4.013	-3.248	-3.288	-3.424	-3.799	-2.309	-2.713	-2.830	1.160	3.428	8.502	3.439	6.106	78.125
-6.710	-5.924	-5.167	-4.366	-2.747	-2.769	1.242	5.311	11.905	5.260	10.305	5.704	-0.426	-3.169	-6.398	-5.421	-4.213	-4.060	-4.356	-5.182	-3.484	-3.407	-3.157	1.541	4.773	10.991	4.726	8.527	82.031
-8.154	-7.210	-6.154	-5.574	-3.757	-3.616	1.366	6.230	13.887	6.291	12.362	7.523	-0.496	-3.877	-7.848	-6.803	-5.134	-4.799	-5.233	-6.537	-4.606	-4.027	-3.436	2.009	6.094	13.429	6.096	10.999	85.938
-9.530	-8.377	-7.090	-6.711	-4.703	-4.432	1.495	7.021	15.591	7.252	14.178	9.262	-0.469	-4.435	-9.201	-8.074	-5.963	-5.484	-6.003	-7.779	-5.600	-4.525	-3.658	2.557	7.298	15.676	7.489	13.382	89.844
-10.775	-9.363	-7.942	-7.704	-5.515	-5.159	1.652	7.651	16.934	8.125	15.680	10.833	-0.315	-4.802	-10.384	-9.165	-6.670	-6.106	-6.628	-8.831	-6.405	-4.868	-3.819	3.167	8.304	17.621	8.846	15.548	93.750
-11.842	-10.128	-8.682	-8.494	-6.137	-5.746	1.858	8.102	17.875	8.904	16.831	12.177	-0.013	-4.953	-11.349	-10.027	-7.251	-6.670	-7.097	-9.639	-6.977	-5.045	-3.929	3.815	9.047	19.189	10.111	17.393	97.656
-12.696	-10.651	-9.286	-9.038	-6.526	-6.153	2.135	8.376	18.410	9.595	17.626	13.265	0.448	-4.880	-12.080	-10.636	-7.718	-7.185	-7.416	-10.176	-7.295	-5.066	-4.005	4.471	9.490	20.350	11.240	18.851	101.562
-13.316	-10.936	-9.739	-9.316	-6.659	-6.355	2.496	8.483	18.565	10.201	18.090	14.087	1.066	-4.591	-12.585	-10.991	-8.094	-7.667	-7.609	-10.438	-7.355	-4.958	-4.067	5.102	9.622	21.105	12.198	19.887	105.469
-13.690	-11.004	-10.031	-9.329	-6.534	-6.345	2.942	8.444	18.384	10.724	18.257	14.650	1.819	-4.111	-12.892	-11.112	-8.398	-8.119	-7.703	-10.443	-7.175	-4.762	-4.136	5.672	9.462	21.476	12.956	20.495	109.375
-13.816	-10.888	-10.154	-9.098	-6.169	-6.132	3.458	8.278	17.916	11.151	18.161	14.965	2.665	-3.473	-13.033	-11.028	-8.641	-8.533	-7.721	-10.224	-6.785	-4.518	-4.224	6.147	9.049	21.496	13.486	20.684	113.281
-13.698	-10.623	-10.105	-8.658	-5.598	-5.739	4.012	8.008	17.212	11.459	17.832	15.035	3.546	-2.725	-13.036	-10.775	-8.817	-8.884	-7.677	-9.825	-6.227	-4.265	-4.334	6.492	8.439	21.196	13.764	20.478	117.188
-13.352	-10.243	-9.883	-8.057	-4.872	-5.201	4.558	7.656	16.320	11.615	17.295	14.863	4.387	-1.920	-12.917	-10.388	-8.907	-9.134	-7.576	-9.293	-5.553	-4.033	-4.457	6.675	7.696	20.606	13.767	19.905	121.094
-12.803	-9.776	-9.490	-7.346	-4.051	-4.561	5.040	7.249	15.291	11.584	16.571	14.449	5.109	-1.121	-12.684	-9.905	-8.890	-9.244	-7.415	-8.678	-4.818	-3.842	-4.580	6.671	6.889	19.761	13.482	19.004	125.000
-12.085	-9.243	-8.938	-6.577	-3.198	-3.868	5.405	6.818	14.185	11.344	15.692	13.804	5.636	-0.390	-12.338	-9.361	-8.751	-9.180	-7.196	-8.030	-4.083	-3.707	-4.688	6.465	6.083	18.703	12.908	17.826	128.906
-11.247	-8.663	-8.245	-5.798	-2.377	-3.169	5.607	6.402	13.072	10.889	14.701	12.951	5.906	0.213	-11.884	-8.793	-8.492	-8.929	-6.927	-7.397	-3.404	-3.640	-4.772	6.055	5.339	17.491	12.065	16.436	132.812
-10.342	-8.052	-7.443	-5.051	-1.644	-2.505	5.615	6.045	12.035	10.239	13.656	11.934	5.881	0.637	-11.335	-8.236	-8.133	-8.502	-6.629	-6.822	-2.838	-3.647	-4.831	5.451	4.709	16.197	10.994	14.914	136.719
-9.432	-7.432	-6.574	-4.369	-1.042	-1.907	5.422	5.791	11.163	9.437	12.629	10.813	5.551	0.843	-10.713	-7.727	-7.716	-7.936	-6.330	-6.341	-2.429	-3.734	-4.873	4.682	4.233	14.904	9.756	13.350	140.625
-8.576	-6.830	-5.689	-3.781	-0.602	-1.392	5.041	5.682	10.543	8.545	11.695	9.660	4.934	0.812	-10.053	-7.297	-7.293	-7.290	-6.064	-5.983	-2.208	-3.899	-4.914	3.788	3.935	13.701	8.426	11.834	144.531
-7.827	-6.278	-4.844	-3.310	-0.340	-0.972	4.508	5.748	10.248	7.635	10.926	8.551	4.075	0.547	-9.398	-6.972	-6.917	-6.631	-5.860	-5.762	-2.190	-4.132	-4.965	2.824	3.827	12.672	7.084	10.455	148.438
-7.227	-5.817	-4.096	-2.976	-0.256	-0.649	3.869	6.004	10.326	6.781	10.381	7.553	3.039	0.069	-8.799	-6.770	-6.632	-6.028	-5.738	-5.684	-2.368	-4.415	-5.036	1.850	3.902	11.885	5.811	9.285	152.344
-6.806	-5.486	-3.495	-2.795	-0.341	-0.428	3.178	6.448	10.794	6.047	10.102	6.726	1.903	-0.583	-8.304	-6.699	-6.467	-5.539	-5.699	-5.743	-2.721	-4.719	-5.124	0.927	4.144	11.389	4.677	8.377	156.250
-6.577	-5.319	-3.081	-2.781	-0.578	-0.315	2.493	7.056	11.635	5.487	10.107	6.107	0.745	-1.356	-7.959	-6.757	-6.429	-5.200	-5.731	-5.924	-3.210	-5.011	-5.217	0.113	4.528	11.208	3.740	7.761	160.156
-6.543	-5.345	-2.882	-2.941	-0.943	-0.317	1.861	7.793	12.798	5.135	10.392	5.719	-0.361	-2.195	-7.797	-6.936	-6.506	-5.024	-5.808	-6.205	-3.792	-5.257	-5.294	-0.544	5.022	11.340	3.039	7.447	164.062
-6.696	-5.575	-2.904	-3.270	-1.409	-0.441	1.326	8.613	14.209	5.006	10.935	5.566	-1.353	-3.042	-7.837	-7.221	-6.672	-4.999	-5.901	-6.568	-4.423	-5.427	-5.328	-1.010	5.594	11.758	2.596	7.424	167.969
-7.021	-6.006	-3.139	-3.758	-1.950	-0.688	0.915	9.464	15.778	5.103	11.699	5.637	-2.184	-3.853	-8.080	-7.595	-6.900	-5.098	-5.985	-6.993	-5.063	-5.503	-5.297	-1.268	6.211	12.419	2.418	7.667	171.875
-7.496	-6.618	-3.562	-4.377	-2.534	-1.047	0.644	10.301	17.404	5.409	12.633	5.913	-2.824	-4.592	-8.511	-8.040	-7.163	-5.282	-6.046	-7.465	-5.684	-5.482	-5.186	-1.315	6.843	13.267	2.496	8.144	175.781
-8.096	-7.373	-4.133	-5.093	-3.132	-1.495	0.518	11.083	18.992	5.900	13.684	6.365	-3.258	-5.237	-9.097	-8.537	-7.442	-5.510	-6.079	-7.971	-6.267	-5.371	-4.995	-1.166	7.462	14.240	2.811	8.817	179.688
-8.795	-8.222	-4.811	-5.860	-3.711	-1.998	0.530	11.776	20.450	6.538	14.794	6.962	-3.485	-5.775	-9.790	-9.069	-7.728	-5.755	-6.098	-8.499	-6.798	-5.192	-4.736	-0.842	8.044	15.275	3.336	9.644	183.594
-9.560	-9.108	-5.549	-6.631	-4.242	-2.515	0.666	12.353	21.703	7.281	15.904	7.673	-3.512	-6.195	-10.533	-9.614	-8.013	-6.001	-6.120	-9.031	-7.268	-4.975	-4.440	-0.376	8.567	16.315	4.040	10.588	187.500
-10.360	-9.974	-6.309	-7.359	-4.697	-3.009	0.905	12.792	22.688	8.084	16.960	8.465	-3.350	-6.488	-11.267	-10.151	-8.297	-6.248	-6.169	-9.547	-7.665	-4.750	-4.147	0.203	9.018	17.309	4.888	11.611	191.406
-11.162	-10.769	-7.060	-8.005	-5.055	-3.449	1.227	13.076	23.365	8.900	17.914	9.307	-3.016	-6.641	-11.939	-10.656	-8.574	-6.505	-6.263	-10.019	-7.972	-4.547	-3.902	0.862	9.388	18.217	5.847	12.676	195.312
-11.931	-11.453	-7.782	-8.543	-5.306	-3.821	1.608	13.191	23.719	9.685	18.728	10.169	-2.528	-6.642	-12.506	-11.107	-8.841	-6.787	-6.411	-10.421	-8.175	-4.385	-3.744	1.574	9.673	19.008	6.882	13.747	199.219
-12.638	-12.003	-8.460	-8.958	-5.447	-4.128	2.028	13.133	23.758	10.403	19.374	11.020	-1.905	-6.480	-12.941	-11.484	-9.088	-7.102	-6.612	-10.728	-8.261	-4.275	-3.700	2.314	9.877	19.660	7.957	14.787	203.125
-13.255	-12.413	-9.088	-9.253	-5.490	-4.385	2.466	12.907	23.515	11.026	19.842	11.834	-1.173	-6.153	-13.238	-11.773	-9.305	-7.449	-6.850	-10.924	-8.222	-4.218	-3.775	3.059	10.005	20.159	9.037	15.757	207.031
-13.760	-12.694	-9.666	-9.442	-5.455	-4.616	2.903	12.530	23.045	11.540	20.132	12.586	-0.359	-5.671	-13.404	-11.971	-9.483	-7.815	-7.102	-11.004	-8.064	-4.202	-3.957	3.787	10.062	20.504	10.085	16.622	210.938
-14.140	-12.871	-10.191	-9.548	-5.368	-4.847	3.325	12.037	22.420	11.939	20.263	13.254	0.501	-5.062	-13.461	-12.082	-9.619	-8.180	-7.343	-10.978	-7.805	-4.213	-4.214	4.478	10.057	20.700	11.066	17.351	214.844
-14.392	-12.975	-10.662	-9.601	-5.258	-5.096	3.719	11.477	21.724	12.233	20.264	13.822	1.369	-4.368	-13.439	-12.122	-9.719	-8.517	-7.552	-10.871	-7.471	-4.235	-4.504	5.113	9.998	20.763	11.947	17.921	218.750
-14.526	-13.042	-11.077	-9.629	-5.150	-5.368	4.077	10.911	21.046	12.440	20.172	14.283	2.205	-3.642	-13.372	-12.119	-9.798	-8.802	-7.717	-10.716	-7.098	-4.252	-4.784	5.674	9.901	20.717	12.699	18.321	222.656
-14.561	-13.102	-11.430	-9.654	-5.061	-5.656	4.395	10.406	20.466	12.583	20.024	14.633	2.969	-2.945	-13.293	-12.103	-9.881	-9.019	-7.839	-10.554	-6.725	-4.258	-5.015	6.146	9.785	20.590	13.297	18.553	226.562
-14.530	-13.177	-11.717	-9.692	-5.000	-5.937	4.674	10.028	20.056	12.688	19.857	14.874	3.623	-2.329	-13.230	-12.107	-9.996	-9.160	-7.929	-10.425	-6.385	-4.246	-5.170	6.519	9.675	20.416	13.726	18.629	230.469
-14.466	-13.277	-11.938	-9.745	-4.964	-6.182	4.916	9.826	19.862	12.778	19.696	15.009	4.141	-1.838	-13.205	-12.161	-10.167	-9.224	-8.005	-10.363	-6.108	-4.219	-5.235	6.788	9.597	20.228	13.980	18.568	234.375
-14.408	-13.401	-12.092	-9.811	-4.947	-6.362	5.126	9.834	19.908	12.866	19.556	15.044	4.504	-1.496	-13.230	-12.286	-10.405	-9.221	-8.084	-10.392	-5.913	-4.178	-5.211	6.953	9.572	20.056	14.060	18.392	238.281
-14.386	-13.538	-12.184	-9.880	-4.938	-6.456	5.310	10.059	20.189	12.961	19.445	14.981	4.706	-1.306	-13.308	-12.492	-10.708	-9.162	-8.173	-10.524	-5.806	-4.127	-5.107	7.024	9.615	19.923	13.981	18.123	242.188
-14.423	-13.674	-12.225	-9.940	-4.924	-6.455	5.475	10.480	20.675	13.060	19.362	14.827	4.758	-1.251	-13.434	-12.777	-11.054	-9.063	-8.272	-10.757	-5.782	-4.067	-4.940	7.014	9.726	19.840	13.765	17.781	246.094
-14.529	-13.794	-12.225	-9.983	-4.896	-6.362	5.626	11.056	21.314	13.157	19.302	14.592	4.681	-1.298	-13.600	-13.128	-11.409	-8.943	-8.368	-11.073	-5.827	-3.997	-4.729	6.946	9.895	19.809	13.445	17.390	250.000
-14.702	-13.889	-12.200	-10.001	-4.846	-6.194	5.770	11.727	22.044	13.248	19.265	14.294	4.512	-1.407	-13.799	-13.523	-11.736	-8.819	-8.443	-11.445	-5.915	-3.916	-4.496	6.843	10.096	19.820	13.063	16.974	253.906
-14.931	-13.955	-12.166	-9.992	-4.771	-5.979	5.917	12.427	22.794	13.330	19.256	13.962	4.295	-1.532	-14.022	-13.936	-12.003	-8.712	-8.484	-11.838	-6.019	-3.823	-4.262	6.731	10.298	19.854	12.663	16.563	257.812
-15.198	-13.998	-12.140	-9.957	-4.669	-5.746	6.074	13.091	23.499	13.412	19.287	13.636	4.077	-1.631	-14.264	-14.340	-12.198	-8.638	-8.481	-12.215	-6.109	-3.717	-4.047	6.633	10.463	19.886	12.294	16.196	261.719
-15.486	-14.029	-12.135	-9.901	-4.540	-5.523	6.250	13.662	24.104	13.510	19.377	13.369	3.904	-1.674	-14.524	-14.713	-12.326	-8.615	-8.439	-12.541	-6.161	-3.602	-3.868	6.569	10.558	19.892	12.004	15.911	265.625
-15.782	-14.064	-12.164	-9.830	-4.391	-5.331	6.454	14.097	24.570	13.645	19.550	13.218	3.814	-1.642	-14.803	-15.036	-12.415	-8.657	-8.371	-12.789	-6.158	-3.485	-3.740	6.552	10.557	19.857	11.830	15.752	269.531
-16.075	-14.120	-12.235	-9.752	-4.229	-5.186	6.690	14.372	24.877	13.839	19.823	13.236	3.836	-1.531	-15.105	-15.297	-12.502	-8.771	-8.298	-12.940	-6.094	-3.374	-3.668	6.590	10.450	19.774	11.803	15.753	273.438
-16.360	-14.208	-12.351	-9.678	-4.066	-5.095	6.959	14.475	25.021	14.110	20.204	13.463	3.984	-1.351	-15.432	-15.488	-12.625	-8.960	-8.240	-12.988	-5.972	-3.276	-3.655	6.684	10.239	19.654	11.937	15.936	277.344
-16.631	-14.330	-12.511	-9.615	-3.918	-5.064	7.254	14.409	25.010	14.461	20.686	13.913	4.258	-1.120	-15.784	-15.603	-12.807	-9.218	-8.210	-12.933	-5.804	-3.196	-3.696	6.830	9.940	19.515	12.229	16.303	281.250
-16.882	-14.482	-12.712	-9.568	-3.799	-5.096	7.563	14.191	24.862	14.880	21.241	14.568	4.645	-0.863	-16.152	-15.640	-13.050	-9.530	-8.207	-12.786	-5.602	-3.136	-3.781	7.020	9.576	19.382	12.658	16.833	285.156
-17.104	-14.646	-12.943	-9.540	-3.721	-5.188	7.867	13.842	24.594	15.340	21.820	15.374	5.120	-0.605	-16.515	-15.593	-13.326	-9.875	-8.220	-12.560	-5.382	-3.091	-3.900	7.241	9.175	19.276	13.187	17.477	289.062
-17.285	-14.799	-13.190	-9.522	-3.688	-5.330	8.145	13.394	24.222	15.800	22.363	16.247	5.648	-0.363	-16.845	-15.461	-13.587	-10.220	-8.225	-12.269	-5.154	-3.055	-4.039	7.475	8.763	19.205	13.762	18.166	292.969
-17.413	-14.909	-13.430	-9.502	-3.693	-5.504	8.374	12.881	23.760	16.208	22.796	17.082	6.188	-0.150	-17.101	-15.238	-13.771	-10.530	-8.194	-11.927	-4.925	-3.018	-4.188	7.702	8.358	19.162	14.320	18.815	296.875
-17.473	-14.943	-13.636	-9.459	-3.720	-5.685	8.533	12.335	23.216	16.512	23.050	17.766	6.695	0.031	-17.245	-14.923	-13.813	-10.764	-8.100	-11.546	-4.698	-2.970	-4.335	7.900	7.972	19.127	14.796	19.338	300.781
-17.454	-14.868	-13.780	-9.369	-3.747	-5.841	8.605	11.788	22.596	16.661	23.066	18.198	7.126	0.184	-17.242	-14.513	-13.662	-10.887	-7.924	-11.130	-4.475	-2.898	-4.470	8.044	7.613	19.064	15.125	19.654	304.688
-17.342	-14.662	-13.833	-9.209	-3.747	-5.940	8.579	11.268	21.910	16.619	22.803	18.304	7.440	0.311	-17.073	-14.010	-13.289	-10.871	-7.657	-10.684	-4.252	-2.795	-4.583	8.113	7.287	18.941	15.259	19.703	308.594
-17.131	-14.315	-13.775	-8.963	-3.695	-5.953	8.451	10.796	21.169	16.360	22.245	18.045	7.610	0.418	-16.736	-13.421	-12.697	-10.701	-7.304	-10.209	-4.027	-2.656	-4.660	8.092	7.000	18.726	15.165	19.452	312.500
-16.818	-13.831	-13.597	-8.623	-3.574	-5.859	8.224	10.389	20.391	15.879	21.403	17.421	7.616	0.505	-16.247	-12.759	-11.923	-10.378	-6.881	-9.708	-3.799	-2.479	-4.689	7.973	6.765	18.405	14.835	18.898	316.406
-16.411	-13.237	-13.307	-8.196	-3.374	-5.647	7.913	10.064	19.602	15.192	20.313	16.474	7.455	0.570	-15.639	-12.046	-11.027	-9.919	-6.412	-9.191	-3.567	-2.268	-4.658	7.761	6.597	17.977	14.282	18.069	320.312
-15.924	-12.570	-12.923	-7.702	-3.097	-5.316	7.533	9.832	18.837	14.329	19.034	15.273	7.135	0.605	-14.958	-11.314	-10.091	-9.352	-5.926	-8.673	-3.338	-2.030	-4.556	7.468	6.511	17.457	13.541	17.015	324.219
-15.380	-11.880	-12.476	-7.171	-2.757	-4.878	7.110	9.706	18.132	13.337	17.640	13.909	6.677	0.602	-14.254	-10.604	-9.199	-8.717	-5.453	-8.178	-3.118	-1.775	-4.379	7.116	6.519	16.875	12.664	15.807	328.125
-14.805	-11.218	-12.000	-6.639	-2.372	-4.353	6.670	9.695	17.524	12.276	16.212	12.482	6.109	0.552	-13.578	-9.958	-8.426	-8.058	-5.022	-7.737	-2.923	-1.516	-4.129	6.728	6.624	16.266	11.710	14.522	332.031
-14.230	-10.626	-11.522	-6.142	-1.967	-3.768	6.244	9.804	17.048	11.212	14.838	11.090	5.467	0.449	-12.976	-9.419	-7.828	-7.424	-4.658	-7.380	-2.768	-1.268	-3.821	6.328	6.817	15.662	10.741	13.238	335.938
-13.686	-10.138	-11.064	-5.710	-1.565	-3.152	5.861	10.031	16.727	10.216	13.600	9.825	4.794	0.293	-12.483	-9.022	-7.438	-6.863	-4.380	-7.133	-2.671	-1.048	-3.477	5.934	7.076	15.091	9.813	12.029	339.844
-13.206	-9.769	-10.637	-5.365	-1.189	-2.536	5.550	10.367	16.575	9.356	12.578	8.764	4.132	0.091	-12.126	-8.788	-7.262	-6.419	-4.206	-7.013	-2.644	-0.871	-3.129	5.562	7.367	14.567	8.977	10.959	343.750
-12.818	-9.525	-10.246	-5.120	-0.855	-1.947	5.336	10.795	16.591	8.698	11.836	7.972	3.526	-0.140	-11.916	-8.726	-7.287	-6.130	-4.147	-7.026	-2.695	-0.754	-2.814	5.224	7.650	14.095	8.271	10.082	347.656
-12.550	-9.399	-9.895	-4.979	-0.576	-1.410	5.238	11.288	16.758	8.293	11.426	7.494	3.020	-0.379	-11.856	-8.832	-7.483	-6.019	-4.210	-7.163	-2.821	-0.707	-2.571	4.930	7.882	13.672	7.727	9.438	351.562
-12.421	-9.384	-9.591	-4.940	-0.362	-0.948	5.266	11.812	17.047	8.173	11.374	7.357	2.651	-0.599	-11.938	-9.087	-7.817	-6.093	-4.392	-7.408	-3.015	-0.733	-2.432	4.691	8.031	13.295	7.371	9.057	355.469
-12.445	-9.469	-9.348	-4.995	-0.216	-0.576	5.420	12.333	17.417	8.350	11.682	7.564	2.450	-0.775	-12.145	-9.466	-8.255	-6.341	-4.683	-7.737	-3.257	-0.828	-2.419	4.522	8.077	12.962	7.217	8.958	359.375
-12.623	-9.647	-9.187	-5.135	-0.140	-0.306	5.691	12.811	17.823	8.805	12.321	8.092	2.435	-0.884	-12.456	-9.939	-8.764	-6.733	-5.062	-8.122	-3.524	-0.977	-2.539	4.438	8.019	12.682	7.274	9.142	363.281
-12.948	-9.911	-9.130	-5.346	-0.129	-0.146	6.059	13.212	18.222	9.498	13.232	8.891	2.609	-0.910	-12.844	-10.472	-9.312	-7.225	-5.498	-8.535	-3.788	-1.157	-2.782	4.453	7.877	12.472	7.541	9.596	367.188
-13.399	-10.255	-9.199	-5.614	-0.179	-0.099	6.498	13.509	18.574	10.366	14.327	9.884	2.961	-0.847	-13.281	-11.033	-9.872	-7.766	-5.952	-8.949	-4.025	-1.340	-3.118	4.576	7.687	12.356	8.001	10.284	371.094
-13.944	-10.667	-9.401	-5.922	-0.281	-0.165	6.974	13.682	18.849	11.328	15.501	10.974	3.462	-0.699	-13.735	-11.592	-10.414	-8.303	-6.378	-9.340	-4.212	-1.497	-3.503	4.810	7.493	12.353	8.625	11.148	375.000
-14.536	-11.132	-9.728	-6.254	-0.424	-0.337	7.451	13.720	19.024	12.299	16.638	12.056	4.068	-0.479	-14.175	-12.120	-10.910	-8.784	-6.734	-9.691	-4.336	-1.601	-3.884	5.146	7.339	12.477	9.363	12.108	378.906
-15.125	-11.623	-10.149	-6.588	-0.597	-0.601	7.890	13.625	19.083	13.193	17.625	13.026	4.724	-0.212	-14.567	-12.592	-11.332	-9.168	-6.983	-9.987	-4.394	-1.636	-4.207	5.563	7.261	12.724	10.154	13.071	382.812
-15.652	-12.111	-10.616	-6.906	-0.784	-0.935	8.255	13.408	19.018	13.934	18.370	13.799	5.366	0.070	-14.883	-12.986	-11.656	-9.420	-7.104	-10.219	-4.391	-1.594	-4.424	6.028	7.279	13.072	10.926	13.938	386.719
-16.066	-12.560	-11.068	-7.187	-0.969	-1.306	8.516	13.090	18.826	14.464	18.805	14.311	5.934	0.335	-15.097	-13.283	-11.859	-9.519	-7.093	-10.382	-4.343	-1.479	-4.503	6.499	7.389	13.478	11.606	14.613	390.625
-16.323	-12.933	-11.441	-7.410	-1.132	-1.676	8.654	12.702	18.513	14.743	18.897	14.529	6.373	0.555	-15.186	-13.469	-11.927	-9.457	-6.959	-10.473	-4.266	-1.302	-4.429	6.929	7.571	13.878	12.122	15.016	394.531
-16.390	-13.194	-11.678	-7.556	-1.253	-2.002	8.661	12.278	18.093	14.760	18.643	14.444	6.644	0.710	-15.140	-13.533	-11.854	-9.239	-6.724	-10.487	-4.171	-1.081	-4.206	7.271	7.784	14.196	12.417	15.085	398.438
-16.252	-13.315	-11.738	-7.608	-1.312	-2.241	8.544	11.857	17.590	14.524	18.072	14.072	6.727	0.797	-14.952	-13.466	-11.644	-8.887	-6.416	-10.418	-4.063	-0.832	-3.856	7.488	7.981	14.357	12.451	14.787	402.344
-15.908	-13.277	-11.601	-7.550	-1.289	-2.363	8.321	11.472	17.035	14.062	17.236	13.445	6.623	0.823	-14.631	-13.267	-11.313	-8.432	-6.064	-10.258	-3.939	-0.570	-3.413	7.554	8.115	14.297	12.206	14.120	406.250
-15.379	-13.075	-11.275	-7.375	-1.175	-2.345	8.017	11.152	16.466	13.416	16.198	12.605	6.350	0.809	-14.195	-12.943	-10.887	-7.917	-5.691	-10.000	-3.786	-0.305	-2.923	7.458	8.154	13.978	11.689	13.114	410.156
-14.699	-12.718	-10.787	-7.085	-0.968	-2.184	7.660	10.921	15.921	12.637	15.032	11.598	5.936	0.775	-13.675	-12.506	-10.403	-7.381	-5.312	-9.642	-3.594	-0.041	-2.429	7.207	8.083	13.400	10.929	11.829	414.062
-13.916	-12.230	-10.183	-6.691	-0.676	-1.889	7.277	10.792	15.440	11.776	13.804	10.471	5.418	0.743	-13.104	-11.980	-9.899	-6.860	-4.937	-9.190	-3.351	0.217	-1.971	6.819	7.907	12.600	9.975	10.349	417.969
-13.087	-11.642	-9.513	-6.211	-0.316	-1.483	6.886	10.770	15.054	10.877	12.574	9.265	4.832	0.725	-12.517	-11.391	-9.408	-6.382	-4.569	-8.658	-3.059	0.471	-1.578	6.325	7.650	11.640	8.884	8.772	421.875
-12.268	-10.989	-8.827	-5.672	0.087	-1.001	6.500	10.850	14.782	9.978	11.389	8.018	4.210	0.721	-11.945	-10.772	-8.955	-5.960	-4.206	-8.072	-2.725	0.718	-1.261	5.758	7.341	10.605	7.722	7.195	425.781
-11.509	-10.306	-8.166	-5.103	0.505	-0.481	6.124	11.011	14.623	9.107	10.279	6.763	3.580	0.727	-11.407	-10.154	-8.555	-5.598	-3.846	-7.464	-2.365	0.959	-1.020	5.157	7.015	9.576	6.553	5.706	429.688
-10.847	-9.625	-7.561	-4.534	0.909	0.036	5.760	11.224	14.554	8.283	9.262	5.534	2.970	0.731	-10.913	-9.563	-8.209	-5.291	-3.489	-6.866	-1.999	1.194	-0.836	4.562	6.699	8.628	5.442	4.378	433.594
-10.309	-8.974	-7.036	-3.997	1.274	0.507	5.409	11.446	14.532	7.520	8.347	4.368	2.402	0.725	-10.467	-9.021	-7.910	-5.030	-3.135	-6.311	-1.643	1.424	-0.682	4.011	6.414	7.816	4.445	3.265	437.500
-9.905	-8.379	-6.607	-3.519	1.580	0.895	5.074	11.626	14.496	6.830	7.535	3.306	1.903	0.706	-10.067	-8.542	-7.648	-4.808	-2.788	-5.820	-1.311	1.654	-0.528	3.543	6.175	7.174	3.615	2.401	441.406
-9.638	-7.863	-6.289	-3.123	1.811	1.171	4.761	11.714	14.381	6.226	6.829	2.393	1.497	0.679	-9.711	-8.135	-7.412	-4.616	-2.454	-5.410	-1.006	1.891	-0.346	3.192	5.990	6.717	2.995	1.807	445.312
-9.500	-7.447	-6.091	-2.828	1.960	1.315	4.478	11.661	14.128	5.724	6.232	1.676	1.209	0.657	-9.399	-7.801	-7.196	-4.451	-2.141	-5.086	-0.729	2.141	-0.118	2.984	5.864	6.441	2.618	1.491	449.219
-9.473	-7.149	-6.023	-2.642	2.026	1.319	4.236	11.431	13.692	5.339	5.753	1.197	1.059	0.659	-9.130	-7.538	-6.995	-4.310	-1.857	-4.844	-0.478	2.408	0.159	2.935	5.801	6.329	2.503	1.450	453.125
-9.535	-6.980	-6.086	-2.567	2.011	1.189	4.044	11.005	13.053	5.085	5.397	0.987	1.059	0.702	-8.908	-7.338	-6.807	-4.189	-1.606	-4.673	-0.247	2.694	0.474	3.047	5.798	6.352	2.648	1.667	457.031
-9.658	-6.938	-6.275	-2.594	1.928	0.941	3.906	10.382	12.213	4.964	5.168	1.058	1.209	0.800	-8.730	-7.187	-6.631	-4.086	-1.392	-4.555	-0.031	2.991	0.806	3.302	5.844	6.469	3.031	2.110	460.938
-9.808	-7.006	-6.572	-2.702	1.796	0.605	3.823	9.582	11.200	4.970	5.060	1.393	1.496	0.963	-8.592	-7.068	-6.461	-3.996	-1.210	-4.468	0.173	3.289	1.123	3.669	5.923	6.632	3.605	2.726	464.844
-9.951	-7.156	-6.943	-2.860	1.638	0.218	3.790	8.641	10.055	5.080	5.055	1.950	1.898	1.190	-8.486	-6.961	-6.291	-3.913	-1.053	-4.386	0.371	3.573	1.394	4.103	6.011	6.793	4.306	3.448	468.750
-10.058	-7.344	-7.347	-3.031	1.485	-0.176	3.798	7.607	8.834	5.263	5.129	2.663	2.377	1.474	-8.401	-6.846	-6.115	-3.830	-0.915	-4.284	0.566	3.826	1.593	4.550	6.082	6.908	5.056	4.198	472.656
-10.103	-7.525	-7.733	-3.176	1.364	-0.536	3.835	6.536	7.596	5.478	5.245	3.449	2.893	1.799	-8.324	-6.708	-5.929	-3.744	-0.788	-4.141	0.763	4.032	1.701	4.958	6.110	6.945	5.774	4.896	476.562
-10.071	-7.657	-8.054	-3.259	1.300	-0.825	3.885	5.487	6.401	5.681	5.369	4.221	3.402	2.147	-8.247	-6.541	-5.732	-3.653	-0.671	-3.945	0.964	4.179	1.710	5.281	6.082	6.889	6.387	5.470	480.469
-9.956	-7.707	-8.271	-3.260	1.310	-1.019	3.938	4.518	5.307	5.837	5.467	4.900	3.862	2.492	-8.161	-6.343	-5.529	-3.562	-0.563	-3.693	1.171	4.263	1.624	5.488	5.989	6.743	6.836	5.867	484.375
-9.763	-7.660	-8.359	-3.171	1.397	-1.107	3.983	3.682	4.368	5.919	5.514	5.422	4.237	2.812	-8.064	-6.123	-5.328	-3.479	-0.470	-3.393	1.383	4.282	1.460	5.562	5.837	6.521	7.086	6.054	488.281
-9.506	-7.518	-8.310	-2.998	1.557	-1.089	4.015	3.024	3.631	5.915	5.500	5.750	4.502	3.087	-7.958	-5.894	-5.138	-3.415	-0.396	-3.059	1.599	4.242	1.240	5.502	5.635	6.245	7.121	6.025	492.188
-9.203	-7.300	-8.132	-2.761	1.776	-0.978	4.032	2.582	3.135	5.827	5.425	5.869	4.638	3.297	-7.847	-5.670	-4.968	-3.382	-0.347	-2.712	1.813	4.151	0.988	5.322	5.397	5.937	6.949	5.795	496.094
-8.877	-7.034	-7.849	-2.487	2.035	-0.789	4.036	2.378	2.905	5.668	5.303	5.793	4.639	3.433	-7.736	-5.464	-4.822	-3.388	-0.326	-2.374	2.016	4.022	0.731	5.042	5.134	5.614	6.594	5.400	500.000
-8.547	-6.753	-7.490	-2.205	2.310	-0.542	4.026	2.419	2.950	5.457	5.153	5.555	4.504	3.486	-7.631	-5.287	-4.703	-3.435	-0.334	-2.068	2.198	3.865	0.491	4.689	4.859	5.287	6.092	4.887	503.906
-8.231	-6.489	-7.091	-1.940	2.578	-0.258	4.005	2.693	3.258	5.216	4.999	5.200	4.245	3.456	-7.534	-5.144	-4.610	-3.513	-0.371	-1.812	2.346	3.692	0.284	4.291	4.583	4.964	5.487	4.313	507.812
-7.942	-6.267	-6.685	-1.713	2.818	0.047	3.970	3.170	3.795	4.962	4.861	4.777	3.878	3.348	-7.448	-5.040	-4.543	-3.605	-0.437	-1.622	2.446	3.511	0.120	3.874	4.319	4.648	4.826	3.735	511.719
-7.692	-6.102	-6.300	-1.536	3.013	0.358	3.918	3.799	4.507	4.710	4.751	4.331	3.424	3.172	-7.367	-4.979	-4.502	-3.691	-0.527	-1.509	2.488	3.332	0.002	3.462	4.082	4.347	4.153	3.201	515.625
-7.484	-5.999	-5.956	-1.418	3.148	0.660	3.844	4.519	5.324	4.463	4.671	3.896	2.914	2.945	-7.287	-4.961	-4.488	-3.745	-0.640	-1.478	2.465	3.162	-0.070	3.076	3.887	4.068	3.510	2.749	519.531
-7.324	-5.952	-5.663	-1.360	3.217	0.939	3.743	5.257	6.169	4.222	4.614	3.492	2.380	2.686	-7.198	-4.990	-4.504	-3.747	-0.769	-1.533	2.377	3.007	-0.102	2.737	3.751	3.828	2.931	2.402	523.438
-7.210	-5.953	-5.421	-1.362	3.217	1.184	3.612	5.944	6.962	3.985	4.563	3.122	1.856	2.418	-7.097	-5.069	-4.550	-3.683	-0.904	-1.669	2.231	2.880	-0.097	2.461	3.691	3.643	2.445	2.165	527.344
-7.137	-5.987	-5.219	-1.419	3.152	1.379	3.453	6.517	7.632	3.749	4.497	2.781	1.380	2.163	-6.984	-5.197	-4.623	-3.550	-1.035	-1.878	2.038	2.789	-0.059	2.264	3.713	3.533	2.074	2.031	531.250
-7.101	-6.043	-5.047	-1.523	3.032	1.515	3.273	6.929	8.126	3.518	4.399	2.453	0.986	1.943	-6.870	-5.371	-4.717	-3.355	-1.146	-2.147	1.816	2.748	0.010	2.154	3.817	3.514	1.829	1.983	535.156
-7.093	-6.112	-4.892	-1.662	2.872	1.584	3.086	7.156	8.410	3.300	4.256	2.129	0.704	1.776	-6.767	-5.585	-4.823	-3.116	-1.224	-2.455	1.584	2.767	0.105	2.139	3.993	3.593	1.719	2.001	539.062
-7.109	-6.188	-4.749	-1.825	2.688	1.582	2.909	7.192	8.477	3.110	4.069	1.807	0.558	1.673	-6.687	-5.822	-4.930	-2.859	-1.256	-2.782	1.361	2.848	0.222	2.217	4.218	3.767	1.743	2.066	542.969
-7.143	-6.267	-4.616	-1.995	2.498	1.513	2.761	7.053	8.339	2.969	3.850	1.496	0.566	1.640	-6.636	-6.064	-5.026	-2.610	-1.239	-3.103	1.166	2.988	0.350	2.379	4.461	4.016	1.896	2.165	546.875
-7.196	-6.348	-4.496	-2.156	2.316	1.382	2.658	6.765	8.028	2.895	3.623	1.218	0.729	1.677	-6.609	-6.283	-5.098	-2.395	-1.173	-3.396	1.013	3.171	0.475	2.609	4.683	4.310	2.163	2.292	550.781
-7.267	-6.423	-4.397	-2.290	2.156	1.202	2.615	6.362	7.582	2.904	3.416	1.004	1.039	1.778	-6.595	-6.452	-5.134	-2.230	-1.068	-3.637	0.911	3.375	0.579	2.884	4.846	4.608	2.525	2.445	554.688
-7.354	-6.484	-4.323	-2.384	2.025	0.990	2.636	5.880	7.042	3.001	3.258	0.886	1.472	1.933	-6.576	-6.541	-5.119	-2.124	-0.937	-3.809	0.866	3.571	0.643	3.177	4.920	4.865	2.954	2.624	558.594
-7.450	-6.516	-4.278	-2.423	1.930	0.760	2.716	5.349	6.440	3.177	3.170	0.892	1.994	2.132	-6.541	-6.525	-5.041	-2.078	-0.793	-3.896	0.882	3.733	0.652	3.459	4.885	5.043	3.419	2.828	562.500
-7.544	-6.505	-4.263	-2.400	1.872	0.529	2.843	4.796	5.801	3.413	3.159	1.037	2.561	2.361	-6.485	-6.390	-4.888	-2.081	-0.644	-3.888	0.955	3.842	0.598	3.706	4.739	5.112	3.882	3.051	566.406
-7.615	-6.436	-4.274	-2.313	1.854	0.312	2.996	4.239	5.135	3.672	3.215	1.319	3.127	2.610	-6.410	-6.127	-4.653	-2.119	-0.494	-3.780	1.085	3.894	0.487	3.899	4.498	5.059	4.306	3.278	570.312
-7.644	-6.296	-4.303	-2.163	1.875	0.120	3.151	3.689	4.442	3.913	3.310	1.715	3.649	2.868	-6.326	-5.743	-4.331	-2.169	-0.337	-3.570	1.267	3.895	0.334	4.024	4.190	4.883	4.654	3.485	574.219
-7.612	-6.077	-4.342	-1.956	1.933	-0.037	3.280	3.155	3.717	4.091	3.402	2.182	4.088	3.123	-6.236	-5.250	-3.926	-2.205	-0.162	-3.262	1.495	3.865	0.165	4.076	3.850	4.596	4.892	3.643	578.125
-7.504	-5.775	-4.376	-1.700	2.029	-0.149	3.363	2.642	2.959	4.168	3.446	2.664	4.415	3.365	-6.137	-4.671	-3.448	-2.205	0.041	-2.864	1.763	3.827	0.010	4.054	3.512	4.213	4.990	3.714	582.031
-7.313	-5.392	-4.393	-1.402	2.161	-0.209	3.384	2.161	2.176	4.115	3.397	3.095	4.613	3.583	-6.017	-4.033	-2.916	-2.149	0.280	-2.388	2.062	3.807	-0.104	3.964	3.202	3.753	4.929	3.665	585.938
-7.039	-4.938	-4.376	-1.072	2.328	-0.210	3.337	1.727	1.390	3.923	3.226	3.415	4.673	3.765	-5.853	-3.367	-2.356	-2.028	0.554	-1.851	2.380	3.820	-0.155	3.812	2.933	3.233	4.696	3.464	589.844
-6.690	-4.428	-4.314	-0.720	2.526	-0.148	3.228	1.363	0.637	3.599	2.922	3.571	4.596	3.903	-5.623	-2.702	-1.796	-1.843	0.850	-1.276	2.705	3.876	-0.135	3.607	2.708	2.665	4.291	3.093	593.750
-6.276	-3.882	-4.194	-0.353	2.750	-0.024	3.066	1.100	-0.036	3.164	2.491	3.528	4.392	3.988	-5.308	-2.062	-1.270	-1.604	1.150	-0.688	3.020	3.971	-0.046	3.355	2.518	2.058	3.725	2.542	597.656
-5.811	-3.326	-4.010	0.014	2.988	0.160	2.868	0.966	-0.577	2.651	1.956	3.268	4.071	4.015	-4.900	-1.470	-0.808	-1.327	1.427	-0.118	3.309	4.093	0.099	3.065	2.350	1.419	3.020	1.819	601.562
-5.311	-2.783	-3.757	0.371	3.229	0.393	2.651	0.988	-0.942	2.096	1.353	2.791	3.649	3.982	-4.409	-0.942	-0.435	-1.030	1.655	0.406	3.555	4.226	0.282	2.743	2.191	0.758	2.206	0.941	605.469
-4.788	-2.278	-3.439	0.702	3.456	0.661	2.427	1.180	-1.099	1.535	0.719	2.115	3.146	3.893	-3.858	-0.489	-0.168	-0.732	1.812	0.857	3.743	4.352	0.479	2.398	2.033	0.090	1.323	-0.061	609.375
-4.257	-1.832	-3.064	0.993	3.651	0.950	2.207	1.538	-1.035	1.001	0.093	1.271	2.583	3.752	-3.285	-0.121	-0.012	-0.448	1.888	1.210	3.863	4.456	0.669	2.040	1.876	-0.566	0.417	-1.142	613.281
-3.732	-1.459	-2.646	1.233	3.798	1.244	1.999	2.040	-0.764	0.522	-0.492	0.304	1.987	3.566	-2.734	0.157	0.034	-0.194	1.879	1.451	3.906	4.525	0.834	1.682	1.727	-1.182	-0.462	-2.250	617.188
-3.227	-1.170	-2.210	1.414	3.887	1.529	1.806	2.643	-0.316	0.118	-1.009	-0.729	1.391	3.345	-2.245	0.339	-0.019	0.019	1.794	1.570	3.871	4.552	0.959	1.342	1.597	-1.724	-1.264	-3.318	621.094
-2.761	-0.969	-1.780	1.532	3.908	1.792	1.630	3.286	0.257	-0.194	-1.432	-1.762	0.830	3.102	-1.852	0.423	-0.162	0.178	1.644	1.568	3.762	4.531	1.034	1.040	1.498	-2.155	-1.937	-4.275	625.000
-2.351	-0.856	-1.383	1.588	3.863	2.025	1.473	3.904	0.895	-0.401	-1.743	-2.720	0.341	2.851	-1.579	0.410	-0.381	0.273	1.443	1.450	3.585	4.459	1.056	0.798	1.439	-2.437	-2.436	-5.047	628.906
-2.020	-0.827	-1.044	1.586	3.756	2.215	1.343	4.430	1.534	-0.492	-1.921	-3.528	-0.036	2.608	-1.436	0.303	-0.670	0.292	1.205	1.231	3.355	4.337	1.025	0.637	1.421	-2.541	-2.721	-5.565	632.812
-1.787	-0.877	-0.780	1.530	3.596	2.352	1.246	4.809	2.119	-0.463	-1.950	-4.115	-0.269	2.394	-1.425	0.110	-1.017	0.228	0.938	0.929	3.086	4.167	0.944	0.575	1.435	-2.447	-2.762	-5.775	636.719
-1.672	-0.999	-0.607	1.426	3.397	2.421	1.194	5.001	2.602	-0.310	-1.819	-4.427	-0.331	2.226	-1.537	-0.157	-1.413	0.079	0.652	0.568	2.797	3.954	0.820	0.624	1.469	-2.155	-2.548	-5.646	640.625
-1.684	-1.187	-0.533	1.279	3.170	2.410	1.193	4.989	2.953	-0.037	-1.527	-4.430	-0.210	2.120	-1.753	-0.483	-1.840	-0.149	0.354	0.171	2.509	3.710	0.662	0.786	1.503	-1.685	-2.083	-5.180	644.531
-1.825	-1.431	-0.561	1.091	2.928	2.306	1.250	4.777	3.154	0.344	-1.084	-4.123	0.093	2.087	-2.048	-0.848	-2.274	-0.438	0.056	-0.234	2.242	3.449	0.485	1.053	1.523	-1.077	-1.397	-4.413	648.438
-2.079	-1.718	-0.686	0.870	2.682	2.107	1.359	4.386	3.198	0.810	-0.521	-3.533	0.558	2.133	-2.392	-1.229	-2.682	-0.764	-0.228	-0.623	2.013	3.193	0.303	1.405	1.517	-0.389	-0.539	-3.411	652.344
-2.416	-2.027	-0.894	0.626	2.443	1.816	1.512	3.846	3.083	1.330	0.114	-2.721	1.149	2.253	-2.753	-1.598	-3.029	-1.097	-0.478	-0.971	1.838	2.966	0.131	1.814	1.482	0.309	0.425	-2.270	656.250
-2.792	-2.332	-1.160	0.373	2.218	1.451	1.688	3.195	2.815	1.861	0.759	-1.766	1.820	2.439	-3.104	-1.925	-3.281	-1.404	-0.674	-1.254	1.729	2.791	-0.016	2.246	1.425	0.950	1.417	-1.094	660.156
-3.154	-2.601	-1.454	0.133	2.015	1.037	1.865	2.471	2.398	2.357	1.347	-0.761	2.519	2.675	-3.418	-2.181	-3.412	-1.659	-0.795	-1.455	1.693	2.686	-0.124	2.667	1.357	1.471	2.359	0.013	664.062
-3.452	-2.802	-1.738	-0.072	1.843	0.608	2.016	1.709	1.841	2.770	1.809	0.203	3.192	2.943	-3.674	-2.340	-3.411	-1.843	-0.829	-1.562	1.733	2.662	-0.184	3.048	1.293	1.826	3.180	0.960	667.969
-3.643	-2.906	-1.975	-0.218	1.708	0.199	2.120	0.942	1.155	3.058	2.088	1.043	3.792	3.224	-3.850	-2.381	-3.285	-1.946	-0.771	-1.569	1.846	2.720	-0.189	3.368	1.250	1.991	3.822	1.677	671.875
-3.702	-2.897	-2.138	-0.287	1.617	-0.158	2.162	0.198	0.359	3.192	2.144	1.694	4.279	3.499	-3.922	-2.299	-3.054	-1.968	-0.626	-1.479	2.026	2.854	-0.134	3.615	1.237	1.962	4.245	2.120	675.781
-3.621	-2.769	-2.207	-0.265	1.578	-0.433	2.137	-0.490	-0.517	3.154	1.959	2.108	4.626	3.754	-3.872	-2.096	-2.750	-1.913	-0.409	-1.298	2.264	3.050	-0.019	3.782	1.257	1.753	4.428	2.266	679.688
-3.405	-2.530	-2.178	-0.147	1.598	-0.607	2.049	-1.089	-1.431	2.945	1.540	2.256	4.813	3.978	-3.687	-1.788	-2.407	-1.793	-0.137	-1.040	2.549	3.292	0.157	3.867	1.303	1.392	4.362	2.112	683.594
-3.072	-2.196	-2.055	0.065	1.680	-0.668	1.909	-1.563	-2.329	2.578	0.913	2.127	4.833	4.164	-3.366	-1.398	-2.054	-1.619	0.170	-0.717	2.868	3.564	0.388	3.867	1.359	0.907	4.053	1.661	687.500
-2.640	-1.789	-1.848	0.362	1.825	-0.613	1.734	-1.876	-3.150	2.080	0.121	1.719	4.684	4.306	-2.923	-0.952	-1.709	-1.402	0.495	-0.348	3.206	3.854	0.666	3.776	1.406	0.326	3.515	0.931	691.406
-2.130	-1.329	-1.567	0.730	2.030	-0.444	1.538	-2.002	-3.835	1.483	-0.785	1.047	4.370	4.399	-2.389	-0.477	-1.378	-1.149	0.824	0.053	3.545	4.151	0.979	3.586	1.422	-0.328	2.768	-0.058	695.312
-1.563	-0.837	-1.226	1.150	2.283	-0.173	1.333	-1.926	-4.336	0.824	-1.748	0.138	3.903	4.436	-1.802	0.004	-1.054	-0.862	1.149	0.468	3.869	4.447	1.311	3.291	1.391	-1.040	1.845	-1.269	699.219
-0.961	-0.329	-0.837	1.600	2.567	0.184	1.124	-1.655	-4.621	0.137	-2.714	-0.967	3.302	4.413	-1.210	0.473	-0.721	-0.542	1.464	0.882	4.158	4.734	1.646	2.889	1.306	-1.792	0.786	-2.650	703.125
-0.352	0.178	-0.417	2.049	2.858	0.603	0.913	-1.218	-4.685	-0.544	-3.632	-2.208	2.596	4.326	-0.651	0.916	-0.364	-0.190	1.765	1.278	4.392	5.002	1.967	2.393	1.171	-2.562	-0.352	-4.128	707.031
0.229	0.663	0.010	2.466	3.128	1.050	0.700	-0.660	-4.545	-1.188	-4.457	-3.508	1.826	4.177	-0.162	1.319	0.030	0.186	2.047	1.640	4.555	5.241	2.259	1.828	1.001	-3.317	-1.503	-5.610	710.938
0.741	1.100	0.411	2.816	3.349	1.488	0.485	-0.045	-4.238	-1.764	-5.150	-4.778	1.045	3.975	0.236	1.668	0.461	0.571	2.307	1.955	4.640	5.438	2.510	1.239	0.822	-4.011	-2.588	-6.989	714.844
1.144	1.458	0.750	3.066	3.497	1.873	0.273	0.561	-3.818	-2.246	-5.679	-5.924	0.314	3.738	0.527	1.950	0.916	0.941	2.537	2.210	4.644	5.583	2.713	0.678	0.663	-4.590	-3.527	-8.158	718.750
1.407	1.708	0.993	3.194	3.557	2.168	0.074	1.097	-3.343	-2.607	-6.023	-6.859	-0.301	3.492	0.702	2.149	1.367	1.265	2.728	2.397	4.580	5.668	2.862	0.206	0.552	-5.004	-4.247	-9.025	722.656
1.509	1.826	1.115	3.191	3.526	2.342	-0.097	1.509	-2.869	-2.828	-6.172	-7.516	-0.741	3.267	0.760	2.252	1.776	1.511	2.870	2.512	4.465	5.691	2.951	-0.123	0.508	-5.213	-4.688	-9.530	726.562
1.450	1.802	1.104	3.063	3.412	2.377	-0.225	1.765	-2.442	-2.895	-6.128	-7.856	-0.958	3.096	0.703	2.252	2.100	1.655	2.954	2.554	4.323	5.655	2.976	-0.268	0.539	-5.198	-4.818	-9.650	730.469
1.246	1.638	0.962	2.831	3.232	2.273	-0.292	1.848	-2.099	-2.809	-5.910	-7.874	-0.925	3.003	0.536	2.149	2.303	1.682	2.971	2.529	4.176	5.572	2.936	-0.210	0.641	-4.964	-4.628	-9.405	734.375
0.931	1.352	0.704	2.523	3.007	2.042	-0.291	1.759	-1.863	-2.581	-5.551	-7.595	-0.643	3.002	0.275	1.954	2.361	1.595	2.922	2.442	4.044	5.454	2.835	0.052	0.799	-4.537	-4.141	-8.848	738.281
0.543	0.973	0.352	2.173	2.755	1.705	-0.222	1.513	-1.747	-2.235	-5.095	-7.071	-0.137	3.098	-0.060	1.685	2.268	1.410	2.812	2.303	3.937	5.323	2.686	0.495	0.997	-3.962	-3.402	-8.056	742.188
0.124	0.539	-0.066	1.812	2.493	1.291	-0.096	1.130	-1.758	-1.810	-4.594	-6.366	0.544	3.282	-0.437	1.369	2.038	1.155	2.651	2.124	3.860	5.195	2.507	1.080	1.217	-3.291	-2.472	-7.112	746.094
-0.292	0.087	-0.522	1.463	2.229	0.830	0.067	0.639	-1.895	-1.346	-4.099	-5.552	1.334	3.536	-0.821	1.035	1.700	0.865	2.458	1.918	3.813	5.090	2.323	1.759	1.442	-2.577	-1.425	-6.098	750.000
-0.679	-0.345	-0.981	1.142	1.971	0.356	0.244	0.070	-2.152	-0.888	-3.656	-4.697	2.158	3.839	-1.173	0.712	1.293	0.572	2.251	1.702	3.794	5.018	2.158	2.475	1.660	-1.872	-0.339	-5.083	753.906
-1.020	-0.726	-1.411	0.858	1.723	-0.102	0.410	-0.543	-2.514	-0.476	-3.301	-3.860	2.945	4.166	-1.461	0.428	0.860	0.306	2.051	1.495	3.804	4.986	2.031	3.173	1.858	-1.219	0.712	-4.121	757.812
-1.308	-1.033	-1.782	0.617	1.491	-0.515	0.547	-1.167	-2.958	-0.139	-3.054	-3.086	3.632	4.492	-1.663	0.202	0.445	0.086	1.873	1.317	3.842	4.992	1.950	3.799	2.024	-0.652	1.660	-3.252	761.719
-1.538	-1.253	-2.067	0.421	1.285	-0.860	0.643	-1.762	-3.453	0.106	-2.917	-2.407	4.173	4.794	-1.771	0.046	0.087	-0.076	1.731	1.181	3.908	5.026	1.914	4.307	2.145	-0.199	2.447	-2.504	765.625
-1.704	-1.383	-2.248	0.270	1.113	-1.123	0.695	-2.293	-3.962	0.251	-2.881	-1.844	4.537	5.051	-1.794	-0.039	-0.181	-0.174	1.630	1.096	3.999	5.071	1.913	4.663	2.211	0.119	3.028	-1.895	769.531
-1.802	-1.432	-2.318	0.165	0.986	-1.300	0.706	-2.726	-4.449	0.301	-2.927	-1.404	4.715	5.249	-1.754	-0.060	-0.336	-0.205	1.574	1.060	4.106	5.108	1.934	4.846	2.210	0.289	3.376	-1.441	773.438
-1.823	-1.411	-2.277	0.102	0.908	-1.398	0.682	-3.036	-4.881	0.266	-3.032	-1.087	4.713	5.376	-1.683	-0.028	-0.362	-0.169	1.563	1.063	4.217	5.121	1.966	4.848	2.137	0.306	3.479	-1.148	777.344
-1.758	-1.339	-2.132	0.076	0.879	-1.436	0.632	-3.215	-5.240	0.161	-3.173	-0.883	4.553	5.431	-1.613	0.042	-0.252	-0.064	1.593	1.089	4.320	5.097	2.000	4.679	1.993	0.171	3.347	-1.015	781.250
-1.608	-1.233	-1.898	0.079	0.896	-1.437	0.563	-3.267	-5.518	0.003	-3.333	-0.772	4.265	5.418	-1.570	0.136	-0.015	0.105	1.661	1.122	4.403	5.027	2.034	4.362	1.784	-0.101	3.010	-1.028	785.156
-1.379	-1.108	-1.594	0.102	0.946	-1.424	0.484	-3.215	-5.726	-0.191	-3.498	-0.730	3.889	5.351	-1.569	0.239	0.331	0.330	1.758	1.147	4.461	4.916	2.064	3.933	1.522	-0.485	2.515	-1.158	789.062
-1.091	-0.979	-1.246	0.136	1.018	-1.416	0.402	-3.095	-5.885	-0.401	-3.660	-0.726	3.466	5.249	-1.611	0.343	0.751	0.593	1.874	1.159	4.496	4.770	2.091	3.435	1.224	-0.942	1.921	-1.365	792.969
-0.776	-0.856	-0.885	0.171	1.098	-1.420	0.322	-2.949	-6.023	-0.611	-3.812	-0.726	3.036	5.135	-1.686	0.440	1.200	0.872	1.996	1.156	4.518	4.606	2.113	2.917	0.911	-1.427	1.298	-1.597	796.875
