FP1	F3	F7	FC3	C3	C5	P3	P7	PO7	PO3	O1	Oz	Pz	CPz	FP2	Fz	F4	F8	FC4	FCz	Cz	C4	C6	P4	P8	PO8	PO4	O2	time
-0.479	-0.549	-0.455	-0.148	0.525	0.626	1.152	1.504	0.503	1.741	2.030	1.684	0.906	0.775	-1.065	-1.510	-2.304	-0.719	-0.696	-0.789	-0.508	-0.268	0.208	-0.351	-1.047	-0.009	-0.577	-0.289	-199.219
-0.341	-0.451	-0.190	-0.145	0.387	0.498	0.830	1.393	0.195	1.299	1.445	1.421	0.712	0.604	-1.007	-1.445	-2.016	-0.764	-0.597	-0.751	-0.432	-0.158	0.189	-0.200	-0.648	0.276	-0.440	-0.197	-195.312
-0.206	-0.386	0.041	-0.151	0.252	0.381	0.523	1.292	-0.075	0.876	0.894	1.162	0.507	0.420	-0.957	-1.389	-1.736	-0.791	-0.500	-0.720	-0.376	-0.061	0.190	-0.070	-0.263	0.555	-0.314	-0.100	-191.406
-0.085	-0.376	0.211	-0.176	0.120	0.278	0.242	1.203	-0.274	0.490	0.413	0.917	0.284	0.216	-0.919	-1.349	-1.473	-0.789	-0.411	-0.705	-0.352	0.014	0.228	0.027	0.098	0.824	-0.202	0.014	-187.500
0.003	-0.432	0.304	-0.225	-0.010	0.185	-0.002	1.126	-0.377	0.159	0.031	0.700	0.045	-0.011	-0.891	-1.331	-1.233	-0.745	-0.335	-0.709	-0.370	0.060	0.309	0.084	0.421	1.080	-0.105	0.154	-183.594
0.042	-0.550	0.320	-0.301	-0.142	0.095	-0.203	1.056	-0.375	-0.104	-0.233	0.527	-0.200	-0.254	-0.873	-1.332	-1.015	-0.657	-0.275	-0.729	-0.426	0.076	0.430	0.102	0.698	1.316	-0.021	0.324	-179.688
0.019	-0.710	0.271	-0.401	-0.278	-0.005	-0.358	0.982	-0.271	-0.288	-0.367	0.413	-0.436	-0.502	-0.859	-1.348	-0.818	-0.525	-0.235	-0.760	-0.515	0.064	0.578	0.087	0.919	1.528	0.052	0.520	-175.781
-0.070	-0.886	0.175	-0.518	-0.419	-0.127	-0.466	0.893	-0.085	-0.393	-0.376	0.370	-0.640	-0.735	-0.845	-1.367	-0.637	-0.361	-0.215	-0.797	-0.622	0.032	0.733	0.052	1.081	1.711	0.121	0.738	-171.875
-0.217	-1.049	0.051	-0.643	-0.563	-0.278	-0.532	0.774	0.149	-0.425	-0.278	0.403	-0.792	-0.930	-0.825	-1.379	-0.471	-0.180	-0.216	-0.832	-0.731	-0.010	0.874	0.011	1.182	1.864	0.192	0.970	-167.969
-0.404	-1.170	-0.083	-0.762	-0.703	-0.456	-0.558	0.617	0.384	-0.398	-0.102	0.507	-0.876	-1.064	-0.792	-1.374	-0.320	-0.002	-0.233	-0.856	-0.826	-0.049	0.981	-0.019	1.226	1.986	0.268	1.203	-164.062
-0.599	-1.231	-0.212	-0.855	-0.826	-0.651	-0.551	0.416	0.573	-0.333	0.113	0.665	-0.883	-1.118	-0.742	-1.338	-0.186	0.149	-0.260	-0.861	-0.889	-0.074	1.039	-0.028	1.217	2.077	0.349	1.424	-160.156
-0.770	-1.219	-0.324	-0.906	-0.915	-0.839	-0.517	0.176	0.675	-0.255	0.322	0.849	-0.813	-1.076	-0.675	-1.263	-0.070	0.257	-0.288	-0.837	-0.905	-0.075	1.041	-0.013	1.161	2.131	0.428	1.614	-156.250
-0.882	-1.132	-0.408	-0.896	-0.947	-0.995	-0.462	-0.091	0.660	-0.185	0.486	1.021	-0.677	-0.935	-0.591	-1.138	0.029	0.312	-0.305	-0.774	-0.862	-0.049	0.985	0.018	1.062	2.136	0.491	1.749	-152.344
-0.908	-0.974	-0.456	-0.814	-0.907	-1.093	-0.390	-0.366	0.523	-0.139	0.573	1.143	-0.490	-0.698	-0.493	-0.958	0.117	0.314	-0.297	-0.662	-0.753	0.004	0.874	0.051	0.921	2.073	0.521	1.802	-148.438
-0.831	-0.757	-0.462	-0.656	-0.784	-1.115	-0.308	-0.628	0.280	-0.127	0.565	1.181	-0.275	-0.382	-0.384	-0.718	0.199	0.274	-0.255	-0.495	-0.575	0.077	0.717	0.068	0.736	1.918	0.498	1.746	-144.531
-0.651	-0.495	-0.425	-0.429	-0.579	-1.056	-0.221	-0.853	-0.032	-0.146	0.462	1.111	-0.052	-0.009	-0.264	-0.420	0.284	0.211	-0.171	-0.272	-0.335	0.162	0.527	0.051	0.505	1.651	0.407	1.559	-140.625
-0.383	-0.205	-0.346	-0.151	-0.307	-0.925	-0.133	-1.027	-0.366	-0.190	0.277	0.927	0.160	0.392	-0.132	-0.075	0.377	0.148	-0.045	-0.002	-0.041	0.249	0.318	-0.010	0.226	1.256	0.242	1.233	-136.719
-0.056	0.094	-0.236	0.152	0.006	-0.742	-0.048	-1.139	-0.671	-0.246	0.037	0.637	0.347	0.791	0.014	0.302	0.480	0.108	0.119	0.303	0.289	0.331	0.108	-0.112	-0.099	0.736	0.010	0.774	-132.812
0.291	0.386	-0.107	0.451	0.327	-0.533	0.031	-1.191	-0.906	-0.303	-0.226	0.268	0.500	1.157	0.179	0.688	0.591	0.108	0.308	0.620	0.635	0.402	-0.084	-0.245	-0.459	0.111	-0.270	0.207	-128.906
0.618	0.655	0.026	0.717	0.621	-0.325	0.102	-1.189	-1.044	-0.348	-0.479	-0.146	0.612	1.465	0.363	1.056	0.706	0.152	0.507	0.926	0.972	0.460	-0.240	-0.386	-0.838	-0.575	-0.568	-0.424	-125.000
0.891	0.891	0.151	0.928	0.857	-0.139	0.163	-1.147	-1.078	-0.375	-0.692	-0.564	0.682	1.693	0.561	1.382	0.816	0.236	0.695	1.196	1.272	0.500	-0.349	-0.511	-1.208	-1.265	-0.849	-1.062	-121.094
1.087	1.085	0.260	1.071	1.017	0.014	0.217	-1.076	-1.014	-0.380	-0.843	-0.949	0.710	1.824	0.759	1.646	0.912	0.341	0.853	1.412	1.511	0.520	-0.407	-0.600	-1.540	-1.895	-1.076	-1.648	-117.188
1.196	1.234	0.350	1.146	1.093	0.133	0.261	-0.985	-0.874	-0.364	-0.920	-1.271	0.697	1.849	0.940	1.835	0.985	0.446	0.966	1.559	1.665	0.516	-0.418	-0.640	-1.805	-2.404	-1.225	-2.128	-113.281
1.225	1.340	0.424	1.162	1.092	0.225	0.296	-0.878	-0.681	-0.330	-0.925	-1.516	0.643	1.767	1.084	1.947	1.027	0.523	1.022	1.634	1.722	0.481	-0.394	-0.628	-1.980	-2.747	-1.281	-2.462	-109.375
1.191	1.409	0.489	1.136	1.030	0.304	0.319	-0.756	-0.461	-0.284	-0.867	-1.680	0.551	1.583	1.174	1.987	1.035	0.553	1.018	1.643	1.674	0.413	-0.351	-0.573	-2.050	-2.901	-1.248	-2.632	-105.469
1.117	1.447	0.552	1.089	0.928	0.387	0.327	-0.616	-0.233	-0.233	-0.768	-1.775	0.421	1.312	1.197	1.970	1.006	0.521	0.957	1.597	1.527	0.313	-0.304	-0.493	-2.014	-2.866	-1.141	-2.642	-101.562
1.030	1.463	0.618	1.036	0.810	0.482	0.317	-0.457	-0.012	-0.182	-0.652	-1.815	0.257	0.973	1.151	1.909	0.944	0.426	0.849	1.514	1.296	0.184	-0.266	-0.405	-1.879	-2.667	-0.984	-2.512	-97.656
0.948	1.461	0.689	0.990	0.691	0.592	0.285	-0.282	0.192	-0.137	-0.540	-1.818	0.063	0.589	1.041	1.820	0.853	0.274	0.704	1.408	1.003	0.036	-0.241	-0.327	-1.661	-2.339	-0.805	-2.275	-93.750
0.882	1.442	0.761	0.950	0.581	0.709	0.230	-0.095	0.373	-0.100	-0.448	-1.792	-0.154	0.185	0.879	1.710	0.738	0.086	0.535	1.289	0.674	-0.119	-0.231	-0.267	-1.376	-1.925	-0.623	-1.964	-89.844
0.833	1.398	0.821	0.908	0.482	0.816	0.152	0.091	0.531	-0.069	-0.381	-1.743	-0.381	-0.213	0.683	1.582	0.602	-0.116	0.352	1.159	0.335	-0.265	-0.231	-0.225	-1.039	-1.463	-0.454	-1.608	-85.938
0.789	1.318	0.854	0.852	0.388	0.892	0.055	0.267	0.664	-0.041	-0.335	-1.665	-0.605	-0.584	0.474	1.429	0.447	-0.306	0.162	1.013	0.010	-0.388	-0.231	-0.194	-0.665	-0.987	-0.297	-1.228	-82.031
0.733	1.189	0.840	0.767	0.291	0.917	-0.052	0.420	0.774	-0.012	-0.295	-1.547	-0.810	-0.908	0.269	1.243	0.273	-0.464	-0.028	0.844	-0.283	-0.473	-0.223	-0.160	-0.268	-0.517	-0.149	-0.834	-78.125
0.646	1.000	0.762	0.641	0.183	0.881	-0.159	0.541	0.862	0.021	-0.244	-1.381	-0.979	-1.170	0.081	1.017	0.084	-0.577	-0.210	0.644	-0.529	-0.512	-0.202	-0.110	0.137	-0.069	0.001	-0.430	-74.219
0.512	0.749	0.615	0.473	0.062	0.782	-0.257	0.621	0.928	0.059	-0.168	-1.158	-1.096	-1.359	-0.082	0.748	-0.110	-0.638	-0.375	0.412	-0.720	-0.500	-0.167	-0.036	0.531	0.349	0.162	-0.019	-70.312
0.325	0.447	0.404	0.268	-0.069	0.631	-0.334	0.655	0.973	0.099	-0.060	-0.879	-1.149	-1.470	-0.216	0.445	-0.295	-0.652	-0.512	0.155	-0.853	-0.442	-0.122	0.064	0.891	0.727	0.338	0.394	-66.406
0.091	0.117	0.149	0.044	-0.202	0.451	-0.386	0.642	0.990	0.135	0.074	-0.555	-1.135	-1.505	-0.320	0.128	-0.452	-0.625	-0.611	-0.113	-0.931	-0.349	-0.077	0.182	1.192	1.052	0.522	0.798	-62.500
-0.174	-0.209	-0.117	-0.178	-0.323	0.268	-0.409	0.583	0.973	0.159	0.222	-0.203	-1.055	-1.469	-0.394	-0.180	-0.561	-0.568	-0.662	-0.371	-0.959	-0.240	-0.043	0.303	1.408	1.311	0.704	1.172	-58.594
-0.443	-0.493	-0.360	-0.376	-0.418	0.110	-0.405	0.482	0.912	0.163	0.360	0.151	-0.916	-1.372	-0.434	-0.452	-0.606	-0.490	-0.661	-0.598	-0.946	-0.135	-0.029	0.411	1.520	1.484	0.865	1.492	-54.688
-0.688	-0.704	-0.550	-0.531	-0.478	-0.000	-0.380	0.346	0.798	0.143	0.465	0.478	-0.731	-1.227	-0.434	-0.663	-0.582	-0.398	-0.610	-0.776	-0.902	-0.054	-0.043	0.487	1.521	1.555	0.986	1.730	-50.781
-0.879	-0.825	-0.669	-0.632	-0.495	-0.052	-0.339	0.184	0.624	0.098	0.516	0.751	-0.512	-1.046	-0.388	-0.798	-0.495	-0.293	-0.515	-0.896	-0.833	-0.008	-0.086	0.521	1.413	1.509	1.052	1.859	-46.875
-0.993	-0.851	-0.712	-0.675	-0.472	-0.046	-0.286	0.009	0.394	0.033	0.502	0.950	-0.272	-0.840	-0.294	-0.852	-0.362	-0.178	-0.390	-0.952	-0.740	-0.002	-0.155	0.509	1.215	1.340	1.054	1.862	-42.969
-1.018	-0.796	-0.691	-0.666	-0.414	0.003	-0.224	-0.165	0.120	-0.038	0.423	1.061	-0.023	-0.617	-0.156	-0.831	-0.207	-0.051	-0.252	-0.950	-0.622	-0.030	-0.242	0.460	0.953	1.052	0.991	1.733	-39.062
-0.955	-0.686	-0.627	-0.615	-0.334	0.069	-0.151	-0.323	-0.172	-0.102	0.296	1.080	0.225	-0.380	0.016	-0.750	-0.054	0.087	-0.118	-0.896	-0.475	-0.079	-0.339	0.386	0.658	0.656	0.872	1.476	-35.156
-0.818	-0.551	-0.547	-0.539	-0.247	0.125	-0.065	-0.448	-0.450	-0.142	0.145	1.013	0.462	-0.135	0.205	-0.624	0.081	0.233	-0.001	-0.800	-0.295	-0.131	-0.433	0.308	0.358	0.177	0.711	1.109	-31.250
-0.636	-0.422	-0.475	-0.456	-0.166	0.145	0.038	-0.527	-0.676	-0.146	0.000	0.872	0.677	0.111	0.391	-0.473	0.190	0.382	0.088	-0.674	-0.084	-0.173	-0.516	0.243	0.081	-0.354	0.528	0.662	-27.344
-0.445	-0.321	-0.431	-0.380	-0.103	0.111	0.158	-0.548	-0.815	-0.104	-0.108	0.676	0.861	0.348	0.556	-0.314	0.277	0.524	0.144	-0.527	0.147	-0.195	-0.579	0.208	-0.156	-0.895	0.344	0.174	-23.438
-0.281	-0.263	-0.425	-0.325	-0.067	0.019	0.293	-0.506	-0.841	-0.016	-0.157	0.445	1.003	0.559	0.684	-0.162	0.350	0.650	0.166	-0.374	0.376	-0.194	-0.617	0.209	-0.338	-1.394	0.180	-0.311	-19.531
-0.173	-0.253	-0.456	-0.300	-0.061	-0.123	0.432	-0.406	-0.745	0.109	-0.135	0.201	1.089	0.722	0.765	-0.029	0.420	0.747	0.154	-0.231	0.574	-0.179	-0.627	0.247	-0.457	-1.799	0.055	-0.744	-15.625
-0.136	-0.289	-0.519	-0.311	-0.089	-0.297	0.564	-0.256	-0.531	0.258	-0.043	-0.033	1.110	0.816	0.790	0.073	0.493	0.803	0.113	-0.114	0.706	-0.161	-0.613	0.319	-0.505	-2.060	-0.015	-1.078	-11.719
-0.169	-0.362	-0.599	-0.361	-0.152	-0.484	0.671	-0.071	-0.219	0.415	0.107	-0.239	1.057	0.818	0.757	0.135	0.570	0.810	0.045	-0.044	0.743	-0.151	-0.579	0.416	-0.478	-2.139	-0.020	-1.278	-7.812
-0.261	-0.463	-0.684	-0.447	-0.252	-0.661	0.737	0.132	0.160	0.560	0.294	-0.397	0.928	0.715	0.668	0.151	0.645	0.764	-0.041	-0.032	0.664	-0.158	-0.530	0.528	-0.372	-2.015	0.040	-1.321	-3.906
-0.391	-0.577	-0.759	-0.567	-0.388	-0.815	0.748	0.334	0.569	0.678	0.494	-0.495	0.726	0.505	0.531	0.120	0.709	0.664	-0.139	-0.082	0.468	-0.182	-0.470	0.644	-0.187	-1.692	0.159	-1.204	0.000
-0.541	-0.694	-0.814	-0.715	-0.562	-0.937	0.696	0.519	0.970	0.758	0.684	-0.525	0.461	0.198	0.361	0.047	0.750	0.519	-0.239	-0.189	0.169	-0.219	-0.403	0.754	0.070	-1.197	0.322	-0.943	3.906
-0.694	-0.805	-0.846	-0.882	-0.768	-1.028	0.580	0.675	1.332	0.794	0.847	-0.484	0.151	-0.179	0.179	-0.060	0.756	0.342	-0.332	-0.335	-0.200	-0.260	-0.329	0.847	0.389	-0.579	0.508	-0.568	7.812
-0.840	-0.905	-0.856	-1.060	-0.999	-1.093	0.410	0.793	1.632	0.787	0.970	-0.373	-0.180	-0.591	0.006	-0.189	0.718	0.145	-0.412	-0.495	-0.598	-0.299	-0.248	0.912	0.752	0.102	0.696	-0.118	11.719
-0.975	-0.993	-0.850	-1.237	-1.244	-1.144	0.201	0.872	1.855	0.740	1.052	-0.203	-0.503	-0.995	-0.138	-0.325	0.630	-0.056	-0.477	-0.644	-0.979	-0.329	-0.159	0.942	1.132	0.778	0.866	0.365	15.625
-1.092	-1.069	-0.834	-1.401	-1.483	-1.187	-0.023	0.912	1.997	0.661	1.095	0.013	-0.790	-1.345	-0.242	-0.454	0.493	-0.247	-0.527	-0.758	-1.302	-0.355	-0.067	0.931	1.500	1.385	1.004	0.839	19.531
-1.180	-1.132	-0.813	-1.538	-1.696	-1.231	-0.240	0.912	2.052	0.558	1.099	0.250	-1.013	-1.605	-0.298	-0.560	0.316	-0.414	-0.566	-0.820	-1.534	-0.379	0.023	0.876	1.825	1.871	1.099	1.265	23.438
-1.226	-1.176	-0.785	-1.635	-1.860	-1.276	-0.428	0.872	2.018	0.437	1.065	0.479	-1.153	-1.747	-0.305	-0.630	0.115	-0.544	-0.597	-0.821	-1.657	-0.408	0.105	0.778	2.075	2.194	1.146	1.609	27.344
-1.213	-1.190	-0.745	-1.679	-1.954	-1.319	-0.572	0.792	1.887	0.301	0.986	0.664	-1.203	-1.762	-0.268	-0.650	-0.086	-0.623	-0.618	-0.758	-1.662	-0.448	0.168	0.644	2.225	2.329	1.142	1.838	31.250
-1.126	-1.159	-0.677	-1.663	-1.965	-1.350	-0.666	0.668	1.654	0.152	0.856	0.772	-1.167	-1.655	-0.190	-0.612	-0.255	-0.641	-0.625	-0.637	-1.556	-0.501	0.207	0.479	2.256	2.271	1.086	1.929	35.156
-0.960	-1.071	-0.570	-1.582	-1.886	-1.359	-0.708	0.506	1.323	-0.007	0.672	0.776	-1.061	-1.448	-0.077	-0.512	-0.364	-0.596	-0.614	-0.467	-1.356	-0.566	0.215	0.292	2.166	2.032	0.979	1.868	39.062
-0.727	-0.918	-0.417	-1.441	-1.723	-1.336	-0.701	0.315	0.912	-0.166	0.444	0.668	-0.909	-1.172	0.062	-0.353	-0.390	-0.493	-0.582	-0.267	-1.090	-0.644	0.185	0.092	1.962	1.646	0.823	1.660	42.969
-0.452	-0.706	-0.222	-1.250	-1.492	-1.277	-0.650	0.117	0.464	-0.308	0.200	0.460	-0.740	-0.866	0.212	-0.153	-0.327	-0.354	-0.536	-0.061	-0.796	-0.741	0.108	-0.109	1.672	1.169	0.631	1.336	46.875
-0.176	-0.459	-0.002	-1.032	-1.222	-1.182	-0.557	-0.054	0.043	-0.405	-0.010	0.191	-0.580	-0.569	0.347	0.060	-0.194	-0.211	-0.494	0.121	-0.515	-0.867	-0.025	-0.300	1.331	0.676	0.421	0.952	50.781
0.049	-0.215	0.213	-0.816	-0.944	-1.059	-0.423	-0.159	-0.266	-0.421	-0.117	-0.079	-0.448	-0.320	0.432	0.245	-0.035	-0.109	-0.489	0.242	-0.293	-1.038	-0.223	-0.469	0.988	0.257	0.225	0.590	54.688
0.167	-0.030	0.380	-0.639	-0.697	-0.927	-0.248	-0.154	-0.370	-0.316	-0.041	-0.277	-0.351	-0.150	0.423	0.351	0.088	-0.097	-0.557	0.258	-0.177	-1.270	-0.493	-0.599	0.696	0.009	0.086	0.347	58.594
0.123	0.038	0.455	-0.541	-0.519	-0.808	-0.029	0.002	-0.178	-0.051	0.295	-0.321	-0.288	-0.082	0.272	0.328	0.099	-0.222	-0.742	0.130	-0.206	-1.578	-0.835	-0.672	0.509	0.027	0.055	0.328	62.500
-0.132	-0.068	0.390	-0.563	-0.441	-0.730	0.232	0.337	0.378	0.404	0.949	-0.143	-0.245	-0.132	-0.064	0.128	-0.071	-0.517	-1.078	-0.181	-0.412	-1.970	-1.241	-0.663	0.478	0.392	0.186	0.626	66.406
-0.629	-0.395	0.150	-0.743	-0.492	-0.726	0.534	0.863	1.336	1.063	1.952	0.308	-0.204	-0.303	-0.617	-0.287	-0.474	-0.998	-1.583	-0.698	-0.812	-2.438	-1.694	-0.549	0.643	1.161	0.531	1.310	70.312
-1.380	-0.966	-0.289	-1.106	-0.689	-0.822	0.872	1.568	2.687	1.919	3.296	1.054	-0.143	-0.588	-1.399	-0.937	-1.133	-1.658	-2.257	-1.430	-1.403	-2.962	-2.165	-0.308	1.031	2.356	1.125	2.413	74.219
-2.368	-1.779	-0.928	-1.662	-1.038	-1.041	1.235	2.421	4.375	2.945	4.929	2.083	-0.046	-0.971	-2.400	-1.819	-2.035	-2.465	-3.075	-2.365	-2.165	-3.510	-2.625	0.075	1.647	3.958	1.983	3.924	78.125
-3.554	-2.800	-1.749	-2.401	-1.532	-1.393	1.611	3.368	6.300	4.093	6.767	3.354	0.097	-1.427	-3.585	-2.904	-3.132	-3.370	-3.991	-3.467	-3.061	-4.040	-3.040	0.605	2.473	5.904	3.094	5.786	82.031
-4.874	-3.971	-2.710	-3.291	-2.149	-1.872	1.984	4.347	8.332	5.302	8.701	4.802	0.290	-1.926	-4.898	-4.140	-4.353	-4.314	-4.944	-4.683	-4.035	-4.511	-3.387	1.273	3.466	8.099	4.417	7.906	85.938
-6.252	-5.213	-3.757	-4.282	-2.851	-2.455	2.340	5.290	10.328	6.506	10.617	6.349	0.528	-2.432	-6.269	-5.458	-5.614	-5.238	-5.870	-5.943	-5.027	-4.889	-3.657	2.052	4.562	10.421	5.888	10.167	89.844
-7.607	-6.440	-4.821	-5.308	-3.593	-3.103	2.668	6.136	12.157	7.644	12.409	7.916	0.802	-2.910	-7.623	-6.774	-6.834	-6.095	-6.708	-7.171	-5.973	-5.153	-3.856	2.902	5.683	12.740	7.425	12.439	93.750
-8.865	-7.571	-5.836	-6.297	-4.323	-3.764	2.963	6.842	13.713	8.669	13.999	9.431	1.103	-3.323	-8.890	-8.007	-7.946	-6.850	-7.411	-8.293	-6.813	-5.304	-4.009	3.774	6.742	14.927	8.937	14.597	97.656
-9.962	-8.536	-6.738	-7.178	-4.986	-4.379	3.228	7.386	14.930	9.550	15.334	10.829	1.421	-3.640	-10.006	-9.085	-8.902	-7.487	-7.953	-9.242	-7.499	-5.358	-4.150	4.607	7.654	16.867	10.335	16.529	101.562
-10.855	-9.289	-7.475	-7.890	-5.531	-4.890	3.470	7.763	15.777	10.273	16.389	12.059	1.749	-3.835	-10.922	-9.950	-9.678	-7.999	-8.327	-9.967	-7.992	-5.344	-4.318	5.343	8.346	18.465	11.538	18.141	105.469
-11.518	-9.803	-8.012	-8.387	-5.916	-5.246	3.702	7.988	16.260	10.838	17.161	13.077	2.083	-3.889	-11.600	-10.565	-10.265	-8.386	-8.541	-10.438	-8.267	-5.295	-4.540	5.930	8.766	19.649	12.481	19.363	109.375
-11.943	-10.076	-8.326	-8.644	-6.113	-5.413	3.933	8.083	16.402	11.253	17.652	13.843	2.420	-3.794	-12.018	-10.913	-10.669	-8.647	-8.611	-10.641	-8.315	-5.239	-4.825	6.330	8.886	20.371	13.116	20.143	113.281
-12.134	-10.121	-8.413	-8.656	-6.106	-5.374	4.169	8.071	16.238	11.523	17.867	14.323	2.758	-3.553	-12.171	-10.998	-10.897	-8.779	-8.557	-10.583	-8.140	-5.192	-5.163	6.520	8.710	20.609	13.420	20.454	117.188
-12.102	-9.960	-8.277	-8.434	-5.899	-5.133	4.402	7.970	15.801	11.651	17.809	14.485	3.089	-3.180	-12.066	-10.836	-10.956	-8.775	-8.395	-10.287	-7.758	-5.152	-5.518	6.499	8.267	20.369	13.385	20.285	121.094
-11.859	-9.624	-7.933	-8.009	-5.509	-4.717	4.617	7.794	15.124	11.628	17.473	14.306	3.399	-2.700	-11.727	-10.458	-10.845	-8.627	-8.133	-9.790	-7.199	-5.106	-5.842	6.281	7.612	19.683	13.028	19.651	125.000
-11.420	-9.143	-7.400	-7.421	-4.970	-4.167	4.786	7.547	14.238	11.441	16.861	13.778	3.667	-2.149	-11.189	-9.902	-10.564	-8.332	-7.774	-9.138	-6.504	-5.028	-6.082	5.897	6.815	18.606	12.376	18.584	128.906
-10.800	-8.548	-6.706	-6.718	-4.327	-3.535	4.880	7.233	13.179	11.074	15.983	12.914	3.864	-1.572	-10.500	-9.209	-10.110	-7.896	-7.317	-8.380	-5.721	-4.893	-6.193	5.383	5.954	17.219	11.475	17.139	132.812
-10.019	-7.867	-5.888	-5.953	-3.637	-2.883	4.867	6.859	11.997	10.521	14.870	11.749	3.959	-1.019	-9.709	-8.425	-9.488	-7.336	-6.767	-7.569	-4.903	-4.682	-6.147	4.778	5.105	15.620	10.377	15.395	136.719
-9.108	-7.136	-4.990	-5.181	-2.960	-2.268	4.725	6.441	10.766	9.789	13.578	10.351	3.925	-0.537	-8.870	-7.595	-8.718	-6.683	-6.139	-6.756	-4.108	-4.392	-5.940	4.120	4.337	13.920	9.145	13.451	140.625
-8.115	-6.390	-4.067	-4.453	-2.353	-1.746	4.447	6.010	9.576	8.907	12.192	8.812	3.742	-0.171	-8.031	-6.769	-7.842	-5.981	-5.463	-5.985	-3.387	-4.037	-5.593	3.442	3.703	12.237	7.844	11.421	144.531
-7.103	-5.674	-3.182	-3.818	-1.869	-1.354	4.041	5.609	8.535	7.929	10.822	7.241	3.404	0.044	-7.237	-5.994	-6.920	-5.282	-4.784	-5.300	-2.789	-3.647	-5.149	2.770	3.243	10.685	6.545	9.433	148.438
-6.151	-5.035	-2.400	-3.313	-1.545	-1.116	3.535	5.288	7.752	6.926	9.587	5.759	2.922	0.086	-6.532	-5.322	-6.028	-4.643	-4.158	-4.737	-2.354	-3.267	-4.662	2.130	2.978	9.369	5.317	7.616	152.344
-5.341	-4.523	-1.781	-2.967	-1.401	-1.029	2.970	5.099	7.322	5.983	8.602	4.481	2.321	-0.054	-5.951	-4.800	-5.246	-4.114	-3.644	-4.331	-2.113	-2.944	-4.187	1.541	2.920	8.374	4.227	6.089	156.250
-4.754	-4.184	-1.369	-2.798	-1.437	-1.074	2.393	5.085	7.314	5.184	7.965	3.500	1.639	-0.372	-5.529	-4.474	-4.649	-3.737	-3.292	-4.111	-2.085	-2.724	-3.772	1.023	3.065	7.761	3.333	4.950	160.156
-4.447	-4.056	-1.192	-2.811	-1.638	-1.220	1.854	5.271	7.754	4.600	7.737	2.879	0.917	-0.851	-5.295	-4.380	-4.291	-3.534	-3.140	-4.100	-2.279	-2.637	-3.448	0.592	3.403	7.558	2.682	4.265	164.062
-4.455	-4.164	-1.252	-3.001	-1.977	-1.427	1.394	5.666	8.630	4.281	7.940	2.647	0.199	-1.468	-5.268	-4.544	-4.203	-3.505	-3.203	-4.316	-2.692	-2.698	-3.231	0.264	3.916	7.766	2.302	4.063	167.969
-4.775	-4.518	-1.528	-3.358	-2.419	-1.664	1.042	6.257	9.892	4.250	8.555	2.793	-0.480	-2.188	-5.457	-4.973	-4.385	-3.634	-3.471	-4.765	-3.308	-2.902	-3.114	0.050	4.577	8.355	2.204	4.333	171.875
-5.372	-5.109	-1.983	-3.863	-2.932	-1.905	0.814	7.012	11.457	4.502	9.527	3.276	-1.091	-2.975	-5.857	-5.656	-4.808	-3.891	-3.916	-5.439	-4.099	-3.227	-3.083	-0.046	5.353	9.271	2.378	5.028	175.781
-6.184	-5.907	-2.563	-4.491	-3.484	-2.140	0.710	7.886	13.224	5.005	10.772	4.030	-1.616	-3.790	-6.447	-6.560	-5.424	-4.242	-4.492	-6.311	-5.026	-3.639	-3.114	-0.026	6.201	10.439	2.797	6.073	179.688
-7.133	-6.863	-3.213	-5.212	-4.049	-2.369	0.723	8.825	15.083	5.711	12.192	4.980	-2.039	-4.590	-7.191	-7.626	-6.166	-4.654	-5.146	-7.334	-6.036	-4.096	-3.184	0.103	7.074	11.772	3.420	7.372	183.594
-8.133	-7.917	-3.879	-5.990	-4.607	-2.600	0.833	9.769	16.923	6.557	13.688	6.048	-2.349	-5.335	-8.042	-8.780	-6.963	-5.099	-5.820	-8.444	-7.071	-4.560	-3.276	0.328	7.920	13.176	4.197	8.822	187.500
-9.105	-8.995	-4.519	-6.784	-5.139	-2.844	1.021	10.660	18.641	7.477	15.163	7.162	-2.537	-5.989	-8.943	-9.936	-7.744	-5.557	-6.466	-9.563	-8.068	-4.997	-3.385	0.633	8.688	14.559	5.078	10.321	191.406
-9.982	-10.026	-5.106	-7.555	-5.629	-3.111	1.265	11.445	20.149	8.407	16.537	8.262	-2.591	-6.519	-9.835	-11.007	-8.449	-6.013	-7.043	-10.613	-8.966	-5.384	-3.514	1.001	9.333	15.834	6.011	11.777	195.312
-10.715	-10.946	-5.626	-8.261	-6.064	-3.404	1.546	12.079	21.375	9.292	17.748	9.300	-2.507	-6.899	-10.657	-11.916	-9.032	-6.458	-7.527	-11.518	-9.713	-5.708	-3.671	1.414	9.820	16.930	6.952	13.115	199.219
-11.277	-11.702	-6.082	-8.869	-6.428	-3.717	1.848	12.530	22.273	10.089	18.755	10.244	-2.280	-7.116	-11.353	-12.607	-9.467	-6.884	-7.904	-12.221	-10.271	-5.968	-3.867	1.855	10.126	17.792	7.861	14.280	203.125
-11.663	-12.261	-6.481	-9.351	-6.709	-4.036	2.161	12.781	22.816	10.772	19.535	11.074	-1.917	-7.165	-11.877	-13.044	-9.748	-7.284	-8.177	-12.686	-10.618	-6.168	-4.108	2.305	10.245	18.390	8.708	15.237	207.031
-11.887	-12.612	-6.838	-9.688	-6.895	-4.340	2.476	12.829	23.007	11.328	20.084	11.777	-1.431	-7.052	-12.198	-13.219	-9.888	-7.651	-8.352	-12.902	-10.749	-6.311	-4.390	2.750	10.184	18.719	9.469	15.972	210.938
-11.979	-12.763	-7.168	-9.875	-6.981	-4.607	2.787	12.684	22.869	11.758	20.414	12.352	-0.842	-6.790	-12.305	-13.152	-9.913	-7.976	-8.444	-12.884	-10.677	-6.400	-4.701	3.175	9.966	18.797	10.130	16.489	214.844
-11.972	-12.743	-7.480	-9.919	-6.967	-4.823	3.092	12.370	22.451	12.072	20.546	12.800	-0.179	-6.402	-12.211	-12.883	-9.862	-8.250	-8.465	-12.668	-10.426	-6.431	-5.016	3.571	9.628	18.663	10.683	16.804	218.750
-11.898	-12.591	-7.784	-9.841	-6.861	-4.985	3.385	11.920	21.815	12.284	20.506	13.125	0.524	-5.912	-11.949	-12.468	-9.774	-8.466	-8.427	-12.302	-10.030	-6.398	-5.307	3.931	9.215	18.372	11.128	16.944	222.656
-11.782	-12.358	-8.083	-9.670	-6.683	-5.102	3.662	11.376	21.037	12.410	20.321	13.333	1.230	-5.348	-11.569	-11.972	-9.684	-8.617	-8.337	-11.846	-9.530	-6.289	-5.540	4.254	8.777	17.984	11.470	16.941	226.562
-11.644	-12.091	-8.378	-9.443	-6.456	-5.193	3.915	10.783	20.196	12.463	20.019	13.427	1.906	-4.742	-11.130	-11.460	-9.613	-8.703	-8.198	-11.356	-8.965	-6.097	-5.689	4.541	8.359	17.559	11.717	16.827	230.469
-11.497	-11.831	-8.666	-9.196	-6.211	-5.281	4.138	10.188	19.369	12.452	19.623	13.413	2.517	-4.121	-10.688	-10.987	-9.567	-8.725	-8.012	-10.880	-8.377	-5.820	-5.734	4.794	8.002	17.146	11.878	16.629	234.375
-11.354	-11.612	-8.942	-8.966	-5.977	-5.385	4.322	9.636	18.627	12.383	19.154	13.295	3.041	-3.514	-10.291	-10.597	-9.536	-8.688	-7.781	-10.456	-7.800	-5.468	-5.669	5.017	7.731	16.780	11.962	16.372	238.281
-11.229	-11.454	-9.201	-8.778	-5.779	-5.517	4.466	9.169	18.026	12.263	18.639	13.083	3.462	-2.948	-9.975	-10.317	-9.504	-8.602	-7.514	-10.108	-7.267	-5.060	-5.499	5.215	7.559	16.486	11.981	16.073	242.188
-11.139	-11.371	-9.435	-8.651	-5.633	-5.677	4.571	8.822	17.610	12.103	18.106	12.792	3.774	-2.447	-9.761	-10.162	-9.456	-8.477	-7.226	-9.849	-6.803	-4.622	-5.246	5.389	7.488	16.273	11.943	15.748	246.094
-11.103	-11.369	-9.640	-8.593	-5.546	-5.854	4.645	8.622	17.403	11.920	17.595	12.448	3.982	-2.031	-9.660	-10.135	-9.384	-8.327	-6.939	-9.682	-6.429	-4.188	-4.939	5.543	7.509	16.146	11.864	15.415	250.000
-11.136	-11.448	-9.810	-8.602	-5.516	-6.032	4.704	8.586	17.415	11.739	17.150	12.085	4.099	-1.714	-9.673	-10.229	-9.298	-8.169	-6.682	-9.605	-6.157	-3.793	-4.615	5.675	7.607	16.103	11.756	15.095	253.906
-11.250	-11.605	-9.946	-8.671	-5.535	-6.190	4.763	8.715	17.637	11.589	16.819	11.743	4.143	-1.500	-9.800	-10.434	-9.216	-8.020	-6.487	-9.611	-5.989	-3.464	-4.307	5.787	7.762	16.142	11.639	14.813	257.812
-11.450	-11.833	-10.052	-8.788	-5.593	-6.313	4.839	8.999	18.046	11.501	16.643	11.468	4.137	-1.387	-10.030	-10.732	-9.167	-7.900	-6.379	-9.689	-5.921	-3.222	-4.048	5.880	7.954	16.255	11.530	14.597	261.719
-11.737	-12.116	-10.134	-8.940	-5.679	-6.391	4.944	9.413	18.608	11.502	16.654	11.300	4.104	-1.361	-10.351	-11.104	-9.178	-7.829	-6.374	-9.827	-5.940	-3.077	-3.858	5.955	8.163	16.433	11.446	14.469	265.625
-12.101	-12.434	-10.200	-9.111	-5.784	-6.425	5.085	9.918	19.277	11.609	16.865	11.271	4.067	-1.399	-10.745	-11.526	-9.267	-7.821	-6.479	-10.008	-6.026	-3.027	-3.751	6.014	8.365	16.655	11.401	14.449	269.531
-12.524	-12.758	-10.257	-9.289	-5.900	-6.423	5.262	10.468	20.002	11.830	17.266	11.401	4.046	-1.472	-11.190	-11.970	-9.437	-7.888	-6.684	-10.214	-6.154	-3.066	-3.730	6.061	8.538	16.898	11.406	14.543	273.438
-12.980	-13.061	-10.311	-9.460	-6.019	-6.400	5.472	11.011	20.727	12.155	17.828	11.693	4.061	-1.547	-11.661	-12.406	-9.680	-8.033	-6.967	-10.422	-6.297	-3.180	-3.787	6.101	8.661	17.131	11.467	14.749	277.344
-13.436	-13.312	-10.368	-9.614	-6.134	-6.375	5.703	11.498	21.399	12.564	18.503	12.135	4.128	-1.595	-12.134	-12.804	-9.972	-8.253	-7.299	-10.610	-6.434	-3.354	-3.914	6.138	8.719	17.326	11.585	15.052	281.250
-13.854	-13.491	-10.430	-9.742	-6.239	-6.364	5.945	11.883	21.970	13.028	19.233	12.701	4.258	-1.595	-12.587	-13.137	-10.281	-8.536	-7.643	-10.761	-6.544	-3.572	-4.093	6.178	8.701	17.460	11.759	15.431	285.156
-14.201	-13.584	-10.499	-9.838	-6.328	-6.381	6.184	12.135	22.398	13.511	19.956	13.355	4.455	-1.534	-13.000	-13.382	-10.576	-8.863	-7.962	-10.860	-6.617	-3.819	-4.312	6.226	8.605	17.518	11.985	15.861	289.062
-14.450	-13.585	-10.572	-9.896	-6.394	-6.431	6.408	12.238	22.658	13.976	20.612	14.051	4.719	-1.417	-13.359	-13.525	-10.825	-9.213	-8.227	-10.900	-6.649	-4.078	-4.557	6.285	8.440	17.500	12.256	16.312	292.969
-14.586	-13.499	-10.648	-9.912	-6.429	-6.507	6.606	12.193	22.732	14.390	21.148	14.739	5.038	-1.256	-13.651	-13.560	-11.004	-9.556	-8.413	-10.879	-6.643	-4.335	-4.814	6.357	8.222	17.412	12.558	16.753	296.875
-14.607	-13.336	-10.723	-9.879	-6.427	-6.593	6.768	12.020	22.620	14.721	21.523	15.365	5.390	-1.074	-13.865	-13.487	-11.095	-9.866	-8.508	-10.802	-6.605	-4.573	-5.073	6.443	7.970	17.265	12.873	17.146	300.781
-14.522	-13.107	-10.790	-9.791	-6.382	-6.665	6.884	11.749	22.332	14.943	21.702	15.874	5.746	-0.897	-13.991	-13.312	-11.086	-10.112	-8.505	-10.673	-6.546	-4.775	-5.316	6.539	7.706	17.069	13.173	17.453	304.688
-14.347	-12.821	-10.842	-9.640	-6.290	-6.697	6.945	11.418	21.888	15.030	21.665	16.214	6.069	-0.753	-14.019	-13.040	-10.967	-10.265	-8.404	-10.494	-6.473	-4.920	-5.524	6.638	7.454	16.830	13.426	17.630	308.594
-14.103	-12.486	-10.868	-9.419	-6.150	-6.667	6.941	11.066	21.315	14.961	21.399	16.340	6.320	-0.661	-13.939	-12.679	-10.729	-10.300	-8.207	-10.267	-6.393	-4.990	-5.675	6.730	7.232	16.549	13.594	17.639	312.500
-13.806	-12.102	-10.855	-9.125	-5.968	-6.561	6.863	10.726	20.643	14.721	20.903	16.217	6.462	-0.635	-13.744	-12.234	-10.365	-10.201	-7.916	-9.993	-6.310	-4.969	-5.744	6.800	7.054	16.224	13.642	17.446	316.406
-13.470	-11.670	-10.789	-8.760	-5.751	-6.370	6.705	10.422	19.909	14.304	20.189	15.826	6.466	-0.681	-13.434	-11.713	-9.872	-9.960	-7.538	-9.673	-6.225	-4.846	-5.711	6.834	6.929	15.849	13.540	17.033	320.312
-13.103	-11.190	-10.658	-8.333	-5.507	-6.100	6.469	10.171	19.148	13.715	19.281	15.169	6.317	-0.793	-13.016	-11.129	-9.257	-9.587	-7.083	-9.313	-6.141	-4.622	-5.560	6.817	6.860	15.423	13.272	16.399	324.219
-12.706	-10.666	-10.449	-7.861	-5.245	-5.759	6.163	9.979	18.396	12.977	18.223	14.272	6.021	-0.960	-12.507	-10.498	-8.540	-9.108	-6.567	-8.925	-6.058	-4.308	-5.292	6.739	6.842	14.945	12.839	15.564	328.125
-12.285	-10.108	-10.157	-7.364	-4.973	-5.362	5.808	9.848	17.685	12.129	17.069	13.184	5.596	-1.164	-11.935	-9.847	-7.762	-8.562	-6.014	-8.528	-5.976	-3.928	-4.918	6.595	6.868	14.422	12.257	14.569	332.031
-11.844	-9.534	-9.783	-6.866	-4.695	-4.926	5.429	9.773	17.045	11.224	15.886	11.976	5.081	-1.382	-11.335	-9.207	-6.973	-7.996	-5.453	-8.145	-5.898	-3.512	-4.462	6.392	6.924	13.862	11.562	13.468	335.938
-11.400	-8.967	-9.338	-6.390	-4.415	-4.463	5.057	9.746	16.496	10.326	14.747	10.736	4.522	-1.592	-10.746	-8.615	-6.233	-7.458	-4.918	-7.802	-5.825	-3.095	-3.959	6.143	6.994	13.278	10.802	12.330	339.844
-10.974	-8.434	-8.846	-5.957	-4.131	-3.987	4.724	9.760	16.049	9.499	13.725	9.559	3.972	-1.772	-10.209	-8.106	-5.602	-6.992	-4.444	-7.524	-5.758	-2.711	-3.449	5.870	7.060	12.685	10.032	11.226	343.750
-10.593	-7.965	-8.339	-5.584	-3.846	-3.509	4.458	9.803	15.708	8.803	12.884	8.538	3.481	-1.903	-9.765	-7.713	-5.126	-6.631	-4.061	-7.327	-5.697	-2.387	-2.970	5.601	7.105	12.100	9.310	10.229	347.656
-10.284	-7.585	-7.856	-5.281	-3.563	-3.039	4.280	9.865	15.470	8.284	12.274	7.756	3.091	-1.972	-9.448	-7.460	-4.838	-6.395	-3.793	-7.224	-5.640	-2.141	-2.559	5.361	7.115	11.541	8.691	9.405	351.562
-10.073	-7.317	-7.438	-5.056	-3.288	-2.591	4.203	9.937	15.329	7.973	11.927	7.273	2.833	-1.974	-9.281	-7.359	-4.753	-6.293	-3.655	-7.215	-5.584	-1.985	-2.241	5.176	7.081	11.031	8.219	8.808	355.469
-9.980	-7.176	-7.121	-4.911	-3.029	-2.181	4.233	10.013	15.274	7.882	11.853	7.118	2.725	-1.909	-9.277	-7.408	-4.867	-6.323	-3.652	-7.290	-5.523	-1.918	-2.038	5.064	7.001	10.598	7.928	8.478	359.375
-10.016	-7.169	-6.933	-4.845	-2.798	-1.825	4.363	10.089	15.298	8.001	12.038	7.289	2.768	-1.784	-9.428	-7.591	-5.158	-6.476	-3.779	-7.432	-5.455	-1.934	-1.959	5.035	6.886	10.268	7.833	8.431	363.281
-10.179	-7.291	-6.890	-4.853	-2.605	-1.544	4.583	10.163	15.392	8.307	12.449	7.744	2.952	-1.610	-9.713	-7.881	-5.595	-6.736	-4.021	-7.617	-5.378	-2.021	-2.003	5.088	6.753	10.068	7.933	8.659	367.188
-10.459	-7.532	-6.995	-4.930	-2.459	-1.351	4.874	10.237	15.544	8.763	13.033	8.416	3.252	-1.403	-10.100	-8.244	-6.132	-7.083	-4.355	-7.819	-5.291	-2.164	-2.158	5.218	6.629	10.018	8.208	9.126	371.094
-10.830	-7.869	-7.238	-5.066	-2.366	-1.255	5.214	10.311	15.743	9.323	13.726	9.213	3.635	-1.180	-10.543	-8.643	-6.718	-7.488	-4.752	-8.017	-5.199	-2.343	-2.401	5.408	6.541	10.124	8.622	9.775	375.000
-11.260	-8.275	-7.595	-5.247	-2.324	-1.256	5.578	10.385	15.970	9.938	14.455	10.039	4.062	-0.961	-11.000	-9.045	-7.302	-7.921	-5.176	-8.193	-5.109	-2.537	-2.696	5.640	6.510	10.377	9.128	10.529	378.906
-11.710	-8.715	-8.030	-5.458	-2.330	-1.344	5.939	10.457	16.200	10.560	15.149	10.802	4.495	-0.762	-11.431	-9.421	-7.837	-8.348	-5.591	-8.334	-5.027	-2.724	-3.000	5.893	6.550	10.752	9.676	11.304	382.812
-12.140	-9.152	-8.500	-5.678	-2.373	-1.500	6.272	10.520	16.405	11.143	15.743	11.431	4.899	-0.598	-11.803	-9.754	-8.288	-8.732	-5.963	-8.436	-4.960	-2.885	-3.268	6.143	6.657	11.205	10.214	12.018	386.719
-12.509	-9.548	-8.953	-5.884	-2.439	-1.694	6.556	10.569	16.557	11.649	16.182	11.876	5.246	-0.479	-12.096	-10.031	-8.631	-9.043	-6.265	-8.498	-4.911	-3.001	-3.460	6.373	6.816	11.684	10.694	12.597	390.625
-12.783	-9.867	-9.340	-6.050	-2.509	-1.892	6.773	10.597	16.629	12.045	16.428	12.112	5.517	-0.408	-12.296	-10.247	-8.859	-9.254	-6.476	-8.521	-4.879	-3.059	-3.549	6.565	7.001	12.128	11.077	12.984	394.531
-12.933	-10.076	-9.616	-6.150	-2.562	-2.057	6.910	10.601	16.599	12.304	16.453	12.135	5.698	-0.383	-12.397	-10.397	-8.973	-9.346	-6.584	-8.503	-4.855	-3.049	-3.520	6.705	7.175	12.473	11.328	13.134	398.438
-12.940	-10.148	-9.747	-6.161	-2.575	-2.153	6.959	10.580	16.454	12.407	16.246	11.948	5.781	-0.393	-12.394	-10.474	-8.981	-9.307	-6.585	-8.437	-4.821	-2.966	-3.377	6.780	7.304	12.661	11.420	13.020	402.344
-12.794	-10.069	-9.712	-6.064	-2.528	-2.151	6.919	10.534	16.193	12.338	15.810	11.563	5.760	-0.424	-12.281	-10.467	-8.893	-9.138	-6.480	-8.314	-4.758	-2.812	-3.135	6.779	7.356	12.646	11.331	12.632	406.250
-12.492	-9.834	-9.508	-5.851	-2.404	-2.035	6.795	10.473	15.824	12.093	15.157	10.993	5.632	-0.464	-12.055	-10.364	-8.719	-8.846	-6.276	-8.120	-4.645	-2.595	-2.826	6.691	7.312	12.397	11.045	11.975	410.156
-12.042	-9.457	-9.147	-5.525	-2.197	-1.799	6.594	10.408	15.371	11.673	14.318	10.254	5.394	-0.502	-11.718	-10.155	-8.466	-8.448	-5.982	-7.847	-4.467	-2.326	-2.481	6.507	7.164	11.908	10.558	11.070	414.062
-11.463	-8.963	-8.657	-5.101	-1.911	-1.456	6.327	10.352	14.866	11.094	13.333	9.364	5.047	-0.533	-11.276	-9.836	-8.142	-7.967	-5.612	-7.489	-4.218	-2.022	-2.133	6.224	6.920	11.196	9.876	9.953	417.969
-10.782	-8.391	-8.075	-4.609	-1.561	-1.031	6.007	10.321	14.345	10.378	12.251	8.346	4.596	-0.558	-10.740	-9.412	-7.751	-7.429	-5.180	-7.056	-3.901	-1.700	-1.807	5.843	6.597	10.298	9.016	8.672	421.875
-10.033	-7.784	-7.445	-4.086	-1.174	-0.563	5.647	10.324	13.845	9.560	11.123	7.230	4.056	-0.584	-10.128	-8.899	-7.298	-6.858	-4.701	-6.564	-3.533	-1.376	-1.517	5.374	6.222	9.268	8.011	7.284	425.781
-9.255	-7.185	-6.811	-3.571	-0.783	-0.096	5.258	10.360	13.388	8.679	9.998	6.054	3.448	-0.616	-9.461	-8.325	-6.793	-6.276	-4.190	-6.039	-3.134	-1.063	-1.265	4.838	5.826	8.168	6.906	5.852	429.688
-8.487	-6.630	-6.215	-3.103	-0.419	0.327	4.855	10.417	12.982	7.775	8.916	4.860	2.806	-0.660	-8.761	-7.719	-6.247	-5.701	-3.661	-5.511	-2.727	-0.767	-1.046	4.262	5.435	7.060	5.757	4.440	433.594
-7.764	-6.146	-5.692	-2.709	-0.112	0.666	4.449	10.465	12.615	6.888	7.905	3.695	2.169	-0.713	-8.052	-7.114	-5.678	-5.143	-3.128	-5.007	-2.334	-0.490	-0.848	3.682	5.073	6.003	4.625	3.111	437.500
-7.114	-5.746	-5.266	-2.408	0.121	0.898	4.056	10.467	12.259	6.054	6.987	2.611	1.583	-0.767	-7.356	-6.541	-5.109	-4.614	-2.608	-4.549	-1.972	-0.229	-0.661	3.139	4.760	5.050	3.580	1.924	441.406
-6.560	-5.431	-4.951	-2.202	0.270	1.010	3.689	10.377	11.876	5.306	6.175	1.660	1.092	-0.810	-6.703	-6.026	-4.571	-4.122	-2.119	-4.154	-1.651	0.018	-0.481	2.670	4.506	4.247	2.687	0.938	445.312
-6.116	-5.199	-4.752	-2.086	0.339	1.002	3.365	10.154	11.426	4.671	5.480	0.894	0.733	-0.826	-6.122	-5.589	-4.095	-3.680	-1.678	-3.830	-1.375	0.252	-0.307	2.309	4.318	3.635	2.006	0.208	449.219
-5.790	-5.040	-4.662	-2.045	0.339	0.885	3.097	9.766	10.880	4.171	4.916	0.361	0.534	-0.804	-5.644	-5.247	-3.714	-3.301	-1.305	-3.576	-1.145	0.470	-0.148	2.080	4.196	3.244	1.587	-0.223	453.125
-5.580	-4.948	-4.666	-2.062	0.287	0.679	2.896	9.199	10.221	3.818	4.494	0.098	0.503	-0.736	-5.295	-5.007	-3.451	-3.002	-1.017	-3.392	-0.960	0.667	-0.015	1.994	4.135	3.088	1.455	-0.323	457.031
-5.476	-4.916	-4.744	-2.120	0.200	0.410	2.767	8.460	9.450	3.616	4.224	0.124	0.634	-0.624	-5.092	-4.873	-3.317	-2.799	-0.822	-3.269	-0.817	0.834	0.081	2.047	4.127	3.162	1.612	-0.087	460.938
-5.462	-4.940	-4.872	-2.204	0.098	0.104	2.707	7.577	8.583	3.559	4.107	0.433	0.904	-0.475	-5.037	-4.836	-3.304	-2.700	-0.720	-3.199	-0.711	0.964	0.128	2.219	4.158	3.434	2.032	0.460	464.844
-5.517	-5.012	-5.026	-2.298	0.001	-0.208	2.709	6.597	7.649	3.627	4.135	0.991	1.280	-0.300	-5.115	-4.881	-3.390	-2.708	-0.700	-3.170	-0.634	1.051	0.117	2.478	4.213	3.850	2.658	1.259	468.750
-5.619	-5.120	-5.186	-2.391	-0.076	-0.499	2.762	5.576	6.686	3.794	4.285	1.737	1.722	-0.110	-5.298	-4.980	-3.535	-2.812	-0.741	-3.164	-0.573	1.097	0.049	2.786	4.273	4.337	3.413	2.220	472.656
-5.747	-5.251	-5.337	-2.470	-0.116	-0.744	2.852	4.575	5.737	4.026	4.522	2.590	2.192	0.088	-5.545	-5.102	-3.695	-2.993	-0.813	-3.159	-0.513	1.113	-0.066	3.101	4.321	4.816	4.211	3.232	476.562
-5.886	-5.386	-5.469	-2.521	-0.106	-0.923	2.964	3.653	4.848	4.288	4.802	3.458	2.656	0.289	-5.813	-5.211	-3.827	-3.224	-0.885	-3.131	-0.431	1.113	-0.210	3.387	4.339	5.210	4.962	4.180	480.469
-6.021	-5.507	-5.580	-2.535	-0.041	-1.026	3.085	2.854	4.058	4.543	5.079	4.249	3.086	0.495	-6.055	-5.275	-3.901	-3.472	-0.928	-3.055	-0.308	1.118	-0.353	3.617	4.313	5.462	5.592	4.958	484.375
-6.141	-5.597	-5.673	-2.502	0.080	-1.051	3.199	2.208	3.400	4.758	5.307	4.886	3.459	0.704	-6.234	-5.266	-3.897	-3.706	-0.920	-2.909	-0.129	1.145	-0.464	3.778	4.235	5.538	6.047	5.489	488.281
-6.234	-5.641	-5.754	-2.421	0.246	-1.006	3.294	1.730	2.898	4.902	5.447	5.312	3.754	0.916	-6.322	-5.166	-3.811	-3.897	-0.849	-2.680	0.114	1.212	-0.512	3.868	4.105	5.435	6.300	5.731	492.188
-6.291	-5.633	-5.828	-2.294	0.442	-0.910	3.355	1.413	2.562	4.953	5.475	5.498	3.957	1.123	-6.308	-4.966	-3.653	-4.024	-0.712	-2.365	0.417	1.327	-0.475	3.895	3.932	5.175	6.346	5.683	496.094
-6.303	-5.570	-5.901	-2.129	0.645	-0.782	3.368	1.243	2.392	4.895	5.382	5.444	4.052	1.314	-6.193	-4.673	-3.439	-4.074	-0.518	-1.972	0.764	1.489	-0.345	3.874	3.733	4.802	6.205	5.383	500.000
-6.267	-5.456	-5.976	-1.938	0.834	-0.643	3.323	1.197	2.378	4.726	5.172	5.176	4.032	1.472	-5.994	-4.301	-3.188	-4.046	-0.279	-1.522	1.135	1.692	-0.127	3.821	3.528	4.368	5.909	4.891	503.906
-6.186	-5.303	-6.055	-1.736	0.993	-0.510	3.217	1.253	2.502	4.450	4.868	4.741	3.893	1.582	-5.738	-3.877	-2.920	-3.949	-0.014	-1.044	1.503	1.922	0.159	3.748	3.339	3.928	5.497	4.282	507.812
-6.066	-5.123	-6.132	-1.536	1.112	-0.394	3.050	1.387	2.740	4.085	4.497	4.194	3.641	1.629	-5.454	-3.432	-2.649	-3.799	0.259	-0.568	1.841	2.156	0.483	3.662	3.187	3.523	5.007	3.629	511.719
-5.916	-4.931	-6.199	-1.351	1.191	-0.297	2.831	1.583	3.062	3.654	4.092	3.590	3.289	1.609	-5.168	-2.998	-2.387	-3.618	0.524	-0.128	2.127	2.375	0.815	3.560	3.083	3.182	4.471	2.989	515.625
-5.746	-4.737	-6.239	-1.187	1.238	-0.216	2.573	1.820	3.435	3.184	3.679	2.977	2.859	1.526	-4.899	-2.604	-2.140	-3.425	0.769	0.254	2.346	2.554	1.121	3.438	3.034	2.911	3.913	2.398	519.531
-5.561	-4.548	-6.237	-1.046	1.264	-0.144	2.293	2.081	3.824	2.702	3.279	2.385	2.382	1.393	-4.654	-2.272	-1.910	-3.238	0.984	0.561	2.495	2.677	1.378	3.286	3.038	2.704	3.347	1.869	523.438
-5.363	-4.366	-6.173	-0.925	1.284	-0.073	2.008	2.345	4.189	2.235	2.903	1.829	1.892	1.232	-4.435	-2.016	-1.700	-3.069	1.163	0.787	2.578	2.731	1.570	3.094	3.085	2.540	2.784	1.396	527.344
-5.149	-4.186	-6.034	-0.821	1.308	0.002	1.737	2.587	4.497	1.803	2.553	1.310	1.424	1.070	-4.233	-1.836	-1.512	-2.925	1.301	0.937	2.608	2.711	1.690	2.859	3.164	2.401	2.235	0.964	531.250
-4.917	-4.007	-5.817	-0.728	1.341	0.082	1.495	2.786	4.721	1.425	2.228	0.821	1.011	0.932	-4.041	-1.728	-1.353	-2.810	1.393	1.019	2.603	2.623	1.742	2.587	3.257	2.270	1.713	0.559	535.156
-4.665	-3.825	-5.526	-0.646	1.380	0.162	1.296	2.924	4.846	1.118	1.929	0.357	0.682	0.838	-3.851	-1.682	-1.235	-2.728	1.432	1.043	2.578	2.478	1.735	2.292	3.352	2.143	1.239	0.176	539.062
-4.398	-3.644	-5.181	-0.576	1.420	0.235	1.155	2.989	4.874	0.894	1.663	-0.079	0.459	0.801	-3.669	-1.688	-1.170	-2.684	1.412	1.014	2.545	2.296	1.680	2.001	3.435	2.024	0.840	-0.176	542.969
-4.127	-3.473	-4.812	-0.523	1.451	0.291	1.081	2.983	4.822	0.766	1.444	-0.473	0.356	0.822	-3.508	-1.740	-1.172	-2.682	1.327	0.937	2.506	2.098	1.591	1.745	3.497	1.929	0.548	-0.471	546.875
-3.872	-3.323	-4.453	-0.495	1.463	0.322	1.084	2.914	4.716	0.746	1.293	-0.797	0.379	0.893	-3.388	-1.831	-1.250	-2.729	1.175	0.809	2.458	1.907	1.479	1.560	3.533	1.874	0.396	-0.675	550.781
-3.658	-3.211	-4.142	-0.499	1.450	0.321	1.169	2.797	4.590	0.842	1.234	-1.013	0.528	1.002	-3.338	-1.960	-1.412	-2.829	0.960	0.628	2.393	1.744	1.353	1.477	3.542	1.877	0.411	-0.750	554.688
-3.516	-3.149	-3.906	-0.540	1.408	0.285	1.336	2.649	4.472	1.058	1.290	-1.078	0.794	1.135	-3.383	-2.126	-1.656	-2.984	0.692	0.392	2.304	1.624	1.221	1.521	3.526	1.947	0.609	-0.662	558.594
-3.470	-3.145	-3.763	-0.619	1.338	0.217	1.579	2.488	4.379	1.389	1.472	-0.954	1.165	1.284	-3.541	-2.326	-1.976	-3.188	0.391	0.105	2.185	1.555	1.087	1.697	3.492	2.084	0.989	-0.391	562.500
-3.537	-3.202	-3.716	-0.734	1.245	0.121	1.885	2.324	4.317	1.822	1.775	-0.618	1.622	1.442	-3.815	-2.554	-2.356	-3.430	0.080	-0.219	2.040	1.539	0.951	1.999	3.447	2.276	1.534	0.062	566.406
-3.719	-3.313	-3.753	-0.875	1.139	0.010	2.235	2.167	4.276	2.332	2.180	-0.069	2.143	1.612	-4.193	-2.802	-2.776	-3.694	-0.215	-0.562	1.882	1.569	0.814	2.400	3.395	2.503	2.203	0.671	570.312
-4.001	-3.462	-3.851	-1.027	1.034	-0.100	2.604	2.022	4.240	2.885	2.650	0.668	2.700	1.796	-4.644	-3.055	-3.210	-3.958	-0.471	-0.895	1.731	1.634	0.676	2.860	3.342	2.735	2.944	1.388	574.219
-4.354	-3.629	-3.981	-1.171	0.947	-0.191	2.969	1.896	4.185	3.438	3.133	1.538	3.263	1.999	-5.123	-3.295	-3.629	-4.203	-0.667	-1.189	1.612	1.722	0.539	3.333	3.286	2.935	3.690	2.140	578.125
-4.735	-3.785	-4.111	-1.287	0.895	-0.240	3.303	1.791	4.093	3.942	3.575	2.463	3.797	2.225	-5.580	-3.499	-4.002	-4.407	-0.787	-1.414	1.549	1.819	0.411	3.769	3.223	3.067	4.373	2.844	582.031
-5.097	-3.905	-4.215	-1.353	0.892	-0.231	3.587	1.712	3.949	4.353	3.918	3.352	4.269	2.469	-5.960	-3.647	-4.298	-4.553	-0.821	-1.543	1.562	1.920	0.302	4.121	3.148	3.098	4.927	3.417	585.938
-5.395	-3.966	-4.274	-1.353	0.948	-0.152	3.802	1.665	3.749	4.631	4.114	4.113	4.641	2.722	-6.217	-3.715	-4.488	-4.623	-0.761	-1.559	1.664	2.019	0.227	4.357	3.056	3.002	5.299	3.781	589.844
-5.590	-3.949	-4.281	-1.279	1.066	-0.001	3.937	1.651	3.494	4.748	4.131	4.663	4.884	2.968	-6.319	-3.689	-4.551	-4.607	-0.610	-1.458	1.854	2.119	0.198	4.454	2.947	2.767	5.452	3.884	593.750
-5.659	-3.847	-4.236	-1.126	1.241	0.214	3.985	1.671	3.199	4.692	3.954	4.945	4.975	3.189	-6.250	-3.561	-4.481	-4.497	-0.376	-1.244	2.122	2.223	0.225	4.407	2.824	2.393	5.374	3.703	597.656
-5.589	-3.663	-4.144	-0.903	1.460	0.476	3.946	1.722	2.881	4.469	3.589	4.933	4.904	3.366	-6.013	-3.334	-4.284	-4.298	-0.074	-0.935	2.447	2.334	0.307	4.226	2.693	1.901	5.074	3.247	601.562
-5.388	-3.409	-4.019	-0.622	1.707	0.765	3.823	1.800	2.565	4.098	3.067	4.633	4.677	3.484	-5.630	-3.021	-3.986	-4.020	0.273	-0.558	2.802	2.452	0.438	3.931	2.562	1.324	4.581	2.562	605.469
-5.072	-3.103	-3.872	-0.305	1.957	1.053	3.627	1.898	2.275	3.614	2.434	4.085	4.315	3.534	-5.137	-2.647	-3.627	-3.688	0.637	-0.146	3.156	2.572	0.603	3.556	2.442	0.710	3.945	1.716	609.375
-4.666	-2.771	-3.717	0.024	2.185	1.315	3.369	2.006	2.035	3.061	1.750	3.353	3.852	3.517	-4.580	-2.241	-3.251	-3.330	0.985	0.265	3.478	2.685	0.783	3.137	2.340	0.113	3.230	0.800	613.281
-4.204	-2.440	-3.563	0.336	2.366	1.525	3.064	2.114	1.862	2.484	1.080	2.519	3.328	3.436	-4.010	-1.837	-2.907	-2.977	1.291	0.640	3.741	2.781	0.959	2.715	2.264	-0.415	2.504	-0.094	617.188
-3.720	-2.132	-3.420	0.606	2.481	1.667	2.731	2.211	1.766	1.928	0.481	1.664	2.790	3.304	-3.472	-1.465	-2.629	-2.658	1.528	0.949	3.924	2.846	1.116	2.328	2.220	-0.827	1.831	-0.884	621.094
-3.249	-1.868	-3.291	0.818	2.516	1.730	2.385	2.287	1.748	1.427	-0.002	0.863	2.281	3.133	-3.004	-1.149	-2.441	-2.394	1.685	1.174	4.015	2.873	1.243	2.009	2.211	-1.096	1.265	-1.508	625.000
-2.821	-1.659	-3.181	0.958	2.469	1.711	2.045	2.335	1.802	1.007	-0.345	0.168	1.836	2.940	-2.632	-0.903	-2.345	-2.192	1.758	1.305	4.012	2.860	1.339	1.783	2.236	-1.214	0.843	-1.935	628.906
-2.464	-1.508	-3.089	1.027	2.348	1.619	1.726	2.349	1.911	0.680	-0.545	-0.390	1.481	2.743	-2.366	-0.732	-2.329	-2.051	1.759	1.345	3.924	2.812	1.412	1.664	2.292	-1.196	0.581	-2.167	632.812
-2.194	-1.413	-3.019	1.030	2.169	1.466	1.442	2.325	2.055	0.449	-0.619	-0.805	1.233	2.557	-2.202	-0.629	-2.368	-1.958	1.710	1.306	3.771	2.742	1.472	1.658	2.371	-1.074	0.474	-2.235	636.719
-2.020	-1.371	-2.971	0.978	1.950	1.268	1.203	2.263	2.210	0.306	-0.598	-1.088	1.097	2.396	-2.123	-0.586	-2.435	-1.894	1.637	1.208	3.576	2.671	1.536	1.760	2.465	-0.890	0.505	-2.189	640.625
-1.938	-1.377	-2.951	0.883	1.713	1.039	1.018	2.163	2.351	0.240	-0.516	-1.258	1.071	2.271	-2.102	-0.587	-2.504	-1.839	1.564	1.069	3.362	2.615	1.616	1.957	2.563	-0.683	0.646	-2.082	644.531
-1.940	-1.427	-2.963	0.755	1.472	0.788	0.890	2.027	2.458	0.238	-0.408	-1.334	1.144	2.183	-2.111	-0.623	-2.562	-1.779	1.511	0.905	3.147	2.589	1.724	2.232	2.660	-0.482	0.871	-1.955	648.438
-2.008	-1.523	-3.013	0.599	1.236	0.521	0.817	1.860	2.511	0.289	-0.298	-1.331	1.301	2.128	-2.123	-0.687	-2.605	-1.702	1.485	0.723	2.941	2.600	1.865	2.561	2.756	-0.297	1.158	-1.831	652.344
-2.124	-1.664	-3.103	0.415	1.006	0.240	0.793	1.664	2.498	0.380	-0.199	-1.253	1.519	2.096	-2.119	-0.774	-2.641	-1.607	1.482	0.524	2.743	2.643	2.038	2.922	2.857	-0.120	1.494	-1.708	656.250
-2.266	-1.851	-3.229	0.204	0.780	-0.050	0.808	1.446	2.411	0.501	-0.118	-1.100	1.774	2.072	-2.092	-0.886	-2.684	-1.499	1.487	0.305	2.547	2.709	2.239	3.292	2.976	0.073	1.872	-1.562	660.156
-2.412	-2.074	-3.382	-0.034	0.551	-0.346	0.848	1.207	2.246	0.641	-0.056	-0.872	2.040	2.041	-2.045	-1.021	-2.747	-1.384	1.487	0.060	2.344	2.782	2.457	3.649	3.126	0.305	2.287	-1.363	664.062
-2.541	-2.318	-3.542	-0.290	0.318	-0.638	0.896	0.949	1.998	0.785	-0.014	-0.575	2.293	1.993	-1.990	-1.175	-2.842	-1.272	1.466	-0.209	2.131	2.849	2.678	3.975	3.316	0.596	2.732	-1.087	667.969
-2.630	-2.553	-3.682	-0.546	0.085	-0.911	0.934	0.673	1.667	0.913	-0.001	-0.226	2.510	1.922	-1.936	-1.337	-2.967	-1.166	1.418	-0.492	1.910	2.900	2.891	4.253	3.546	0.942	3.191	-0.728	671.875
-2.659	-2.739	-3.773	-0.773	-0.135	-1.142	0.949	0.381	1.250	1.004	-0.033	0.145	2.674	1.832	-1.893	-1.487	-3.114	-1.066	1.349	-0.768	1.696	2.933	3.084	4.471	3.798	1.318	3.633	-0.306	675.781
-2.611	-2.834	-3.786	-0.937	-0.320	-1.306	0.930	0.076	0.751	1.032	-0.130	0.496	2.776	1.736	-1.860	-1.603	-3.266	-0.968	1.270	-1.003	1.515	2.955	3.252	4.617	4.045	1.670	4.019	0.128	679.688
-2.472	-2.801	-3.701	-1.003	-0.443	-1.380	0.875	-0.232	0.180	0.979	-0.313	0.779	2.815	1.654	-1.829	-1.657	-3.395	-0.866	1.201	-1.161	1.396	2.976	3.392	4.685	4.243	1.929	4.301	0.502	683.594
-2.241	-2.618	-3.512	-0.944	-0.477	-1.345	0.788	-0.531	-0.447	0.835	-0.597	0.949	2.797	1.607	-1.782	-1.626	-3.473	-0.752	1.164	-1.204	1.374	3.013	3.508	4.669	4.350	2.023	4.434	0.736	687.500
-1.924	-2.284	-3.229	-0.748	-0.402	-1.195	0.680	-0.803	-1.102	0.598	-0.985	0.966	2.733	1.617	-1.700	-1.496	-3.470	-0.620	1.180	-1.104	1.474	3.080	3.609	4.570	4.330	1.891	4.376	0.752	691.406
-1.537	-1.819	-2.877	-0.420	-0.211	-0.935	0.564	-1.028	-1.751	0.280	-1.468	0.806	2.633	1.698	-1.560	-1.261	-3.363	-0.467	1.263	-0.849	1.710	3.190	3.707	4.390	4.164	1.497	4.104	0.491	695.312
-1.101	-1.263	-2.485	0.019	0.088	-0.585	0.452	-1.189	-2.353	-0.100	-2.024	0.456	2.505	1.851	-1.349	-0.928	-3.138	-0.295	1.420	-0.446	2.078	3.346	3.817	4.136	3.856	0.839	3.610	-0.077	699.219
-0.637	-0.663	-2.084	0.536	0.473	-0.171	0.350	-1.270	-2.873	-0.518	-2.622	-0.083	2.350	2.067	-1.061	-0.510	-2.800	-0.108	1.649	0.081	2.557	3.547	3.951	3.816	3.434	-0.051	2.909	-0.949	703.125
-0.161	-0.070	-1.698	1.089	0.907	0.270	0.258	-1.264	-3.280	-0.952	-3.231	-0.793	2.160	2.322	-0.702	-0.032	-2.366	0.085	1.937	0.689	3.108	3.780	4.115	3.439	2.949	-1.109	2.035	-2.087	707.031
0.314	0.474	-1.339	1.634	1.346	0.703	0.169	-1.172	-3.556	-1.379	-3.817	-1.644	1.930	2.584	-0.294	0.477	-1.871	0.273	2.261	1.328	3.681	4.024	4.306	3.017	2.461	-2.245	1.040	-3.415	710.938
0.778	0.935	-1.017	2.129	1.744	1.092	0.074	-1.006	-3.695	-1.780	-4.351	-2.589	1.654	2.817	0.132	0.984	-1.362	0.446	2.592	1.941	4.223	4.253	4.510	2.567	2.034	-3.356	-0.008	-4.831	714.844
1.215	1.288	-0.735	2.535	2.060	1.406	-0.033	-0.782	-3.703	-2.138	-4.809	-3.566	1.338	2.990	0.536	1.453	-0.891	0.592	2.893	2.477	4.685	4.438	4.704	2.112	1.722	-4.337	-1.028	-6.210	718.750
1.602	1.522	-0.502	2.824	2.262	1.622	-0.154	-0.522	-3.595	-2.434	-5.171	-4.502	0.999	3.079	0.874	1.845	-0.505	0.701	3.131	2.891	5.028	4.555	4.861	1.683	1.563	-5.094	-1.936	-7.423	722.656
1.908	1.630	-0.333	2.975	2.331	1.723	-0.283	-0.251	-3.393	-2.653	-5.419	-5.318	0.666	3.078	1.109	2.129	-0.244	0.764	3.280	3.156	5.225	4.586	4.959	1.316	1.571	-5.557	-2.652	-8.353	726.562
2.100	1.612	-0.248	2.979	2.265	1.704	-0.409	0.005	-3.124	-2.782	-5.545	-5.942	0.378	2.992	1.214	2.280	-0.129	0.774	3.326	3.261	5.273	4.527	4.986	1.045	1.742	-5.687	-3.108	-8.911	730.469
2.149	1.475	-0.268	2.840	2.072	1.568	-0.516	0.218	-2.819	-2.813	-5.546	-6.318	0.173	2.842	1.176	2.286	-0.160	0.728	3.271	3.215	5.184	4.388	4.943	0.903	2.048	-5.486	-3.260	-9.048	734.375
2.041	1.231	-0.409	2.574	1.775	1.325	-0.593	0.360	-2.511	-2.749	-5.432	-6.415	0.087	2.659	0.997	2.153	-0.319	0.628	3.132	3.045	4.989	4.190	4.849	0.911	2.449	-4.989	-3.091	-8.765	738.281
1.783	0.896	-0.677	2.205	1.404	0.994	-0.634	0.404	-2.236	-2.601	-5.221	-6.231	0.142	2.476	0.697	1.902	-0.569	0.478	2.939	2.792	4.733	3.966	4.731	1.075	2.898	-4.265	-2.618	-8.108	742.188
1.400	0.494	-1.062	1.769	0.991	0.597	-0.639	0.329	-2.029	-2.390	-4.944	-5.795	0.342	2.328	0.309	1.570	-0.864	0.290	2.729	2.504	4.463	3.752	4.622	1.389	3.346	-3.401	-1.885	-7.160	746.094
0.933	0.052	-1.544	1.302	0.572	0.158	-0.617	0.126	-1.923	-2.143	-4.635	-5.160	0.673	2.240	-0.128	1.199	-1.149	0.080	2.540	2.226	4.225	3.585	4.552	1.828	3.752	-2.491	-0.959	-6.027	750.000
0.425	-0.401	-2.089	0.844	0.177	-0.297	-0.581	-0.204	-1.936	-1.889	-4.329	-4.391	1.107	2.224	-0.573	0.838	-1.377	-0.136	2.403	1.998	4.053	3.491	4.542	2.357	4.083	-1.622	0.076	-4.820	753.906
-0.085	-0.837	-2.657	0.429	-0.170	-0.743	-0.543	-0.638	-2.073	-1.653	-4.056	-3.562	1.597	2.282	-0.988	0.527	-1.509	-0.337	2.339	1.845	3.964	3.486	4.600	2.932	4.322	-0.862	1.132	-3.642	757.812
-0.565	-1.232	-3.208	0.081	-0.453	-1.158	-0.514	-1.140	-2.321	-1.451	-3.833	-2.737	2.096	2.400	-1.340	0.293	-1.525	-0.508	2.353	1.775	3.960	3.567	4.716	3.504	4.461	-0.255	2.128	-2.576	761.719
-0.999	-1.564	-3.700	-0.184	-0.662	-1.522	-0.497	-1.658	-2.646	-1.295	-3.664	-1.967	2.555	2.557	-1.610	0.147	-1.426	-0.637	2.433	1.780	4.022	3.715	4.868	4.026	4.506	0.181	2.991	-1.679	765.625
-1.377	-1.821	-4.099	-0.360	-0.794	-1.820	-0.486	-2.136	-2.999	-1.181	-3.540	-1.288	2.933	2.727	-1.787	0.083	-1.240	-0.719	2.555	1.837	4.125	3.899	5.024	4.456	4.466	0.451	3.669	-0.984	769.531
-1.700	-1.992	-4.377	-0.453	-0.851	-2.043	-0.467	-2.517	-3.328	-1.103	-3.440	-0.716	3.202	2.889	-1.873	0.084	-1.006	-0.758	2.684	1.920	4.238	4.080	5.146	4.763	4.356	0.576	4.132	-0.502	773.438
-1.970	-2.072	-4.516	-0.472	-0.837	-2.186	-0.420	-2.760	-3.580	-1.051	-3.341	-0.251	3.351	3.025	-1.880	0.124	-0.774	-0.767	2.787	2.000	4.333	4.221	5.200	4.927	4.186	0.581	4.370	-0.224	777.344
-2.196	-2.060	-4.510	-0.430	-0.760	-2.253	-0.329	-2.841	-3.721	-1.011	-3.217	0.119	3.382	3.129	-1.826	0.177	-0.586	-0.760	2.836	2.058	4.391	4.294	5.163	4.946	3.967	0.496	4.397	-0.131	781.250
-2.386	-1.962	-4.368	-0.343	-0.629	-2.253	-0.184	-2.763	-3.734	-0.975	-3.052	0.414	3.313	3.200	-1.732	0.225	-0.470	-0.752	2.817	2.081	4.406	4.286	5.026	4.833	3.709	0.346	4.242	-0.188	785.156
-2.555	-1.790	-4.112	-0.228	-0.459	-2.204	0.017	-2.549	-3.627	-0.936	-2.839	0.662	3.169	3.243	-1.616	0.254	-0.434	-0.756	2.732	2.068	4.377	4.201	4.798	4.614	3.419	0.156	3.954	-0.355	789.062
-2.717	-1.568	-3.779	-0.099	-0.264	-2.126	0.265	-2.241	-3.430	-0.889	-2.583	0.893	2.983	3.269	-1.496	0.260	-0.469	-0.774	2.592	2.025	4.316	4.054	4.500	4.329	3.108	-0.050	3.589	-0.582	792.969
-2.885	-1.327	-3.417	0.028	-0.062	-2.041	0.541	-1.891	-3.185	-0.834	-2.297	1.131	2.786	3.287	-1.382	0.245	-0.548	-0.807	2.421	1.962	4.234	3.873	4.166	4.020	2.791	-0.249	3.207	-0.817	796.875
