FP1	F3	F7	FC3	C3	C5	P3	P7	PO7	PO3	O1	Oz	Pz	CPz	FP2	Fz	F4	F8	FC4	FCz	Cz	C4	C6	P4	P8	PO8	PO4	O2	time
0.933	0.872	-0.176	-0.318	-0.012	0.463	-0.355	-0.742	-0.768	-0.981	-1.206	-0.976	-0.032	0.747	-0.544	0.085	0.710	1.242	0.701	0.288	1.079	1.113	-0.291	0.141	-0.529	-0.611	-0.351	-0.674	-199.219
0.603	0.613	-0.064	-0.435	0.029	0.463	-0.251	-0.686	-0.672	-0.812	-0.940	-0.877	0.108	0.801	-0.847	-0.189	0.350	0.784	0.706	0.141	1.127	0.981	0.008	0.399	-0.298	-0.224	0.090	-0.388	-195.312
0.295	0.371	0.027	-0.537	0.067	0.460	-0.161	-0.650	-0.602	-0.667	-0.704	-0.784	0.231	0.847	-1.091	-0.433	0.034	0.377	0.710	0.005	1.169	0.861	0.284	0.636	-0.077	0.132	0.492	-0.130	-191.406
0.030	0.161	0.084	-0.608	0.100	0.452	-0.095	-0.649	-0.579	-0.562	-0.528	-0.709	0.324	0.879	-1.230	-0.619	-0.200	0.061	0.714	-0.103	1.199	0.762	0.519	0.830	0.121	0.428	0.822	0.075	-187.500
-0.174	-0.003	0.100	-0.640	0.126	0.438	-0.053	-0.681	-0.607	-0.506	-0.426	-0.656	0.380	0.893	-1.240	-0.726	-0.333	-0.143	0.715	-0.175	1.215	0.689	0.696	0.966	0.278	0.640	1.053	0.208	-183.594
-0.312	-0.110	0.077	-0.627	0.148	0.421	-0.029	-0.736	-0.674	-0.492	-0.399	-0.627	0.401	0.885	-1.123	-0.748	-0.367	-0.234	0.705	-0.203	1.217	0.643	0.804	1.034	0.379	0.751	1.171	0.260	-179.688
-0.384	-0.158	0.024	-0.569	0.171	0.405	-0.011	-0.788	-0.756	-0.504	-0.432	-0.619	0.393	0.858	-0.903	-0.689	-0.317	-0.232	0.674	-0.186	1.203	0.615	0.830	1.032	0.413	0.759	1.175	0.230	-175.781
-0.397	-0.145	-0.042	-0.472	0.201	0.398	0.016	-0.812	-0.824	-0.522	-0.499	-0.624	0.365	0.814	-0.625	-0.561	-0.215	-0.168	0.614	-0.128	1.176	0.594	0.770	0.964	0.375	0.666	1.074	0.131	-171.875
-0.363	-0.080	-0.100	-0.343	0.243	0.411	0.063	-0.784	-0.851	-0.526	-0.571	-0.631	0.327	0.757	-0.340	-0.383	-0.089	-0.076	0.521	-0.034	1.136	0.565	0.625	0.839	0.268	0.485	0.887	-0.020	-167.969
-0.294	0.029	-0.129	-0.190	0.299	0.450	0.132	-0.693	-0.823	-0.504	-0.620	-0.630	0.285	0.690	-0.093	-0.173	0.034	0.012	0.396	0.090	1.083	0.516	0.407	0.666	0.106	0.234	0.637	-0.200	-164.062
-0.201	0.170	-0.110	-0.021	0.369	0.523	0.219	-0.545	-0.738	-0.454	-0.627	-0.614	0.239	0.613	0.086	0.051	0.139	0.074	0.249	0.236	1.015	0.437	0.137	0.457	-0.094	-0.067	0.348	-0.387	-160.156
-0.093	0.329	-0.034	0.154	0.450	0.628	0.309	-0.356	-0.609	-0.382	-0.585	-0.579	0.185	0.528	0.188	0.274	0.222	0.100	0.093	0.395	0.932	0.324	-0.152	0.225	-0.310	-0.399	0.045	-0.561	-156.250
0.020	0.496	0.096	0.330	0.535	0.761	0.387	-0.154	-0.455	-0.304	-0.500	-0.529	0.117	0.431	0.225	0.482	0.286	0.092	-0.057	0.557	0.834	0.179	-0.429	-0.019	-0.520	-0.742	-0.254	-0.708	-152.344
0.132	0.657	0.268	0.498	0.614	0.910	0.437	0.034	-0.298	-0.232	-0.383	-0.465	0.027	0.321	0.222	0.663	0.336	0.060	-0.189	0.709	0.722	0.012	-0.660	-0.262	-0.705	-1.075	-0.531	-0.818	-148.438
0.234	0.800	0.457	0.649	0.679	1.061	0.450	0.186	-0.156	-0.178	-0.249	-0.391	-0.089	0.198	0.206	0.803	0.377	0.018	-0.297	0.833	0.595	-0.160	-0.819	-0.486	-0.852	-1.378	-0.774	-0.888	-144.531
0.320	0.911	0.633	0.773	0.719	1.195	0.422	0.292	-0.037	-0.147	-0.111	-0.309	-0.227	0.063	0.200	0.886	0.407	-0.021	-0.381	0.914	0.457	-0.319	-0.891	-0.678	-0.950	-1.632	-0.970	-0.917	-140.625
0.381	0.979	0.767	0.857	0.725	1.294	0.360	0.353	0.058	-0.135	0.019	-0.219	-0.378	-0.079	0.213	0.901	0.421	-0.047	-0.443	0.935	0.310	-0.445	-0.869	-0.820	-0.995	-1.815	-1.110	-0.905	-136.719
0.413	0.989	0.834	0.889	0.688	1.341	0.274	0.379	0.134	-0.136	0.137	-0.118	-0.527	-0.224	0.242	0.838	0.411	-0.058	-0.487	0.886	0.155	-0.522	-0.758	-0.897	-0.988	-1.910	-1.183	-0.853	-132.812
0.413	0.935	0.819	0.858	0.604	1.323	0.177	0.383	0.200	-0.140	0.241	-0.003	-0.655	-0.364	0.271	0.697	0.367	-0.060	-0.518	0.765	-0.003	-0.538	-0.568	-0.898	-0.931	-1.902	-1.180	-0.764	-128.906
0.381	0.814	0.719	0.760	0.472	1.233	0.080	0.380	0.263	-0.137	0.329	0.126	-0.742	-0.493	0.280	0.489	0.286	-0.059	-0.536	0.579	-0.163	-0.490	-0.321	-0.819	-0.829	-1.783	-1.098	-0.639	-125.000
0.320	0.635	0.546	0.598	0.298	1.070	-0.007	0.375	0.324	-0.121	0.402	0.265	-0.776	-0.604	0.254	0.237	0.167	-0.066	-0.541	0.346	-0.320	-0.384	-0.040	-0.662	-0.689	-1.556	-0.936	-0.485	-121.094
0.238	0.413	0.319	0.386	0.095	0.843	-0.080	0.370	0.383	-0.089	0.457	0.406	-0.752	-0.693	0.186	-0.031	0.017	-0.085	-0.529	0.093	-0.467	-0.236	0.244	-0.441	-0.517	-1.234	-0.703	-0.312	-117.188
0.145	0.172	0.064	0.150	-0.119	0.570	-0.138	0.358	0.434	-0.041	0.488	0.533	-0.677	-0.755	0.080	-0.278	-0.153	-0.119	-0.501	-0.150	-0.597	-0.067	0.504	-0.180	-0.322	-0.843	-0.419	-0.133	-113.281
0.052	-0.058	-0.190	-0.083	-0.323	0.272	-0.184	0.331	0.470	0.016	0.489	0.630	-0.564	-0.786	-0.046	-0.472	-0.324	-0.168	-0.455	-0.350	-0.699	0.101	0.716	0.090	-0.112	-0.418	-0.112	0.032	-109.375
-0.031	-0.251	-0.423	-0.285	-0.498	-0.024	-0.223	0.281	0.482	0.078	0.453	0.677	-0.431	-0.784	-0.168	-0.587	-0.477	-0.228	-0.392	-0.481	-0.759	0.247	0.862	0.336	0.103	0.003	0.184	0.168	-105.469
-0.095	-0.390	-0.620	-0.433	-0.627	-0.296	-0.261	0.203	0.467	0.133	0.375	0.661	-0.294	-0.745	-0.259	-0.609	-0.593	-0.296	-0.315	-0.523	-0.767	0.358	0.933	0.529	0.313	0.382	0.438	0.260	-101.562
-0.137	-0.468	-0.777	-0.519	-0.703	-0.527	-0.301	0.098	0.420	0.174	0.254	0.579	-0.165	-0.669	-0.297	-0.538	-0.656	-0.366	-0.227	-0.469	-0.715	0.430	0.933	0.648	0.506	0.693	0.625	0.302	-97.656
-0.157	-0.490	-0.899	-0.545	-0.725	-0.709	-0.350	-0.028	0.342	0.191	0.094	0.434	-0.051	-0.554	-0.270	-0.388	-0.655	-0.433	-0.132	-0.330	-0.603	0.466	0.869	0.689	0.671	0.919	0.732	0.299	-93.750
-0.159	-0.472	-0.991	-0.521	-0.701	-0.843	-0.407	-0.164	0.235	0.179	-0.094	0.243	0.049	-0.406	-0.174	-0.183	-0.589	-0.490	-0.038	-0.124	-0.439	0.477	0.758	0.656	0.799	1.062	0.759	0.261	-89.844
-0.146	-0.434	-1.061	-0.462	-0.642	-0.932	-0.473	-0.299	0.102	0.133	-0.295	0.031	0.139	-0.233	-0.019	0.048	-0.463	-0.530	0.049	0.117	-0.244	0.471	0.616	0.567	0.883	1.134	0.717	0.207	-85.938
-0.124	-0.394	-1.111	-0.383	-0.559	-0.987	-0.543	-0.422	-0.051	0.056	-0.489	-0.175	0.221	-0.048	0.176	0.277	-0.291	-0.545	0.123	0.357	-0.041	0.457	0.463	0.443	0.915	1.153	0.624	0.156	-82.031
-0.099	-0.365	-1.142	-0.295	-0.465	-1.013	-0.608	-0.520	-0.216	-0.044	-0.657	-0.347	0.299	0.133	0.389	0.482	-0.090	-0.533	0.178	0.564	0.140	0.437	0.314	0.305	0.893	1.138	0.497	0.122	-78.125
-0.074	-0.350	-1.152	-0.203	-0.368	-1.015	-0.655	-0.587	-0.378	-0.153	-0.779	-0.462	0.375	0.292	0.596	0.646	0.115	-0.493	0.214	0.712	0.277	0.407	0.178	0.169	0.816	1.103	0.354	0.114	-74.219
-0.052	-0.348	-1.135	-0.112	-0.272	-0.996	-0.671	-0.614	-0.520	-0.251	-0.837	-0.508	0.449	0.416	0.775	0.762	0.305	-0.431	0.231	0.786	0.354	0.359	0.063	0.044	0.688	1.050	0.204	0.130	-70.312
-0.038	-0.357	-1.088	-0.021	-0.181	-0.955	-0.643	-0.597	-0.621	-0.318	-0.819	-0.479	0.521	0.493	0.909	0.826	0.458	-0.358	0.234	0.781	0.367	0.286	-0.032	-0.069	0.517	0.977	0.053	0.164	-66.406
-0.036	-0.373	-1.004	0.065	-0.095	-0.893	-0.562	-0.534	-0.661	-0.332	-0.720	-0.381	0.590	0.519	0.987	0.836	0.559	-0.288	0.224	0.704	0.320	0.183	-0.110	-0.172	0.315	0.875	-0.095	0.207	-62.500
-0.047	-0.396	-0.880	0.145	-0.017	-0.812	-0.425	-0.424	-0.623	-0.279	-0.543	-0.226	0.652	0.494	1.005	0.796	0.596	-0.232	0.204	0.567	0.226	0.051	-0.179	-0.270	0.102	0.740	-0.235	0.247	-58.594
-0.073	-0.426	-0.710	0.212	0.052	-0.717	-0.241	-0.270	-0.497	-0.155	-0.298	-0.031	0.699	0.421	0.960	0.706	0.566	-0.200	0.173	0.386	0.098	-0.103	-0.242	-0.366	-0.099	0.574	-0.364	0.280	-54.688
-0.113	-0.465	-0.498	0.262	0.108	-0.615	-0.026	-0.077	-0.288	0.034	-0.006	0.184	0.721	0.306	0.857	0.571	0.471	-0.189	0.126	0.178	-0.049	-0.269	-0.304	-0.461	-0.265	0.385	-0.474	0.301	-50.781
-0.160	-0.511	-0.248	0.290	0.149	-0.517	0.199	0.142	-0.014	0.269	0.306	0.399	0.705	0.158	0.704	0.396	0.326	-0.192	0.063	-0.042	-0.209	-0.432	-0.366	-0.550	-0.373	0.193	-0.558	0.314	-46.875
-0.207	-0.560	0.025	0.293	0.168	-0.433	0.405	0.372	0.294	0.521	0.609	0.597	0.640	-0.014	0.517	0.193	0.153	-0.190	-0.013	-0.262	-0.376	-0.581	-0.425	-0.628	-0.409	0.019	-0.606	0.324	-42.969
-0.244	-0.603	0.301	0.273	0.163	-0.372	0.569	0.591	0.597	0.757	0.873	0.762	0.520	-0.199	0.314	-0.024	-0.021	-0.164	-0.096	-0.472	-0.552	-0.704	-0.476	-0.686	-0.368	-0.116	-0.612	0.337	-39.062
-0.262	-0.631	0.558	0.232	0.131	-0.339	0.669	0.777	0.855	0.944	1.074	0.883	0.343	-0.383	0.119	-0.237	-0.169	-0.094	-0.173	-0.663	-0.736	-0.796	-0.517	-0.715	-0.258	-0.195	-0.573	0.359	-35.156
-0.255	-0.631	0.774	0.176	0.071	-0.336	0.695	0.910	1.032	1.058	1.194	0.953	0.123	-0.552	-0.050	-0.426	-0.270	0.028	-0.234	-0.825	-0.924	-0.856	-0.544	-0.706	-0.098	-0.210	-0.490	0.394	-31.250
-0.221	-0.590	0.932	0.112	-0.011	-0.359	0.649	0.980	1.109	1.085	1.228	0.968	-0.122	-0.693	-0.178	-0.574	-0.313	0.202	-0.269	-0.954	-1.108	-0.887	-0.559	-0.657	0.085	-0.160	-0.366	0.443	-27.344
-0.162	-0.503	1.026	0.050	-0.107	-0.399	0.541	0.981	1.082	1.026	1.179	0.930	-0.361	-0.790	-0.259	-0.669	-0.299	0.415	-0.273	-1.043	-1.273	-0.894	-0.564	-0.567	0.259	-0.052	-0.210	0.503	-23.438
-0.088	-0.369	1.060	-0.001	-0.204	-0.448	0.393	0.922	0.966	0.896	1.059	0.843	-0.562	-0.833	-0.297	-0.710	-0.242	0.646	-0.250	-1.091	-1.398	-0.884	-0.567	-0.443	0.400	0.100	-0.032	0.566	-19.531
-0.009	-0.194	1.048	-0.034	-0.288	-0.496	0.230	0.816	0.786	0.719	0.887	0.713	-0.697	-0.812	-0.302	-0.705	-0.161	0.868	-0.211	-1.099	-1.461	-0.862	-0.570	-0.292	0.486	0.280	0.154	0.621	-15.625
0.063	0.005	1.009	-0.044	-0.347	-0.538	0.074	0.682	0.578	0.524	0.687	0.547	-0.744	-0.725	-0.289	-0.667	-0.076	1.056	-0.171	-1.071	-1.448	-0.832	-0.579	-0.131	0.512	0.469	0.331	0.658	-11.719
0.118	0.210	0.964	-0.031	-0.373	-0.574	-0.054	0.540	0.374	0.338	0.480	0.354	-0.698	-0.576	-0.269	-0.618	-0.007	1.190	-0.146	-1.014	-1.352	-0.794	-0.594	0.027	0.482	0.646	0.481	0.663	-7.812
0.150	0.402	0.932	0.003	-0.363	-0.606	-0.144	0.408	0.203	0.182	0.287	0.144	-0.568	-0.378	-0.251	-0.573	0.031	1.266	-0.149	-0.939	-1.182	-0.750	-0.611	0.163	0.415	0.792	0.584	0.626	-3.906
0.159	0.565	0.925	0.051	-0.322	-0.637	-0.197	0.300	0.080	0.067	0.126	-0.072	-0.381	-0.152	-0.233	-0.545	0.032	1.290	-0.185	-0.856	-0.960	-0.697	-0.627	0.261	0.336	0.892	0.625	0.543	0.000
0.151	0.687	0.947	0.106	-0.261	-0.670	-0.220	0.222	0.012	-0.005	0.007	-0.283	-0.176	0.072	-0.212	-0.538	-0.002	1.281	-0.251	-0.777	-0.721	-0.636	-0.631	0.310	0.273	0.935	0.591	0.419	3.906
0.132	0.764	0.997	0.157	-0.192	-0.706	-0.229	0.176	-0.005	-0.045	-0.063	-0.473	0.005	0.260	-0.180	-0.550	-0.063	1.265	-0.335	-0.714	-0.503	-0.569	-0.613	0.300	0.250	0.921	0.482	0.267	7.812
0.114	0.794	1.066	0.197	-0.129	-0.742	-0.240	0.162	0.017	-0.067	-0.083	-0.627	0.121	0.379	-0.129	-0.573	-0.139	1.267	-0.418	-0.674	-0.343	-0.501	-0.565	0.230	0.283	0.858	0.306	0.109	11.719
0.105	0.779	1.140	0.221	-0.084	-0.774	-0.268	0.176	0.063	-0.087	-0.057	-0.729	0.143	0.404	-0.056	-0.600	-0.214	1.306	-0.480	-0.666	-0.270	-0.438	-0.482	0.103	0.372	0.762	0.083	-0.026	15.625
0.110	0.725	1.207	0.225	-0.062	-0.793	-0.320	0.215	0.123	-0.117	0.007	-0.765	0.057	0.319	0.037	-0.622	-0.277	1.385	-0.505	-0.690	-0.297	-0.391	-0.367	-0.071	0.507	0.655	-0.159	-0.111	19.531
0.131	0.640	1.256	0.213	-0.064	-0.794	-0.394	0.277	0.188	-0.157	0.100	-0.726	-0.131	0.126	0.146	-0.635	-0.321	1.498	-0.488	-0.744	-0.422	-0.373	-0.234	-0.276	0.662	0.558	-0.391	-0.124	23.438
0.165	0.534	1.281	0.190	-0.081	-0.768	-0.479	0.367	0.260	-0.200	0.214	-0.613	-0.402	-0.156	0.265	-0.640	-0.346	1.625	-0.435	-0.821	-0.628	-0.395	-0.106	-0.496	0.805	0.487	-0.583	-0.056	27.344
0.203	0.423	1.281	0.166	-0.100	-0.710	-0.556	0.489	0.346	-0.230	0.340	-0.439	-0.719	-0.495	0.382	-0.638	-0.364	1.739	-0.366	-0.906	-0.882	-0.466	-0.016	-0.717	0.902	0.451	-0.715	0.086	31.250
0.239	0.324	1.264	0.153	-0.104	-0.616	-0.602	0.650	0.457	-0.225	0.469	-0.234	-1.040	-0.847	0.490	-0.630	-0.387	1.812	-0.304	-0.985	-1.144	-0.591	0.005	-0.924	0.923	0.445	-0.776	0.279	35.156
0.265	0.253	1.239	0.162	-0.075	-0.487	-0.595	0.854	0.606	-0.167	0.596	-0.041	-1.324	-1.169	0.579	-0.618	-0.431	1.821	-0.274	-1.038	-1.374	-0.766	-0.070	-1.109	0.847	0.458	-0.766	0.486	39.062
0.276	0.226	1.219	0.204	-0.003	-0.325	-0.522	1.102	0.799	-0.043	0.714	0.091	-1.532	-1.420	0.638	-0.601	-0.505	1.751	-0.290	-1.049	-1.536	-0.977	-0.252	-1.266	0.667	0.473	-0.694	0.663	42.969
0.271	0.248	1.213	0.285	0.117	-0.140	-0.378	1.382	1.039	0.147	0.819	0.111	-1.642	-1.574	0.658	-0.577	-0.609	1.597	-0.350	-1.007	-1.608	-1.206	-0.536	-1.391	0.390	0.472	-0.574	0.770	46.875
0.252	0.319	1.226	0.401	0.277	0.052	-0.170	1.677	1.316	0.395	0.912	-0.012	-1.644	-1.620	0.633	-0.546	-0.736	1.366	-0.442	-0.910	-1.582	-1.429	-0.897	-1.482	0.040	0.446	-0.424	0.776	50.781
0.225	0.428	1.256	0.538	0.457	0.231	0.082	1.961	1.620	0.681	1.003	-0.284	-1.544	-1.569	0.558	-0.514	-0.876	1.073	-0.543	-0.770	-1.471	-1.626	-1.294	-1.537	-0.344	0.394	-0.254	0.672	54.688
0.190	0.553	1.292	0.674	0.629	0.374	0.354	2.211	1.932	0.985	1.108	-0.675	-1.366	-1.444	0.434	-0.490	-1.018	0.740	-0.631	-0.615	-1.308	-1.780	-1.681	-1.554	-0.715	0.332	-0.071	0.477	58.594
0.148	0.667	1.321	0.775	0.760	0.459	0.618	2.405	2.240	1.288	1.254	-1.121	-1.139	-1.285	0.266	-0.496	-1.157	0.392	-0.693	-0.482	-1.136	-1.884	-2.010	-1.530	-1.023	0.285	0.125	0.232	62.500
0.093	0.739	1.325	0.808	0.819	0.468	0.850	2.535	2.534	1.578	1.470	-1.534	-0.899	-1.130	0.063	-0.557	-1.297	0.053	-0.728	-0.417	-1.004	-1.942	-2.246	-1.465	-1.221	0.285	0.337	-0.004	66.406
0.018	0.743	1.293	0.742	0.783	0.394	1.033	2.608	2.815	1.848	1.784	-1.822	-0.681	-1.016	-0.162	-0.697	-1.449	-0.257	-0.750	-0.458	-0.957	-1.966	-2.371	-1.360	-1.276	0.362	0.568	-0.170	70.312
-0.086	0.657	1.218	0.557	0.642	0.243	1.162	2.644	3.089	2.103	2.208	-1.911	-0.508	-0.963	-0.396	-0.932	-1.623	-0.522	-0.779	-0.630	-1.022	-1.971	-2.382	-1.225	-1.176	0.531	0.814	-0.217	74.219
-0.222	0.475	1.103	0.252	0.405	0.031	1.244	2.678	3.372	2.348	2.737	-1.765	-0.393	-0.977	-0.628	-1.264	-1.827	-0.736	-0.835	-0.936	-1.205	-1.969	-2.292	-1.072	-0.932	0.785	1.058	-0.128	78.125
-0.391	0.207	0.957	-0.156	0.099	-0.211	1.296	2.745	3.679	2.592	3.340	-1.394	-0.332	-1.040	-0.847	-1.674	-2.061	-0.899	-0.928	-1.353	-1.484	-1.968	-2.129	-0.919	-0.582	1.093	1.275	0.076	82.031
-0.588	-0.124	0.791	-0.633	-0.235	-0.449	1.345	2.877	4.022	2.843	3.968	-0.852	-0.305	-1.120	-1.048	-2.129	-2.310	-1.017	-1.058	-1.834	-1.813	-1.968	-1.923	-0.783	-0.184	1.400	1.432	0.341	85.938
-0.802	-0.481	0.621	-1.132	-0.549	-0.646	1.417	3.091	4.407	3.104	4.558	-0.223	-0.282	-1.177	-1.225	-2.583	-2.554	-1.105	-1.211	-2.319	-2.133	-1.962	-1.706	-0.682	0.194	1.641	1.499	0.586	89.844
-1.020	-0.821	0.459	-1.600	-0.793	-0.769	1.535	3.386	4.825	3.376	5.045	0.399	-0.228	-1.167	-1.378	-2.989	-2.767	-1.176	-1.366	-2.747	-2.380	-1.936	-1.504	-0.622	0.484	1.750	1.455	0.725	93.750
-1.229	-1.103	0.315	-1.986	-0.927	-0.795	1.714	3.737	5.255	3.652	5.375	0.929	-0.111	-1.056	-1.510	-3.306	-2.922	-1.245	-1.498	-3.067	-2.502	-1.878	-1.333	-0.602	0.634	1.675	1.299	0.684	97.656
-1.417	-1.293	0.198	-2.253	-0.929	-0.718	1.953	4.102	5.661	3.925	5.513	1.308	0.094	-0.825	-1.621	-3.506	-3.000	-1.318	-1.587	-3.244	-2.465	-1.776	-1.196	-0.612	0.614	1.389	1.045	0.420	101.562
-1.572	-1.368	0.112	-2.379	-0.796	-0.544	2.241	4.426	6.001	4.183	5.448	1.510	0.396	-0.473	-1.717	-3.580	-2.994	-1.394	-1.621	-3.267	-2.259	-1.625	-1.088	-0.631	0.417	0.889	0.724	-0.076	105.469
-1.686	-1.324	0.056	-2.359	-0.541	-0.294	2.558	4.652	6.227	4.416	5.194	1.543	0.794	-0.016	-1.796	-3.529	-2.905	-1.465	-1.595	-3.143	-1.896	-1.423	-0.994	-0.641	0.061	0.202	0.371	-0.774	109.375
-1.753	-1.169	0.029	-2.206	-0.193	0.002	2.879	4.732	6.300	4.617	4.787	1.441	1.269	0.517	-1.859	-3.367	-2.741	-1.516	-1.512	-2.892	-1.406	-1.176	-0.899	-0.627	-0.423	-0.632	0.021	-1.613	113.281
-1.768	-0.922	0.028	-1.943	0.210	0.312	3.178	4.630	6.192	4.781	4.275	1.253	1.794	1.089	-1.897	-3.111	-2.517	-1.530	-1.379	-2.537	-0.829	-0.892	-0.789	-0.583	-0.997	-1.563	-0.301	-2.517	117.188
-1.729	-0.605	0.050	-1.597	0.632	0.603	3.431	4.333	5.893	4.903	3.711	1.035	2.334	1.661	-1.904	-2.775	-2.247	-1.489	-1.203	-2.103	-0.207	-0.582	-0.653	-0.516	-1.626	-2.547	-0.589	-3.405	121.094
-1.631	-0.239	0.099	-1.191	1.042	0.855	3.618	3.845	5.410	4.980	3.145	0.840	2.849	2.194	-1.868	-2.373	-1.944	-1.382	-0.991	-1.607	0.418	-0.259	-0.491	-0.448	-2.285	-3.550	-0.850	-4.205	125.000
-1.471	0.161	0.183	-0.745	1.416	1.054	3.722	3.194	4.766	5.002	2.616	0.707	3.300	2.654	-1.783	-1.913	-1.612	-1.200	-0.744	-1.066	1.013	0.065	-0.311	-0.408	-2.956	-4.551	-1.106	-4.863	128.906
-1.246	0.590	0.316	-0.272	1.742	1.203	3.730	2.423	3.995	4.958	2.151	0.662	3.646	3.013	-1.646	-1.403	-1.254	-0.942	-0.464	-0.492	1.550	0.379	-0.125	-0.427	-3.633	-5.536	-1.384	-5.342	132.812
-0.958	1.042	0.510	0.216	2.013	1.309	3.634	1.585	3.139	4.832	1.760	0.715	3.854	3.247	-1.461	-0.852	-0.871	-0.614	-0.157	0.099	2.006	0.670	0.054	-0.532	-4.310	-6.497	-1.706	-5.629	136.719
-0.609	1.513	0.775	0.703	2.227	1.388	3.430	0.741	2.243	4.610	1.442	0.859	3.899	3.341	-1.235	-0.276	-0.464	-0.227	0.173	0.685	2.366	0.930	0.215	-0.739	-4.975	-7.423	-2.085	-5.726	140.625
-0.211	1.993	1.110	1.169	2.383	1.456	3.123	-0.047	1.352	4.281	1.189	1.075	3.768	3.289	-0.980	0.304	-0.039	0.200	0.512	1.237	2.620	1.146	0.353	-1.050	-5.612	-8.297	-2.520	-5.650	144.531
0.217	2.464	1.501	1.588	2.481	1.524	2.730	-0.725	0.509	3.850	0.991	1.339	3.465	3.093	-0.707	0.859	0.393	0.650	0.842	1.724	2.764	1.312	0.469	-1.450	-6.197	-9.091	-2.988	-5.424	148.438
0.651	2.899	1.923	1.929	2.522	1.594	2.276	-1.247	-0.247	3.333	0.842	1.626	3.007	2.765	-0.431	1.356	0.816	1.100	1.142	2.113	2.797	1.417	0.563	-1.910	-6.703	-9.775	-3.455	-5.075	152.344
1.062	3.269	2.339	2.166	2.505	1.664	1.797	-1.585	-0.877	2.767	0.743	1.918	2.429	2.326	-0.167	1.763	1.208	1.531	1.388	2.379	2.724	1.456	0.633	-2.392	-7.106	-10.316	-3.875	-4.628	156.250
1.418	3.543	2.710	2.281	2.433	1.721	1.333	-1.724	-1.350	2.198	0.704	2.207	1.778	1.810	0.068	2.052	1.545	1.923	1.561	2.508	2.555	1.423	0.673	-2.854	-7.391	-10.683	-4.201	-4.107	160.156
1.692	3.694	2.998	2.267	2.311	1.753	0.925	-1.670	-1.639	1.683	0.740	2.495	1.112	1.255	0.253	2.201	1.806	2.259	1.647	2.497	2.308	1.317	0.673	-3.257	-7.554	-10.857	-4.390	-3.532	164.062
1.862	3.704	3.173	2.131	2.147	1.747	0.605	-1.445	-1.729	1.274	0.864	2.789	0.490	0.708	0.368	2.201	1.971	2.524	1.639	2.360	2.003	1.143	0.623	-3.566	-7.597	-10.831	-4.415	-2.921	167.969
1.912	3.565	3.215	1.891	1.953	1.691	0.396	-1.088	-1.621	1.010	1.081	3.102	-0.033	0.214	0.395	2.052	2.031	2.704	1.542	2.117	1.669	0.914	0.517	-3.757	-7.534	-10.612	-4.264	-2.291	171.875
1.842	3.283	3.116	1.574	1.738	1.581	0.301	-0.651	-1.331	0.913	1.384	3.437	-0.409	-0.183	0.325	1.770	1.985	2.790	1.371	1.796	1.337	0.650	0.359	-3.817	-7.381	-10.222	-3.942	-1.661	175.781
1.661	2.874	2.881	1.208	1.513	1.415	0.312	-0.189	-0.896	0.979	1.754	3.794	-0.605	-0.449	0.159	1.379	1.845	2.780	1.149	1.430	1.038	0.376	0.160	-3.746	-7.155	-9.693	-3.475	-1.048	179.688
1.392	2.370	2.524	0.819	1.285	1.198	0.407	0.245	-0.370	1.183	2.155	4.159	-0.608	-0.564	-0.091	0.911	1.631	2.680	0.900	1.045	0.798	0.119	-0.059	-3.557	-6.873	-9.063	-2.900	-0.470	183.594
1.065	1.809	2.071	0.432	1.062	0.942	0.555	0.603	0.182	1.480	2.545	4.510	-0.425	-0.524	-0.400	0.408	1.370	2.506	0.653	0.669	0.635	-0.097	-0.270	-3.273	-6.553	-8.375	-2.264	0.055	187.500
0.717	1.237	1.554	0.061	0.848	0.663	0.728	0.857	0.696	1.821	2.885	4.818	-0.081	-0.342	-0.738	-0.091	1.090	2.282	0.431	0.320	0.556	-0.254	-0.451	-2.924	-6.213	-7.671	-1.616	0.511	191.406
0.385	0.693	1.011	-0.283	0.650	0.381	0.898	0.991	1.112	2.154	3.141	5.057	0.383	-0.042	-1.070	-0.547	0.818	2.037	0.256	0.012	0.555	-0.345	-0.582	-2.544	-5.870	-6.990	-1.002	0.886	195.312
0.098	0.213	0.482	-0.596	0.472	0.118	1.049	1.008	1.393	2.440	3.295	5.206	0.913	0.342	-1.368	-0.930	0.576	1.804	0.139	-0.248	0.618	-0.374	-0.653	-2.164	-5.541	-6.362	-0.455	1.173	199.219
-0.126	-0.182	0.002	-0.877	0.318	-0.103	1.170	0.925	1.522	2.652	3.347	5.255	1.453	0.770	-1.607	-1.223	0.377	1.608	0.085	-0.459	0.723	-0.350	-0.663	-1.808	-5.243	-5.811	0.002	1.372	203.125
-0.282	-0.483	-0.399	-1.124	0.194	-0.266	1.262	0.769	1.506	2.781	3.310	5.207	1.948	1.206	-1.778	-1.422	0.228	1.473	0.093	-0.627	0.844	-0.292	-0.617	-1.492	-4.983	-5.348	0.363	1.490	207.031
-0.376	-0.696	-0.705	-1.338	0.100	-0.360	1.325	0.573	1.376	2.832	3.213	5.078	2.347	1.613	-1.878	-1.539	0.124	1.407	0.155	-0.761	0.956	-0.216	-0.522	-1.224	-4.761	-4.969	0.633	1.540	210.938
-0.424	-0.837	-0.907	-1.515	0.037	-0.381	1.362	0.370	1.174	2.816	3.088	4.890	2.609	1.959	-1.916	-1.593	0.057	1.412	0.257	-0.877	1.037	-0.138	-0.390	-1.002	-4.567	-4.658	0.830	1.544	214.844
-0.446	-0.925	-1.013	-1.655	-0.001	-0.334	1.374	0.188	0.951	2.751	2.967	4.673	2.706	2.215	-1.906	-1.613	0.018	1.477	0.385	-0.991	1.069	-0.072	-0.232	-0.819	-4.380	-4.390	0.980	1.527	218.750
-0.465	-0.986	-1.036	-1.757	-0.024	-0.235	1.359	0.054	0.756	2.657	2.875	4.458	2.624	2.358	-1.866	-1.624	-0.003	1.583	0.521	-1.120	1.039	-0.026	-0.059	-0.661	-4.175	-4.129	1.112	1.519	222.656
-0.498	-1.041	-1.001	-1.829	-0.046	-0.104	1.314	-0.019	0.628	2.551	2.832	4.272	2.367	2.370	-1.811	-1.653	-0.014	1.708	0.648	-1.279	0.941	-0.002	0.113	-0.514	-3.924	-3.838	1.256	1.548	226.562
-0.560	-1.109	-0.936	-1.881	-0.083	0.029	1.235	-0.023	0.597	2.453	2.845	4.138	1.958	2.244	-1.757	-1.717	-0.020	1.831	0.746	-1.477	0.771	0.003	0.269	-0.362	-3.606	-3.482	1.442	1.641	230.469
-0.659	-1.205	-0.870	-1.932	-0.151	0.136	1.128	0.040	0.678	2.381	2.913	4.074	1.437	1.985	-1.720	-1.829	-0.026	1.934	0.799	-1.721	0.533	-0.008	0.396	-0.188	-3.209	-3.032	1.695	1.815	234.375
-0.801	-1.341	-0.833	-2.002	-0.262	0.190	1.001	0.161	0.872	2.353	3.030	4.086	0.862	1.615	-1.717	-1.998	-0.037	2.007	0.791	-2.008	0.234	-0.025	0.485	0.023	-2.733	-2.475	2.031	2.078	238.281
-0.987	-1.525	-0.848	-2.112	-0.419	0.173	0.876	0.331	1.170	2.389	3.184	4.170	0.304	1.168	-1.764	-2.228	-0.064	2.043	0.709	-2.332	-0.109	-0.042	0.530	0.282	-2.191	-1.816	2.457	2.420	242.188
-1.213	-1.757	-0.933	-2.276	-0.617	0.079	0.779	0.535	1.552	2.505	3.365	4.311	-0.163	0.696	-1.874	-2.518	-0.118	2.037	0.550	-2.680	-0.473	-0.050	0.535	0.597	-1.606	-1.079	2.967	2.817	246.094
-1.478	-2.036	-1.094	-2.501	-0.841	-0.089	0.742	0.759	1.993	2.716	3.566	4.487	-0.466	0.256	-2.055	-2.864	-0.212	1.985	0.316	-3.036	-0.829	-0.042	0.507	0.967	-1.011	-0.309	3.539	3.233	250.000
-1.774	-2.352	-1.330	-2.780	-1.069	-0.315	0.797	0.987	2.463	3.028	3.781	4.669	-0.548	-0.089	-2.306	-3.259	-0.358	1.886	0.019	-3.383	-1.143	-0.012	0.458	1.385	-0.442	0.433	4.141	3.622	253.906
-2.096	-2.695	-1.631	-3.097	-1.274	-0.578	0.969	1.205	2.933	3.441	4.007	4.828	-0.368	-0.283	-2.613	-3.690	-0.567	1.737	-0.318	-3.702	-1.382	0.047	0.400	1.838	0.064	1.081	4.730	3.935	257.812
-2.437	-3.054	-1.984	-3.428	-1.431	-0.852	1.274	1.400	3.377	3.943	4.241	4.940	0.089	-0.280	-2.955	-4.142	-0.839	1.540	-0.671	-3.979	-1.514	0.139	0.343	2.306	0.473	1.574	5.264	4.132	261.719
-2.791	-3.417	-2.370	-3.749	-1.520	-1.117	1.713	1.566	3.775	4.519	4.481	4.991	0.814	-0.048	-3.304	-4.598	-1.169	1.304	-1.014	-4.202	-1.512	0.264	0.291	2.768	0.761	1.864	5.701	4.183	265.625
-3.152	-3.779	-2.776	-4.039	-1.528	-1.357	2.275	1.703	4.111	5.147	4.725	4.977	1.774	0.421	-3.635	-5.044	-1.546	1.040	-1.322	-4.366	-1.362	0.422	0.246	3.201	0.914	1.925	6.010	4.077	269.531
-3.514	-4.138	-3.186	-4.286	-1.456	-1.564	2.932	1.818	4.381	5.804	4.964	4.909	2.915	1.112	-3.928	-5.465	-1.947	0.765	-1.577	-4.469	-1.062	0.606	0.202	3.586	0.931	1.760	6.176	3.823	273.438
-3.868	-4.492	-3.592	-4.487	-1.313	-1.738	3.646	1.921	4.585	6.464	5.190	4.805	4.165	1.988	-4.172	-5.852	-2.347	0.496	-1.766	-4.515	-0.626	0.809	0.159	3.906	0.823	1.396	6.196	3.446	277.344
-4.204	-4.841	-3.986	-4.649	-1.121	-1.885	4.371	2.022	4.730	7.102	5.393	4.689	5.442	2.991	-4.364	-6.197	-2.715	0.250	-1.882	-4.510	-0.080	1.022	0.113	4.148	0.611	0.879	6.083	2.984	281.250
-4.512	-5.184	-4.364	-4.782	-0.909	-2.014	5.057	2.128	4.828	7.691	5.566	4.583	6.661	4.049	-4.507	-6.496	-3.021	0.041	-1.924	-4.458	0.539	1.233	0.070	4.305	0.325	0.270	5.857	2.481	285.156
-4.779	-5.512	-4.722	-4.900	-0.708	-2.137	5.656	2.241	4.894	8.208	5.705	4.504	7.738	5.080	-4.610	-6.745	-3.238	-0.125	-1.895	-4.365	1.186	1.433	0.037	4.376	0.000	-0.369	5.549	1.981	289.062
-4.995	-5.818	-5.053	-5.017	-0.547	-2.262	6.129	2.360	4.943	8.631	5.812	4.462	8.598	6.004	-4.679	-6.942	-3.350	-0.241	-1.802	-4.241	1.814	1.611	0.024	4.367	-0.326	-0.980	5.192	1.524	292.969
-5.151	-6.091	-5.350	-5.141	-0.450	-2.395	6.449	2.483	4.988	8.945	5.894	4.463	9.183	6.749	-4.724	-7.089	-3.351	-0.309	-1.662	-4.094	2.377	1.758	0.038	4.291	-0.614	-1.508	4.822	1.144	296.875
-5.248	-6.322	-5.602	-5.276	-0.431	-2.537	6.604	2.609	5.046	9.143	5.966	4.503	9.457	7.259	-4.752	-7.194	-3.253	-0.331	-1.495	-3.939	2.834	1.867	0.081	4.166	-0.827	-1.912	4.476	0.868	300.781
-5.291	-6.508	-5.800	-5.423	-0.494	-2.686	6.600	2.741	5.131	9.227	6.044	4.580	9.407	7.503	-4.771	-7.270	-3.087	-0.312	-1.328	-3.795	3.153	1.930	0.149	4.016	-0.934	-2.155	4.189	0.718	304.688
-5.291	-6.652	-5.937	-5.583	-0.634	-2.839	6.455	2.885	5.259	9.212	6.147	4.693	9.048	7.471	-4.791	-7.336	-2.894	-0.259	-1.194	-3.685	3.312	1.940	0.229	3.867	-0.910	-2.211	3.998	0.710	308.594
-5.264	-6.767	-6.016	-5.756	-0.838	-2.991	6.202	3.051	5.445	9.120	6.294	4.840	8.420	7.181	-4.821	-7.413	-2.725	-0.177	-1.121	-3.632	3.299	1.895	0.301	3.743	-0.738	-2.064	3.933	0.853	312.500
-5.230	-6.869	-6.045	-5.946	-1.090	-3.141	5.879	3.245	5.701	8.983	6.498	5.024	7.582	6.671	-4.872	-7.524	-2.628	-0.076	-1.135	-3.658	3.116	1.794	0.346	3.667	-0.415	-1.708	4.017	1.150	316.406
-5.209	-6.976	-6.044	-6.159	-1.376	-3.289	5.525	3.474	6.035	8.833	6.769	5.248	6.609	5.992	-4.951	-7.685	-2.639	0.032	-1.248	-3.778	2.775	1.641	0.346	3.655	0.046	-1.149	4.261	1.593	320.312
-5.217	-7.106	-6.035	-6.402	-1.682	-3.435	5.180	3.741	6.448	8.702	7.110	5.513	5.581	5.207	-5.068	-7.902	-2.778	0.132	-1.461	-3.994	2.299	1.447	0.294	3.717	0.621	-0.406	4.662	2.166	324.219
-5.266	-7.266	-6.042	-6.682	-1.999	-3.583	4.876	4.044	6.933	8.617	7.516	5.817	4.577	4.378	-5.227	-8.172	-3.041	0.206	-1.757	-4.297	1.719	1.225	0.192	3.853	1.273	0.487	5.201	2.844	328.125
-5.363	-7.458	-6.084	-6.999	-2.318	-3.732	4.639	4.379	7.477	8.599	7.976	6.152	3.665	3.560	-5.434	-8.481	-3.402	0.237	-2.112	-4.668	1.074	0.991	0.051	4.055	1.958	1.481	5.846	3.590	332.031
-5.506	-7.672	-6.174	-7.345	-2.633	-3.881	4.484	4.738	8.057	8.654	8.472	6.502	2.899	2.803	-5.685	-8.806	-3.820	0.209	-2.488	-5.077	0.408	0.764	-0.111	4.307	2.630	2.517	6.550	4.362	335.938
-5.687	-7.894	-6.313	-7.706	-2.936	-4.024	4.418	5.108	8.644	8.782	8.976	6.842	2.317	2.143	-5.973	-9.120	-4.248	0.114	-2.848	-5.490	-0.236	0.559	-0.275	4.588	3.249	3.525	7.258	5.108	339.844
-5.888	-8.103	-6.493	-8.059	-3.218	-4.153	4.438	5.470	9.204	8.969	9.455	7.140	1.939	1.609	-6.279	-9.396	-4.638	-0.046	-3.155	-5.874	-0.818	0.394	-0.421	4.874	3.783	4.435	7.912	5.776	343.750
-6.090	-8.275	-6.691	-8.378	-3.471	-4.256	4.535	5.804	9.700	9.195	9.869	7.360	1.768	1.218	-6.579	-9.611	-4.953	-0.260	-3.380	-6.201	-1.300	0.280	-0.535	5.142	4.209	5.184	8.458	6.314	347.656
-6.269	-8.387	-6.880	-8.635	-3.682	-4.324	4.693	6.082	10.094	9.431	10.176	7.466	1.796	0.981	-6.842	-9.747	-5.173	-0.509	-3.505	-6.451	-1.654	0.228	-0.607	5.373	4.520	5.721	8.851	6.674	351.562
-6.404	-8.418	-7.030	-8.808	-3.842	-4.350	4.890	6.282	10.350	9.649	10.339	7.430	2.005	0.898	-7.036	-9.793	-5.290	-0.764	-3.526	-6.613	-1.862	0.242	-0.633	5.554	4.715	6.017	9.058	6.822	355.469
-6.480	-8.353	-7.111	-8.885	-3.943	-4.333	5.104	6.384	10.443	9.820	10.331	7.239	2.367	0.966	-7.135	-9.750	-5.312	-0.997	-3.449	-6.683	-1.917	0.321	-0.610	5.676	4.803	6.067	9.064	6.735	359.375
-6.487	-8.188	-7.101	-8.863	-3.983	-4.279	5.311	6.379	10.360	9.924	10.140	6.898	2.846	1.170	-7.124	-9.625	-5.254	-1.176	-3.293	-6.669	-1.826	0.457	-0.537	5.734	4.796	5.886	8.868	6.416	363.281
-6.424	-7.930	-6.988	-8.754	-3.969	-4.200	5.489	6.270	10.103	9.945	9.779	6.437	3.397	1.485	-7.002	-9.430	-5.134	-1.278	-3.080	-6.587	-1.613	0.633	-0.415	5.726	4.713	5.511	8.489	5.891	367.188
-6.295	-7.597	-6.773	-8.582	-3.912	-4.111	5.617	6.070	9.693	9.876	9.280	5.906	3.971	1.880	-6.781	-9.185	-4.970	-1.289	-2.834	-6.457	-1.310	0.829	-0.244	5.652	4.572	4.993	7.957	5.212	371.094
-6.113	-7.217	-6.471	-8.377	-3.833	-4.028	5.681	5.803	9.166	9.722	8.694	5.373	4.515	2.312	-6.488	-8.913	-4.781	-1.203	-2.578	-6.306	-0.962	1.020	-0.032	5.518	4.394	4.391	7.320	4.453	375.000
-5.892	-6.825	-6.109	-8.174	-3.753	-3.969	5.670	5.496	8.566	9.491	8.081	4.907	4.980	2.738	-6.160	-8.634	-4.579	-1.031	-2.329	-6.158	-0.612	1.183	0.208	5.332	4.199	3.768	6.632	3.703	378.906
-5.652	-6.456	-5.722	-8.003	-3.693	-3.948	5.582	5.173	7.939	9.199	7.498	4.574	5.325	3.118	-5.831	-8.371	-4.376	-0.790	-2.100	-6.035	-0.301	1.303	0.456	5.111	4.007	3.183	5.955	3.052	382.812
-5.411	-6.139	-5.346	-7.882	-3.665	-3.973	5.421	4.853	7.322	8.861	6.988	4.419	5.526	3.419	-5.536	-8.137	-4.181	-0.503	-1.900	-5.953	-0.056	1.370	0.689	4.876	3.839	2.687	5.348	2.577	386.719
-5.187	-5.894	-5.020	-7.817	-3.676	-4.046	5.196	4.542	6.737	8.489	6.570	4.461	5.576	3.626	-5.296	-7.943	-4.001	-0.195	-1.733	-5.914	0.110	1.389	0.886	4.656	3.715	2.322	4.861	2.330	390.625
-4.992	-5.726	-4.771	-7.801	-3.722	-4.165	4.920	4.232	6.188	8.091	6.240	4.686	5.482	3.737	-5.121	-7.792	-3.840	0.114	-1.598	-5.914	0.205	1.373	1.029	4.477	3.654	2.115	4.533	2.328	394.531
-4.835	-5.629	-4.615	-7.816	-3.793	-4.321	4.603	3.906	5.661	7.664	5.972	5.052	5.272	3.768	-5.008	-7.680	-3.698	0.411	-1.493	-5.935	0.250	1.343	1.116	4.367	3.674	2.078	4.381	2.553	398.438
-4.715	-5.583	-4.555	-7.837	-3.875	-4.500	4.251	3.539	5.132	7.201	5.726	5.496	4.977	3.744	-4.943	-7.594	-3.572	0.687	-1.411	-5.958	0.278	1.324	1.157	4.340	3.785	2.205	4.399	2.952	402.344
-4.626	-5.566	-4.578	-7.843	-3.953	-4.686	3.868	3.110	4.572	6.692	5.457	5.943	4.636	3.694	-4.901	-7.518	-3.456	0.942	-1.343	-5.959	0.324	1.340	1.174	4.403	3.987	2.470	4.558	3.451	406.250
-4.554	-5.550	-4.658	-7.815	-4.015	-4.864	3.454	2.607	3.959	6.126	5.125	6.316	4.281	3.647	-4.857	-7.433	-3.340	1.177	-1.277	-5.913	0.417	1.409	1.197	4.544	4.267	2.833	4.809	3.964	410.156
-4.482	-5.514	-4.761	-7.742	-4.053	-5.018	3.006	2.037	3.284	5.498	4.704	6.543	3.939	3.626	-4.784	-7.317	-3.212	1.398	-1.201	-5.804	0.580	1.543	1.259	4.741	4.596	3.240	5.089	4.406	414.062
-4.390	-5.441	-4.850	-7.623	-4.062	-5.136	2.527	1.421	2.553	4.815	4.186	6.572	3.631	3.644	-4.661	-7.151	-3.060	1.609	-1.103	-5.617	0.818	1.742	1.383	4.961	4.931	3.628	5.328	4.701	417.969
-4.263	-5.319	-4.892	-7.458	-4.041	-5.210	2.027	0.796	1.791	4.093	3.580	6.370	3.367	3.706	-4.477	-6.924	-2.875	1.819	-0.972	-5.348	1.129	1.998	1.582	5.166	5.223	3.935	5.463	4.796	421.875
-4.090	-5.146	-4.860	-7.255	-3.992	-5.238	1.521	0.207	1.036	3.363	2.912	5.932	3.155	3.811	-4.234	-6.631	-2.652	2.032	-0.799	-5.000	1.496	2.295	1.853	5.320	5.421	4.108	5.442	4.659	425.781
-3.867	-4.924	-4.740	-7.021	-3.917	-5.224	1.035	-0.306	0.332	2.664	2.222	5.279	3.002	3.949	-3.942	-6.276	-2.395	2.253	-0.581	-4.582	1.899	2.614	2.182	5.392	5.484	4.107	5.237	4.288	429.688
-3.601	-4.660	-4.535	-6.764	-3.818	-5.177	0.598	-0.710	-0.279	2.043	1.554	4.459	2.915	4.114	-3.620	-5.876	-2.113	2.480	-0.319	-4.113	2.312	2.934	2.541	5.365	5.385	3.912	4.847	3.705	433.594
-3.308	-4.365	-4.259	-6.491	-3.699	-5.110	0.244	-0.992	-0.761	1.543	0.957	3.539	2.903	4.296	-3.293	-5.453	-1.824	2.706	-0.024	-3.615	2.716	3.233	2.895	5.233	5.116	3.525	4.295	2.954	437.500
-3.011	-4.051	-3.942	-6.208	-3.561	-5.036	0.002	-1.154	-1.092	1.205	0.473	2.601	2.978	4.491	-2.989	-5.035	-1.550	2.915	0.287	-3.113	3.094	3.494	3.206	5.008	4.692	2.972	3.631	2.100	441.406
-2.738	-3.735	-3.621	-5.923	-3.406	-4.971	-0.106	-1.213	-1.262	1.056	0.140	1.730	3.153	4.700	-2.735	-4.651	-1.317	3.088	0.588	-2.633	3.439	3.707	3.439	4.709	4.145	2.295	2.920	1.218	445.312
-2.515	-3.437	-3.334	-5.644	-3.241	-4.926	-0.070	-1.197	-1.279	1.107	-0.024	1.005	3.433	4.927	-2.555	-4.329	-1.151	3.200	0.851	-2.197	3.750	3.865	3.565	4.371	3.524	1.553	2.235	0.384	449.219
-2.368	-3.180	-3.118	-5.382	-3.070	-4.909	0.106	-1.135	-1.161	1.348	-0.012	0.485	3.820	5.177	-2.467	-4.090	-1.073	3.230	1.048	-1.823	4.032	3.969	3.566	4.029	2.888	0.808	1.648	-0.329	453.125
-2.310	-2.986	-2.998	-5.148	-2.903	-4.923	0.400	-1.058	-0.940	1.747	0.159	0.207	4.302	5.454	-2.484	-3.950	-1.093	3.165	1.161	-1.524	4.295	4.026	3.437	3.717	2.292	0.122	1.215	-0.864	457.031
-2.343	-2.872	-2.986	-4.953	-2.747	-4.966	0.777	-0.988	-0.657	2.255	0.456	0.181	4.856	5.758	-2.603	-3.914	-1.210	3.001	1.180	-1.306	4.546	4.045	3.188	3.464	1.784	-0.454	0.968	-1.184	460.938
-2.455	-2.850	-3.080	-4.805	-2.612	-5.031	1.192	-0.943	-0.353	2.812	0.829	0.388	5.446	6.080	-2.809	-3.977	-1.410	2.750	1.111	-1.168	4.793	4.036	2.843	3.282	1.394	-0.882	0.910	-1.280	464.844
-2.621	-2.919	-3.265	-4.704	-2.503	-5.106	1.592	-0.933	-0.073	3.348	1.220	0.786	6.026	6.405	-3.074	-4.126	-1.667	2.438	0.971	-1.102	5.040	4.010	2.435	3.172	1.134	-1.148	1.014	-1.168	468.750
-2.808	-3.066	-3.513	-4.646	-2.422	-5.176	1.927	-0.962	0.143	3.797	1.571	1.314	6.546	6.713	-3.355	-4.334	-1.944	2.099	0.786	-1.091	5.286	3.976	2.007	3.119	0.993	-1.256	1.226	-0.889	472.656
-2.975	-3.266	-3.791	-4.619	-2.367	-5.229	2.151	-1.031	0.262	4.101	1.827	1.901	6.957	6.982	-3.608	-4.566	-2.204	1.778	0.591	-1.108	5.530	3.940	1.604	3.099	0.949	-1.232	1.476	-0.504	476.562
-3.089	-3.484	-4.061	-4.605	-2.332	-5.254	2.233	-1.137	0.259	4.215	1.948	2.473	7.221	7.193	-3.789	-4.782	-2.411	1.516	0.418	-1.124	5.770	3.911	1.266	3.084	0.968	-1.113	1.690	-0.079	480.469
-3.121	-3.682	-4.285	-4.580	-2.308	-5.245	2.157	-1.277	0.117	4.112	1.908	2.959	7.311	7.335	-3.867	-4.940	-2.538	1.350	0.300	-1.105	6.005	3.898	1.028	3.046	1.014	-0.948	1.800	0.312	484.375
-3.053	-3.822	-4.427	-4.523	-2.282	-5.196	1.922	-1.446	-0.169	3.786	1.699	3.298	7.222	7.409	-3.826	-5.004	-2.568	1.305	0.260	-1.019	6.239	3.911	0.912	2.966	1.054	-0.786	1.756	0.606	488.281
-2.881	-3.871	-4.461	-4.413	-2.240	-5.108	1.546	-1.641	-0.595	3.249	1.329	3.448	6.963	7.426	-3.667	-4.945	-2.499	1.393	0.315	-0.844	6.474	3.962	0.926	2.832	1.060	-0.676	1.530	0.752	492.188
-2.612	-3.809	-4.372	-4.236	-2.170	-4.980	1.059	-1.857	-1.145	2.535	0.823	3.382	6.559	7.402	-3.404	-4.749	-2.334	1.608	0.472	-0.566	6.715	4.062	1.064	2.643	1.016	-0.658	1.118	0.714	496.094
-2.267	-3.629	-4.158	-3.986	-2.059	-4.812	0.504	-2.089	-1.791	1.692	0.216	3.100	6.045	7.360	-3.063	-4.418	-2.089	1.931	0.729	-0.186	6.964	4.217	1.308	2.403	0.911	-0.758	0.542	0.481	500.000
-1.872	-3.335	-3.834	-3.667	-1.901	-4.603	-0.070	-2.329	-2.496	0.779	-0.448	2.622	5.465	7.318	-2.671	-3.967	-1.780	2.332	1.075	0.282	7.222	4.428	1.625	2.125	0.741	-0.986	-0.160	0.063	503.906
-1.460	-2.943	-3.426	-3.289	-1.696	-4.355	-0.616	-2.565	-3.213	-0.135	-1.120	1.992	4.863	7.290	-2.262	-3.425	-1.432	2.773	1.490	0.811	7.482	4.683	1.977	1.821	0.512	-1.338	-0.932	-0.504	507.812
-1.061	-2.478	-2.971	-2.871	-1.451	-4.073	-1.089	-2.779	-3.888	-0.983	-1.746	1.268	4.280	7.280	-1.869	-2.828	-1.067	3.211	1.946	1.368	7.732	4.962	2.321	1.504	0.231	-1.788	-1.711	-1.167	511.719
-0.704	-1.971	-2.508	-2.438	-1.181	-3.767	-1.454	-2.953	-4.469	-1.701	-2.276	0.524	3.747	7.280	-1.522	-2.219	-0.715	3.609	2.405	1.912	7.954	5.235	2.615	1.184	-0.088	-2.299	-2.433	-1.856	515.625
-0.409	-1.456	-2.077	-2.015	-0.909	-3.450	-1.689	-3.064	-4.905	-2.237	-2.659	-0.166	3.291	7.274	-1.252	-1.639	-0.400	3.935	2.825	2.404	8.125	5.464	2.823	0.874	-0.430	-2.823	-3.039	-2.497	519.531
-0.190	-0.969	-1.711	-1.633	-0.662	-3.143	-1.788	-3.091	-5.158	-2.556	-2.856	-0.732	2.924	7.241	-1.082	-1.129	-0.149	4.169	3.167	2.804	8.221	5.616	2.920	0.584	-0.776	-3.310	-3.478	-3.018	523.438
-0.056	-0.547	-1.435	-1.319	-0.467	-2.868	-1.757	-3.022	-5.201	-2.641	-2.837	-1.117	2.653	7.160	-1.025	-0.721	0.020	4.304	3.394	3.077	8.218	5.661	2.893	0.329	-1.102	-3.708	-3.714	-3.359	527.344
-0.009	-0.223	-1.267	-1.098	-0.348	-2.648	-1.615	-2.851	-5.029	-2.497	-2.592	-1.288	2.477	7.013	-1.086	-0.441	0.095	4.349	3.486	3.198	8.098	5.584	2.745	0.124	-1.386	-3.975	-3.725	-3.482	531.250
-0.049	-0.028	-1.213	-0.987	-0.326	-2.505	-1.388	-2.586	-4.654	-2.144	-2.129	-1.235	2.392	6.791	-1.254	-0.306	0.072	4.319	3.435	3.151	7.852	5.386	2.493	-0.013	-1.604	-4.078	-3.507	-3.375	535.156
-0.169	0.020	-1.271	-0.998	-0.407	-2.455	-1.107	-2.245	-4.104	-1.623	-1.477	-0.974	2.388	6.494	-1.508	-0.320	-0.044	4.239	3.254	2.933	7.482	5.084	2.168	-0.064	-1.735	-3.998	-3.076	-3.050	539.062
-0.363	-0.086	-1.430	-1.132	-0.592	-2.506	-0.801	-1.855	-3.423	-0.980	-0.686	-0.541	2.458	6.134	-1.822	-0.478	-0.241	4.132	2.966	2.556	7.001	4.711	1.807	-0.018	-1.765	-3.736	-2.463	-2.545	542.969
-0.618	-0.334	-1.669	-1.380	-0.866	-2.655	-0.497	-1.450	-2.667	-0.271	0.179	0.010	2.589	5.731	-2.163	-0.765	-0.501	4.016	2.608	2.044	6.434	4.306	1.456	0.131	-1.684	-3.309	-1.719	-1.917	546.875
-0.917	-0.699	-1.962	-1.722	-1.207	-2.887	-0.218	-1.062	-1.895	0.448	1.042	0.619	2.773	5.314	-2.499	-1.154	-0.806	3.903	2.220	1.436	5.817	3.913	1.155	0.376	-1.494	-2.752	-0.908	-1.232	550.781
-1.237	-1.138	-2.275	-2.128	-1.585	-3.179	0.016	-0.721	-1.168	1.120	1.826	1.224	2.996	4.911	-2.803	-1.610	-1.133	3.799	1.841	0.776	5.190	3.572	0.941	0.700	-1.204	-2.113	-0.102	-0.565	554.688
-1.549	-1.602	-2.570	-2.563	-1.967	-3.496	0.192	-0.448	-0.539	1.699	2.462	1.767	3.246	4.553	-3.054	-2.095	-1.462	3.702	1.505	0.115	4.594	3.315	0.840	1.074	-0.838	-1.449	0.620	0.016	558.594
-1.822	-2.039	-2.814	-2.987	-2.321	-3.802	0.303	-0.254	-0.052	2.147	2.901	2.201	3.509	4.265	-3.237	-2.569	-1.774	3.613	1.239	-0.500	4.071	3.164	0.862	1.460	-0.426	-0.821	1.185	0.449	562.500
-2.025	-2.401	-2.975	-3.361	-2.616	-4.061	0.349	-0.138	0.267	2.439	3.111	2.492	3.767	4.065	-3.347	-2.995	-2.048	3.533	1.058	-1.028	3.649	3.125	1.002	1.815	-0.004	-0.286	1.529	0.687	566.406
-2.134	-2.651	-3.032	-3.647	-2.831	-4.242	0.337	-0.090	0.408	2.565	3.088	2.616	4.003	3.958	-3.383	-3.343	-2.267	3.471	0.967	-1.440	3.352	3.190	1.242	2.097	0.391	0.109	1.605	0.697	570.312
-2.134	-2.763	-2.972	-3.816	-2.947	-4.321	0.280	-0.092	0.380	2.529	2.849	2.568	4.198	3.940	-3.349	-3.589	-2.410	3.439	0.965	-1.719	3.188	3.342	1.555	2.264	0.720	0.325	1.389	0.470	574.219
-2.019	-2.727	-2.791	-3.848	-2.954	-4.283	0.193	-0.121	0.203	2.344	2.429	2.350	4.331	3.998	-3.247	-3.717	-2.461	3.456	1.045	-1.860	3.155	3.553	1.910	2.287	0.950	0.337	0.876	0.009	578.125
-1.795	-2.544	-2.491	-3.735	-2.847	-4.124	0.093	-0.159	-0.092	2.030	1.871	1.978	4.383	4.110	-3.081	-3.719	-2.409	3.537	1.194	-1.866	3.240	3.792	2.276	2.145	1.058	0.134	0.084	-0.661	582.031
-1.479	-2.227	-2.082	-3.481	-2.631	-3.849	-0.011	-0.190	-0.476	1.607	1.220	1.473	4.339	4.252	-2.852	-3.595	-2.248	3.696	1.399	-1.751	3.424	4.034	2.630	1.837	1.030	-0.278	-0.946	-1.501	585.938
-1.095	-1.799	-1.580	-3.106	-2.315	-3.473	-0.114	-0.204	-0.918	1.094	0.518	0.867	4.187	4.398	-2.561	-3.351	-1.985	3.940	1.645	-1.532	3.683	4.260	2.954	1.378	0.870	-0.870	-2.155	-2.457	589.844
-0.670	-1.292	-1.005	-2.638	-1.920	-3.024	-0.221	-0.201	-1.395	0.508	-0.202	0.198	3.926	4.528	-2.218	-3.005	-1.639	4.264	1.914	-1.233	3.991	4.461	3.239	0.805	0.597	-1.595	-3.465	-3.464	593.750
-0.237	-0.744	-0.387	-2.120	-1.474	-2.532	-0.343	-0.183	-1.887	-0.135	-0.914	-0.492	3.564	4.628	-1.838	-2.585	-1.240	4.653	2.186	-0.883	4.321	4.637	3.483	0.170	0.251	-2.386	-4.785	-4.454	597.656
0.176	-0.195	0.235	-1.596	-1.012	-2.037	-0.492	-0.159	-2.375	-0.817	-1.599	-1.162	3.116	4.688	-1.446	-2.126	-0.826	5.085	2.441	-0.514	4.646	4.795	3.689	-0.467	-0.117	-3.165	-6.016	-5.354	601.562
0.542	0.317	0.818	-1.112	-0.573	-1.575	-0.680	-0.132	-2.842	-1.515	-2.241	-1.772	2.605	4.704	-1.071	-1.673	-0.435	5.526	2.661	-0.161	4.939	4.942	3.861	-1.041	-0.450	-3.851	-7.063	-6.098	605.469
0.841	0.755	1.319	-0.707	-0.194	-1.181	-0.912	-0.105	-3.267	-2.200	-2.824	-2.289	2.061	4.674	-0.745	-1.270	-0.100	5.940	2.828	0.140	5.176	5.081	4.003	-1.494	-0.692	-4.369	-7.841	-6.633	609.375
1.056	1.094	1.698	-0.412	0.092	-0.880	-1.184	-0.076	-3.625	-2.833	-3.326	-2.693	1.510	4.596	-0.495	-0.959	0.154	6.289	2.931	0.359	5.335	5.210	4.116	-1.785	-0.801	-4.662	-8.291	-6.924	613.281
1.178	1.318	1.930	-0.243	0.260	-0.689	-1.479	-0.039	-3.888	-3.375	-3.720	-2.976	0.981	4.470	-0.339	-0.769	0.316	6.539	2.965	0.476	5.403	5.317	4.196	-1.894	-0.755	-4.697	-8.387	-6.960	617.188
1.206	1.420	2.003	-0.204	0.300	-0.613	-1.777	0.013	-4.032	-3.787	-3.981	-3.144	0.497	4.296	-0.282	-0.718	0.385	6.669	2.926	0.481	5.373	5.388	4.235	-1.823	-0.551	-4.468	-8.137	-6.755	621.094
1.141	1.405	1.924	-0.286	0.212	-0.647	-2.047	0.088	-4.033	-4.036	-4.080	-3.215	0.078	4.074	-0.319	-0.803	0.372	6.666	2.818	0.378	5.248	5.408	4.225	-1.595	-0.210	-3.994	-7.585	-6.347	625.000
0.993	1.285	1.717	-0.467	0.012	-0.780	-2.262	0.187	-3.879	-4.105	-4.001	-3.209	-0.261	3.811	-0.432	-1.005	0.291	6.535	2.648	0.181	5.039	5.364	4.162	-1.246	0.233	-3.317	-6.798	-5.789	628.906
0.773	1.079	1.414	-0.724	-0.279	-0.997	-2.398	0.307	-3.571	-3.988	-3.739	-3.147	-0.505	3.516	-0.601	-1.296	0.157	6.294	2.427	-0.087	4.761	5.249	4.045	-0.825	0.730	-2.498	-5.860	-5.142	632.812
0.498	0.806	1.055	-1.026	-0.629	-1.279	-2.437	0.440	-3.122	-3.695	-3.306	-3.043	-0.643	3.201	-0.800	-1.641	-0.015	5.970	2.169	-0.402	4.431	5.064	3.880	-0.377	1.232	-1.602	-4.859	-4.464	636.719
0.185	0.488	0.677	-1.351	-1.006	-1.606	-2.372	0.575	-2.559	-3.248	-2.728	-2.900	-0.665	2.885	-1.010	-2.006	-0.214	5.598	1.889	-0.744	4.067	4.815	3.683	0.056	1.692	-0.700	-3.874	-3.804	640.625
-0.142	0.146	0.315	-1.675	-1.380	-1.958	-2.206	0.702	-1.918	-2.678	-2.042	-2.711	-0.565	2.582	-1.216	-2.365	-0.433	5.210	1.601	-1.095	3.680	4.514	3.469	0.438	2.072	0.143	-2.974	-3.196	644.531
-0.460	-0.198	-0.004	-1.982	-1.722	-2.312	-1.956	0.808	-1.244	-2.025	-1.295	-2.460	-0.346	2.308	-1.409	-2.699	-0.668	4.837	1.319	-1.445	3.284	4.175	3.257	0.745	2.347	0.869	-2.209	-2.663	648.438
-0.747	-0.521	-0.259	-2.261	-2.013	-2.646	-1.645	0.883	-0.587	-1.331	-0.534	-2.133	-0.019	2.076	-1.585	-2.995	-0.913	4.503	1.056	-1.785	2.889	3.816	3.064	0.958	2.505	1.433	-1.616	-2.214	652.344
-0.980	-0.798	-0.436	-2.499	-2.236	-2.939	-1.305	0.920	0.006	-0.642	0.193	-1.720	0.391	1.891	-1.739	-3.244	-1.158	4.225	0.824	-2.104	2.510	3.458	2.904	1.069	2.546	1.801	-1.217	-1.855	656.250
-1.142	-1.004	-0.531	-2.686	-2.385	-3.170	-0.973	0.912	0.491	-0.007	0.842	-1.228	0.851	1.757	-1.862	-3.434	-1.390	4.019	0.636	-2.392	2.160	3.119	2.785	1.071	2.479	1.959	-1.024	-1.590	660.156
-1.222	-1.113	-0.542	-2.812	-2.461	-3.324	-0.683	0.854	0.832	0.526	1.372	-0.680	1.313	1.669	-1.940	-3.551	-1.587	3.894	0.503	-2.629	1.860	2.819	2.712	0.964	2.322	1.905	-1.041	-1.425	664.062
-1.211	-1.105	-0.469	-2.867	-2.468	-3.391	-0.471	0.743	1.001	0.909	1.745	-0.119	1.728	1.618	-1.950	-3.580	-1.725	3.863	0.437	-2.796	1.626	2.577	2.688	0.750	2.097	1.650	-1.268	-1.370	667.969
-1.107	-0.965	-0.311	-2.842	-2.416	-3.366	-0.365	0.582	0.984	1.098	1.925	0.397	2.044	1.587	-1.868	-3.502	-1.776	3.935	0.449	-2.869	1.474	2.407	2.713	0.433	1.828	1.219	-1.699	-1.437	671.875
-0.908	-0.689	-0.067	-2.728	-2.316	-3.256	-0.387	0.378	0.776	1.056	1.884	0.803	2.212	1.557	-1.673	-3.303	-1.715	4.118	0.544	-2.829	1.414	2.320	2.786	0.023	1.540	0.643	-2.322	-1.639	675.781
-0.616	-0.284	0.266	-2.523	-2.180	-3.069	-0.548	0.141	0.384	0.761	1.601	1.037	2.197	1.507	-1.352	-2.972	-1.520	4.413	0.727	-2.664	1.446	2.324	2.907	-0.467	1.256	-0.040	-3.120	-1.985	679.688
-0.236	0.232	0.688	-2.229	-2.021	-2.824	-0.851	-0.113	-0.176	0.206	1.066	1.048	1.980	1.420	-0.905	-2.509	-1.181	4.818	0.999	-2.371	1.559	2.421	3.075	-1.017	0.997	-0.791	-4.065	-2.473	683.594
0.223	0.833	1.194	-1.854	-1.848	-2.543	-1.287	-0.371	-0.878	-0.594	0.289	0.807	1.560	1.285	-0.348	-1.927	-0.703	5.320	1.356	-1.962	1.735	2.608	3.289	-1.600	0.781	-1.566	-5.116	-3.091	687.500
0.743	1.481	1.769	-1.418	-1.672	-2.253	-1.835	-0.619	-1.683	-1.601	-0.704	0.309	0.960	1.099	0.289	-1.252	-0.107	5.896	1.785	-1.463	1.947	2.873	3.546	-2.181	0.625	-2.322	-6.216	-3.813	691.406
1.299	2.136	2.384	-0.945	-1.507	-1.978	-2.461	-0.847	-2.543	-2.752	-1.859	-0.419	0.221	0.871	0.964	-0.523	0.568	6.514	2.267	-0.914	2.162	3.199	3.842	-2.721	0.540	-3.011	-7.292	-4.596	695.312
1.856	2.751	2.995	-0.470	-1.363	-1.744	-3.120	-1.045	-3.397	-3.960	-3.099	-1.321	-0.598	0.619	1.624	0.206	1.263	7.133	2.772	-0.363	2.347	3.558	4.163	-3.174	0.538	-3.584	-8.257	-5.381	699.219
2.369	3.278	3.550	-0.033	-1.255	-1.568	-3.758	-1.207	-4.175	-5.123	-4.326	-2.314	-1.431	0.363	2.212	0.870	1.910	7.706	3.260	0.134	2.473	3.916	4.491	-3.498	0.622	-3.991	-9.018	-6.100	703.125
2.791	3.671	3.989	0.323	-1.198	-1.468	-4.315	-1.326	-4.804	-6.128	-5.426	-3.300	-2.206	0.124	2.674	1.403	2.438	8.184	3.684	0.522	2.512	4.235	4.798	-3.658	0.791	-4.188	-9.484	-6.679	707.031
3.078	3.887	4.255	0.556	-1.207	-1.454	-4.738	-1.395	-5.214	-6.867	-6.279	-4.170	-2.858	-0.081	2.961	1.740	2.779	8.526	3.992	0.751	2.446	4.475	5.054	-3.630	1.038	-4.139	-9.580	-7.044	710.938
3.191	3.896	4.304	0.631	-1.295	-1.534	-4.978	-1.405	-5.349	-7.247	-6.779	-4.823	-3.334	-0.247	3.040	1.833	2.886	8.697	4.138	0.784	2.265	4.603	5.224	-3.406	1.349	-3.825	-9.260	-7.134	714.844
3.106	3.680	4.110	0.527	-1.470	-1.707	-5.009	-1.353	-5.173	-7.212	-6.841	-5.172	-3.598	-0.375	2.894	1.658	2.735	8.678	4.092	0.602	1.971	4.595	5.282	-2.996	1.709	-3.245	-8.512	-6.909	718.750
2.817	3.242	3.675	0.240	-1.734	-1.970	-4.827	-1.237	-4.685	-6.744	-6.426	-5.164	-3.633	-0.477	2.532	1.218	2.335	8.466	3.841	0.205	1.572	4.444	5.210	-2.426	2.100	-2.424	-7.366	-6.352	722.656
2.339	2.605	3.030	-0.214	-2.084	-2.313	-4.454	-1.063	-3.920	-5.879	-5.548	-4.780	-3.445	-0.566	1.986	0.547	1.723	8.080	3.398	-0.380	1.088	4.157	5.007	-1.738	2.505	-1.408	-5.895	-5.484	726.562
1.711	1.817	2.230	-0.802	-2.507	-2.718	-3.936	-0.848	-2.950	-4.698	-4.277	-4.045	-3.058	-0.657	1.312	-0.293	0.962	7.557	2.800	-1.107	0.551	3.759	4.689	-0.984	2.906	-0.265	-4.208	-4.359	730.469
0.986	0.942	1.351	-1.471	-2.981	-3.163	-3.335	-0.622	-1.875	-3.317	-2.738	-3.025	-2.509	-0.752	0.579	-1.220	0.132	6.950	2.106	-1.909	0.000	3.290	4.287	-0.224	3.283	0.921	-2.439	-3.065	734.375
0.232	0.059	0.479	-2.162	-3.474	-3.619	-2.717	-0.418	-0.815	-1.876	-1.094	-1.816	-1.845	-0.845	-0.136	-2.138	-0.683	6.321	1.382	-2.704	-0.515	2.796	3.844	0.483	3.613	2.056	-0.736	-1.718	738.281
-0.479	-0.749	-0.300	-2.808	-3.943	-4.053	-2.143	-0.274	0.117	-0.509	0.482	-0.539	-1.115	-0.914	-0.766	-2.954	-1.401	5.733	0.701	-3.410	-0.942	2.327	3.401	1.081	3.869	3.041	0.755	-0.446	742.188
-1.084	-1.406	-0.914	-3.346	-4.342	-4.431	-1.654	-0.223	0.821	0.667	1.825	0.683	-0.363	-0.928	-1.256	-3.582	-1.957	5.238	0.125	-3.947	-1.226	1.926	2.999	1.525	4.018	3.785	1.906	0.623	746.094
-1.532	-1.850	-1.314	-3.723	-4.622	-4.719	-1.271	-0.284	1.232	1.570	2.810	1.738	0.371	-0.855	-1.576	-3.960	-2.310	4.868	-0.297	-4.252	-1.324	1.628	2.666	1.781	4.031	4.216	2.624	1.382	750.000
-1.791	-2.047	-1.476	-3.902	-4.745	-4.892	-0.994	-0.462	1.328	2.157	3.365	2.536	1.053	-0.666	-1.717	-4.053	-2.441	4.636	-0.534	-4.287	-1.208	1.454	2.419	1.835	3.883	4.286	2.857	1.755	753.906
-1.855	-1.987	-1.403	-3.866	-4.689	-4.933	-0.814	-0.740	1.122	2.422	3.477	3.023	1.655	-0.350	-1.689	-3.859	-2.358	4.535	-0.578	-4.046	-0.876	1.411	2.262	1.685	3.566	3.984	2.600	1.711	757.812
-1.733	-1.690	-1.124	-3.622	-4.455	-4.841	-0.713	-1.089	0.665	2.388	3.186	3.184	2.148	0.082	-1.516	-3.406	-2.088	4.543	-0.441	-3.551	-0.354	1.490	2.192	1.351	3.094	3.337	1.896	1.269	761.719
-1.451	-1.194	-0.685	-3.196	-4.069	-4.626	-0.682	-1.467	0.027	2.095	2.570	3.035	2.504	0.596	-1.230	-2.748	-1.670	4.641	-0.147	-2.856	0.308	1.673	2.196	0.866	2.500	2.406	0.826	0.487	765.625
-1.045	-0.553	-0.142	-2.634	-3.576	-4.313	-0.718	-1.833	-0.714	1.587	1.725	2.621	2.696	1.138	-0.864	-1.954	-1.149	4.812	0.269	-2.032	1.039	1.931	2.263	0.270	1.838	1.278	-0.501	-0.542	769.531
-0.550	0.178	0.446	-1.986	-3.035	-3.932	-0.830	-2.150	-1.489	0.907	0.744	2.003	2.702	1.643	-0.446	-1.096	-0.563	5.049	0.772	-1.156	1.763	2.231	2.376	-0.389	1.173	0.052	-1.968	-1.710	773.438
0.002	0.951	1.028	-1.304	-2.505	-3.515	-1.031	-2.396	-2.244	0.086	-0.298	1.245	2.503	2.050	0.002	-0.236	0.058	5.358	1.334	-0.298	2.411	2.543	2.522	-1.071	0.569	-1.181	-3.466	-2.916	777.344
0.587	1.731	1.568	-0.630	-2.034	-3.094	-1.335	-2.563	-2.949	-0.854	-1.353	0.403	2.099	2.310	0.466	0.581	0.698	5.746	1.932	0.489	2.934	2.841	2.688	-1.742	0.074	-2.351	-4.910	-4.078	781.250
1.190	2.499	2.047	0.009	-1.649	-2.690	-1.747	-2.662	-3.599	-1.895	-2.396	-0.477	1.503	2.405	0.939	1.334	1.350	6.223	2.553	1.178	3.311	3.111	2.864	-2.382	-0.283	-3.420	-6.252	-5.148	785.156
1.802	3.250	2.464	0.604	-1.358	-2.314	-2.262	-2.712	-4.205	-3.023	-3.423	-1.365	0.747	2.341	1.420	2.022	2.014	6.787	3.190	1.770	3.551	3.349	3.045	-2.985	-0.505	-4.383	-7.482	-6.114	789.062
2.420	3.987	2.833	1.161	-1.144	-1.965	-2.857	-2.734	-4.784	-4.214	-4.439	-2.244	-0.118	2.158	1.909	2.661	2.692	7.422	3.838	2.288	3.689	3.559	3.226	-3.559	-0.622	-5.263	-8.622	-6.993	792.969
3.038	4.717	3.177	1.694	-0.974	-1.637	-3.496	-2.750	-5.355	-5.437	-5.449	-3.105	-1.031	1.911	2.403	3.277	3.380	8.097	4.491	2.767	3.775	3.753	3.406	-4.118	-0.684	-6.097	-9.712	-7.820	796.875
