FP1	F3	F7	FC3	C3	C5	P3	P7	PO7	PO3	O1	Oz	Pz	CPz	FP2	Fz	F4	F8	FC4	FCz	Cz	C4	C6	P4	P8	PO8	PO4	O2	time
0.405	0.691	0.626	0.000	0.084	-0.194	-1.270	-1.152	-2.016	-1.336	-1.766	0.536	1.009	0.349	0.466	0.607	0.681	0.531	0.987	0.803	0.761	0.946	0.797	-0.033	-0.122	-0.471	0.095	0.732	-199.219
0.484	0.395	0.715	0.025	0.131	-0.021	-1.067	-0.707	-1.613	-1.411	-1.602	0.528	0.493	0.170	0.312	0.498	0.482	0.381	0.769	0.665	0.560	0.741	0.802	-0.214	-0.066	-0.292	-0.150	0.500	-195.312
0.531	0.135	0.748	0.041	0.165	0.109	-0.865	-0.303	-1.236	-1.466	-1.435	0.518	0.021	0.001	0.172	0.399	0.311	0.251	0.573	0.532	0.364	0.553	0.799	-0.370	0.001	-0.109	-0.358	0.293	-191.406
0.512	-0.064	0.691	0.042	0.179	0.167	-0.667	0.029	-0.905	-1.480	-1.258	0.502	-0.371	-0.147	0.058	0.318	0.189	0.159	0.417	0.410	0.183	0.399	0.787	-0.473	0.084	0.080	-0.501	0.126	-187.500
0.417	-0.187	0.529	0.026	0.169	0.140	-0.473	0.269	-0.631	-1.433	-1.066	0.481	-0.655	-0.260	-0.022	0.261	0.128	0.115	0.314	0.303	0.026	0.290	0.766	-0.506	0.175	0.269	-0.559	0.010	-183.594
0.256	-0.240	0.273	-0.007	0.137	0.036	-0.286	0.407	-0.419	-1.313	-0.855	0.457	-0.818	-0.330	-0.064	0.228	0.126	0.117	0.269	0.215	-0.096	0.231	0.732	-0.459	0.263	0.446	-0.528	-0.057	-179.688
0.056	-0.239	-0.043	-0.055	0.089	-0.124	-0.111	0.449	-0.263	-1.114	-0.625	0.433	-0.861	-0.349	-0.066	0.214	0.168	0.159	0.276	0.146	-0.173	0.218	0.686	-0.334	0.331	0.596	-0.416	-0.082	-175.781
-0.148	-0.212	-0.367	-0.111	0.034	-0.307	0.049	0.405	-0.156	-0.842	-0.383	0.412	-0.797	-0.313	-0.036	0.212	0.232	0.225	0.322	0.095	-0.202	0.245	0.634	-0.141	0.368	0.703	-0.237	-0.076	-171.875
-0.325	-0.190	-0.649	-0.171	-0.023	-0.481	0.183	0.293	-0.089	-0.519	-0.138	0.396	-0.644	-0.227	0.016	0.214	0.294	0.301	0.392	0.059	-0.179	0.304	0.585	0.107	0.372	0.759	-0.015	-0.055	-167.969
-0.454	-0.195	-0.846	-0.230	-0.078	-0.619	0.286	0.132	-0.058	-0.176	0.094	0.382	-0.425	-0.096	0.081	0.212	0.340	0.376	0.469	0.037	-0.112	0.389	0.553	0.388	0.348	0.761	0.229	-0.033	-164.062
-0.526	-0.241	-0.943	-0.285	-0.131	-0.705	0.352	-0.062	-0.060	0.148	0.296	0.366	-0.161	0.067	0.150	0.206	0.368	0.446	0.545	0.029	-0.009	0.493	0.555	0.683	0.308	0.712	0.471	-0.022	-160.156
-0.548	-0.322	-0.950	-0.331	-0.184	-0.737	0.380	-0.271	-0.097	0.413	0.452	0.341	0.128	0.252	0.219	0.199	0.389	0.516	0.614	0.034	0.118	0.611	0.600	0.970	0.265	0.622	0.694	-0.033	-156.250
-0.534	-0.422	-0.897	-0.368	-0.236	-0.721	0.373	-0.482	-0.167	0.589	0.548	0.303	0.427	0.444	0.290	0.199	0.421	0.589	0.677	0.055	0.258	0.736	0.687	1.230	0.228	0.503	0.883	-0.068	-152.344
-0.505	-0.515	-0.824	-0.394	-0.287	-0.672	0.341	-0.680	-0.265	0.660	0.579	0.250	0.723	0.633	0.361	0.212	0.479	0.667	0.734	0.093	0.399	0.855	0.800	1.444	0.200	0.369	1.027	-0.125	-148.438
-0.478	-0.572	-0.765	-0.406	-0.331	-0.606	0.292	-0.853	-0.377	0.623	0.547	0.187	1.002	0.807	0.429	0.241	0.561	0.743	0.780	0.147	0.532	0.954	0.910	1.599	0.178	0.233	1.123	-0.195	-144.531
-0.465	-0.572	-0.730	-0.402	-0.362	-0.537	0.234	-0.991	-0.488	0.494	0.465	0.121	1.250	0.955	0.485	0.284	0.652	0.801	0.805	0.214	0.651	1.014	0.982	1.684	0.154	0.110	1.171	-0.265	-140.625
-0.471	-0.506	-0.711	-0.382	-0.374	-0.470	0.173	-1.086	-0.578	0.294	0.351	0.061	1.449	1.065	0.514	0.333	0.721	0.820	0.797	0.288	0.749	1.019	0.983	1.695	0.121	0.012	1.172	-0.323	-136.719
-0.491	-0.377	-0.679	-0.342	-0.360	-0.406	0.110	-1.130	-0.631	0.051	0.226	0.014	1.579	1.128	0.503	0.381	0.736	0.780	0.748	0.363	0.822	0.959	0.894	1.633	0.071	-0.049	1.131	-0.357	-132.812
-0.511	-0.201	-0.602	-0.283	-0.320	-0.339	0.040	-1.120	-0.638	-0.208	0.107	-0.018	1.620	1.135	0.446	0.419	0.676	0.670	0.655	0.433	0.864	0.832	0.714	1.503	0.004	-0.070	1.048	-0.359	-128.906
-0.512	-0.004	-0.458	-0.207	-0.257	-0.263	-0.040	-1.054	-0.594	-0.458	0.010	-0.037	1.555	1.080	0.346	0.443	0.539	0.497	0.525	0.491	0.871	0.647	0.462	1.314	-0.073	-0.049	0.923	-0.330	-125.000
-0.478	0.186	-0.244	-0.118	-0.179	-0.172	-0.132	-0.933	-0.502	-0.676	-0.061	-0.051	1.373	0.958	0.216	0.451	0.345	0.281	0.371	0.531	0.837	0.420	0.173	1.075	-0.146	0.006	0.753	-0.275	-121.094
-0.395	0.342	0.018	-0.027	-0.097	-0.066	-0.233	-0.762	-0.368	-0.840	-0.106	-0.069	1.077	0.772	0.076	0.444	0.128	0.050	0.212	0.547	0.758	0.173	-0.113	0.800	-0.195	0.085	0.537	-0.209	-117.188
-0.264	0.442	0.292	0.056	-0.023	0.050	-0.331	-0.549	-0.204	-0.929	-0.126	-0.101	0.682	0.532	-0.054	0.421	-0.074	-0.163	0.058	0.531	0.633	-0.072	-0.358	0.503	-0.201	0.173	0.279	-0.150	-113.281
-0.099	0.475	0.535	0.119	0.034	0.165	-0.410	-0.308	-0.021	-0.922	-0.127	-0.154	0.222	0.255	-0.158	0.381	-0.232	-0.333	-0.081	0.478	0.463	-0.295	-0.534	0.201	-0.152	0.260	-0.009	-0.114	-109.375
0.076	0.440	0.711	0.155	0.069	0.266	-0.451	-0.055	0.165	-0.807	-0.109	-0.232	-0.262	-0.039	-0.230	0.320	-0.331	-0.444	-0.204	0.385	0.259	-0.483	-0.628	-0.087	-0.046	0.334	-0.309	-0.116	-105.469
0.233	0.345	0.799	0.159	0.081	0.341	-0.435	0.187	0.342	-0.580	-0.070	-0.329	-0.718	-0.322	-0.270	0.234	-0.373	-0.492	-0.313	0.254	0.035	-0.622	-0.638	-0.342	0.104	0.388	-0.591	-0.159	-101.562
0.349	0.208	0.793	0.132	0.072	0.379	-0.357	0.397	0.496	-0.253	-0.005	-0.436	-1.095	-0.571	-0.285	0.118	-0.372	-0.486	-0.408	0.092	-0.189	-0.707	-0.577	-0.545	0.272	0.417	-0.824	-0.236	-97.656
0.408	0.051	0.700	0.081	0.048	0.377	-0.218	0.555	0.616	0.148	0.089	-0.535	-1.349	-0.764	-0.283	-0.027	-0.351	-0.438	-0.488	-0.089	-0.392	-0.733	-0.465	-0.680	0.428	0.419	-0.978	-0.329	-93.750
0.407	-0.102	0.536	0.016	0.013	0.336	-0.037	0.648	0.693	0.585	0.213	-0.610	-1.453	-0.886	-0.270	-0.195	-0.332	-0.364	-0.548	-0.274	-0.555	-0.701	-0.324	-0.738	0.540	0.392	-1.029	-0.414	-89.844
0.354	-0.230	0.320	-0.055	-0.028	0.266	0.162	0.669	0.725	1.011	0.363	-0.642	-1.396	-0.928	-0.252	-0.374	-0.328	-0.280	-0.579	-0.446	-0.665	-0.615	-0.177	-0.718	0.588	0.334	-0.968	-0.464	-85.938
0.265	-0.321	0.069	-0.120	-0.069	0.181	0.348	0.623	0.714	1.382	0.528	-0.622	-1.187	-0.893	-0.227	-0.547	-0.342	-0.194	-0.576	-0.589	-0.715	-0.487	-0.046	-0.627	0.561	0.248	-0.801	-0.460	-82.031
0.158	-0.368	-0.195	-0.171	-0.105	0.098	0.497	0.521	0.668	1.661	0.693	-0.547	-0.856	-0.786	-0.194	-0.694	-0.368	-0.116	-0.538	-0.691	-0.704	-0.332	0.055	-0.481	0.463	0.134	-0.551	-0.392	-78.125
0.053	-0.374	-0.448	-0.203	-0.129	0.030	0.592	0.381	0.598	1.827	0.839	-0.424	-0.442	-0.620	-0.153	-0.800	-0.396	-0.051	-0.469	-0.743	-0.638	-0.167	0.113	-0.304	0.310	-0.002	-0.255	-0.267	-74.219
-0.040	-0.349	-0.659	-0.210	-0.138	-0.013	0.629	0.224	0.519	1.875	0.949	-0.270	0.006	-0.408	-0.105	-0.852	-0.411	-0.001	-0.384	-0.740	-0.528	-0.014	0.124	-0.122	0.124	-0.153	0.043	-0.102	-70.312
-0.115	-0.303	-0.799	-0.192	-0.128	-0.033	0.613	0.071	0.441	1.814	1.008	-0.107	0.441	-0.169	-0.056	-0.846	-0.404	0.030	-0.296	-0.685	-0.386	0.110	0.086	0.038	-0.067	-0.308	0.301	0.078	-66.406
-0.179	-0.247	-0.843	-0.151	-0.102	-0.037	0.559	-0.062	0.372	1.665	1.008	0.045	0.820	0.078	-0.013	-0.788	-0.369	0.043	-0.220	-0.586	-0.229	0.191	0.009	0.159	-0.235	-0.453	0.489	0.247	-62.500
-0.240	-0.187	-0.783	-0.093	-0.067	-0.039	0.479	-0.164	0.314	1.451	0.948	0.169	1.112	0.313	0.016	-0.688	-0.304	0.037	-0.165	-0.458	-0.073	0.221	-0.099	0.229	-0.360	-0.572	0.593	0.388	-58.594
-0.306	-0.125	-0.630	-0.026	-0.032	-0.053	0.388	-0.231	0.264	1.193	0.834	0.254	1.297	0.513	0.026	-0.562	-0.214	0.018	-0.135	-0.320	0.065	0.200	-0.223	0.247	-0.425	-0.648	0.620	0.495	-54.688
-0.381	-0.061	-0.415	0.041	-0.007	-0.089	0.291	-0.260	0.219	0.909	0.678	0.299	1.364	0.655	0.015	-0.429	-0.108	-0.011	-0.128	-0.190	0.167	0.134	-0.352	0.220	-0.425	-0.668	0.590	0.571	-50.781
-0.458	0.006	-0.176	0.097	0.001	-0.147	0.190	-0.253	0.174	0.610	0.494	0.309	1.314	0.721	-0.014	-0.304	0.001	-0.047	-0.141	-0.088	0.221	0.030	-0.472	0.158	-0.368	-0.627	0.526	0.629	-46.875
-0.525	0.076	0.045	0.140	-0.011	-0.216	0.084	-0.211	0.130	0.306	0.297	0.290	1.155	0.697	-0.058	-0.198	0.094	-0.089	-0.171	-0.024	0.219	-0.100	-0.576	0.067	-0.271	-0.533	0.452	0.678	-42.969
-0.558	0.151	0.223	0.170	-0.037	-0.275	-0.026	-0.136	0.090	0.007	0.100	0.248	0.898	0.580	-0.111	-0.118	0.152	-0.138	-0.214	-0.001	0.160	-0.242	-0.657	-0.047	-0.158	-0.405	0.374	0.721	-39.062
-0.532	0.230	0.351	0.192	-0.066	-0.299	-0.134	-0.026	0.062	-0.272	-0.087	0.184	0.561	0.379	-0.164	-0.062	0.161	-0.198	-0.271	-0.016	0.049	-0.387	-0.713	-0.187	-0.059	-0.271	0.286	0.750	-35.156
-0.427	0.312	0.442	0.220	-0.077	-0.261	-0.229	0.118	0.059	-0.510	-0.253	0.095	0.163	0.111	-0.212	-0.029	0.115	-0.272	-0.340	-0.056	-0.102	-0.526	-0.749	-0.360	0.000	-0.166	0.168	0.745	-31.250
-0.234	0.398	0.528	0.264	-0.052	-0.142	-0.293	0.295	0.092	-0.682	-0.391	-0.022	-0.274	-0.195	-0.249	-0.014	0.020	-0.361	-0.418	-0.110	-0.275	-0.655	-0.776	-0.574	0.001	-0.119	-0.005	0.682	-27.344
0.036	0.489	0.640	0.334	0.027	0.063	-0.306	0.505	0.169	-0.761	-0.493	-0.170	-0.723	-0.507	-0.270	-0.013	-0.102	-0.460	-0.498	-0.164	-0.452	-0.772	-0.808	-0.833	-0.065	-0.152	-0.251	0.536	-23.438
0.350	0.587	0.799	0.432	0.169	0.341	-0.256	0.740	0.292	-0.730	-0.553	-0.345	-1.159	-0.793	-0.272	-0.023	-0.218	-0.561	-0.569	-0.210	-0.612	-0.876	-0.857	-1.132	-0.193	-0.266	-0.574	0.298	-19.531
0.662	0.688	1.007	0.553	0.368	0.662	-0.139	0.989	0.455	-0.584	-0.563	-0.537	-1.553	-1.029	-0.255	-0.042	-0.291	-0.647	-0.618	-0.244	-0.742	-0.966	-0.929	-1.455	-0.364	-0.444	-0.956	-0.027	-15.625
0.923	0.787	1.235	0.680	0.607	0.982	0.036	1.236	0.646	-0.332	-0.522	-0.730	-1.880	-1.198	-0.221	-0.073	-0.294	-0.705	-0.634	-0.270	-0.835	-1.039	-1.023	-1.774	-0.546	-0.654	-1.355	-0.411	-11.719
1.085	0.872	1.434	0.789	0.853	1.249	0.249	1.462	0.848	-0.002	-0.427	-0.900	-2.118	-1.299	-0.176	-0.119	-0.219	-0.722	-0.613	-0.296	-0.891	-1.090	-1.125	-2.049	-0.702	-0.850	-1.715	-0.807	-7.812
1.122	0.927	1.546	0.854	1.068	1.417	0.473	1.645	1.046	0.372	-0.281	-1.021	-2.250	-1.340	-0.131	-0.190	-0.082	-0.694	-0.562	-0.336	-0.920	-1.115	-1.218	-2.241	-0.793	-0.988	-1.972	-1.157	-3.906
1.026	0.932	1.515	0.850	1.214	1.452	0.683	1.769	1.230	0.752	-0.088	-1.068	-2.264	-1.338	-0.097	-0.292	0.081	-0.628	-0.498	-0.401	-0.935	-1.110	-1.281	-2.316	-0.789	-1.030	-2.072	-1.402	0.000
0.821	0.871	1.314	0.761	1.261	1.346	0.856	1.824	1.392	1.104	0.143	-1.023	-2.158	-1.312	-0.081	-0.429	0.226	-0.533	-0.442	-0.503	-0.951	-1.074	-1.300	-2.253	-0.680	-0.957	-1.984	-1.495	3.906
0.547	0.738	0.946	0.584	1.195	1.110	0.981	1.805	1.530	1.405	0.401	-0.883	-1.936	-1.280	-0.086	-0.602	0.313	-0.427	-0.413	-0.642	-0.977	-1.012	-1.268	-2.050	-0.474	-0.771	-1.703	-1.411	7.812
0.263	0.533	0.458	0.330	1.019	0.780	1.051	1.717	1.639	1.641	0.667	-0.654	-1.615	-1.254	-0.110	-0.805	0.318	-0.326	-0.425	-0.812	-1.020	-0.929	-1.187	-1.724	-0.199	-0.497	-1.257	-1.155	11.719
0.024	0.272	-0.072	0.024	0.754	0.399	1.070	1.573	1.716	1.809	0.917	-0.358	-1.219	-1.239	-0.144	-1.025	0.233	-0.245	-0.482	-1.002	-1.074	-0.838	-1.074	-1.310	0.102	-0.176	-0.698	-0.759	15.625
-0.124	-0.021	-0.549	-0.302	0.432	0.019	1.046	1.388	1.752	1.911	1.130	-0.026	-0.782	-1.234	-0.182	-1.249	0.065	-0.199	-0.585	-1.191	-1.134	-0.752	-0.951	-0.856	0.385	0.142	-0.094	-0.281	19.531
-0.159	-0.314	-0.888	-0.611	0.095	-0.314	0.989	1.185	1.742	1.955	1.284	0.306	-0.346	-1.233	-0.223	-1.459	-0.167	-0.199	-0.726	-1.363	-1.189	-0.690	-0.845	-0.414	0.611	0.412	0.486	0.215	23.438
-0.087	-0.573	-1.027	-0.870	-0.219	-0.564	0.912	0.985	1.683	1.946	1.370	0.605	0.051	-1.231	-0.266	-1.638	-0.441	-0.251	-0.898	-1.505	-1.230	-0.667	-0.784	-0.029	0.757	0.601	0.981	0.667	27.344
0.064	-0.765	-0.950	-1.054	-0.475	-0.711	0.828	0.816	1.581	1.891	1.389	0.846	0.368	-1.225	-0.318	-1.776	-0.733	-0.358	-1.092	-1.607	-1.252	-0.697	-0.789	0.259	0.817	0.695	1.349	1.027	31.250
0.252	-0.867	-0.687	-1.150	-0.651	-0.749	0.751	0.701	1.453	1.798	1.358	1.011	0.579	-1.215	-0.383	-1.864	-1.019	-0.511	-1.297	-1.672	-1.255	-0.785	-0.869	0.427	0.800	0.703	1.568	1.272	35.156
0.433	-0.869	-0.305	-1.158	-0.736	-0.689	0.696	0.660	1.326	1.676	1.301	1.097	0.665	-1.205	-0.462	-1.901	-1.273	-0.697	-1.500	-1.704	-1.246	-0.927	-1.023	0.466	0.726	0.650	1.637	1.400	39.062
0.578	-0.775	0.109	-1.090	-0.734	-0.553	0.677	0.706	1.231	1.538	1.251	1.104	0.622	-1.205	-0.547	-1.896	-1.474	-0.892	-1.685	-1.716	-1.235	-1.113	-1.234	0.384	0.623	0.572	1.573	1.428	42.969
0.679	-0.611	0.469	-0.966	-0.658	-0.368	0.708	0.842	1.198	1.402	1.235	1.040	0.461	-1.223	-0.626	-1.860	-1.603	-1.072	-1.838	-1.721	-1.237	-1.323	-1.477	0.199	0.515	0.506	1.403	1.384	46.875
0.749	-0.413	0.714	-0.811	-0.526	-0.162	0.797	1.058	1.248	1.289	1.269	0.912	0.201	-1.271	-0.685	-1.812	-1.655	-1.215	-1.947	-1.735	-1.267	-1.537	-1.722	-0.062	0.428	0.480	1.160	1.300	50.781
0.814	-0.222	0.813	-0.651	-0.362	0.037	0.942	1.331	1.384	1.218	1.355	0.728	-0.127	-1.357	-0.713	-1.769	-1.638	-1.308	-2.009	-1.769	-1.336	-1.734	-1.940	-0.368	0.378	0.516	0.881	1.205	54.688
0.892	-0.076	0.772	-0.507	-0.190	0.207	1.132	1.625	1.589	1.200	1.474	0.494	-0.489	-1.485	-0.706	-1.746	-1.568	-1.346	-2.027	-1.831	-1.450	-1.899	-2.105	-0.682	0.378	0.619	0.602	1.124	58.594
0.989	0.002	0.619	-0.394	-0.034	0.329	1.343	1.896	1.830	1.239	1.599	0.223	-0.848	-1.652	-0.669	-1.752	-1.472	-1.334	-2.010	-1.922	-1.606	-2.022	-2.201	-0.969	0.433	0.788	0.363	1.080	62.500
1.083	0.010	0.391	-0.321	0.089	0.390	1.548	2.102	2.062	1.329	1.701	-0.068	-1.169	-1.845	-0.616	-1.787	-1.370	-1.279	-1.963	-2.037	-1.792	-2.095	-2.222	-1.196	0.543	1.014	0.201	1.094	66.406
1.136	-0.041	0.127	-0.288	0.166	0.384	1.716	2.210	2.243	1.458	1.757	-0.353	-1.420	-2.045	-0.563	-1.844	-1.279	-1.191	-1.895	-2.166	-1.990	-2.116	-2.169	-1.332	0.702	1.282	0.148	1.187	70.312
1.105	-0.127	-0.141	-0.296	0.186	0.307	1.827	2.203	2.348	1.616	1.762	-0.602	-1.581	-2.230	-0.527	-1.915	-1.207	-1.080	-1.809	-2.301	-2.180	-2.087	-2.054	-1.359	0.902	1.579	0.227	1.378	74.219
0.954	-0.235	-0.392	-0.343	0.146	0.165	1.873	2.090	2.373	1.797	1.731	-0.775	-1.645	-2.381	-0.523	-1.996	-1.158	-0.961	-1.714	-2.432	-2.347	-2.015	-1.896	-1.270	1.128	1.891	0.447	1.680	78.125
0.672	-0.361	-0.612	-0.436	0.043	-0.036	1.864	1.902	2.348	2.008	1.701	-0.836	-1.615	-2.485	-0.560	-2.089	-1.138	-0.847	-1.627	-2.562	-2.487	-1.920	-1.724	-1.074	1.366	2.205	0.800	2.099	82.031
0.276	-0.523	-0.796	-0.583	-0.122	-0.283	1.828	1.690	2.331	2.268	1.726	-0.749	-1.506	-2.539	-0.646	-2.208	-1.160	-0.758	-1.571	-2.699	-2.606	-1.824	-1.573	-0.790	1.601	2.517	1.264	2.635	85.938
-0.199	-0.753	-0.951	-0.796	-0.348	-0.561	1.800	1.514	2.393	2.603	1.864	-0.487	-1.338	-2.552	-0.783	-2.374	-1.241	-0.714	-1.574	-2.860	-2.719	-1.760	-1.478	-0.448	1.822	2.831	1.811	3.277	89.844
-0.710	-1.086	-1.091	-1.085	-0.629	-0.855	1.818	1.431	2.603	3.044	2.167	-0.037	-1.131	-2.539	-0.972	-2.609	-1.400	-0.733	-1.664	-3.063	-2.846	-1.755	-1.467	-0.076	2.022	3.161	2.410	4.013	93.750
-1.225	-1.547	-1.247	-1.451	-0.957	-1.151	1.911	1.480	3.013	3.610	2.671	0.602	-0.905	-2.518	-1.210	-2.930	-1.651	-0.825	-1.858	-3.325	-3.007	-1.831	-1.559	0.304	2.202	3.530	3.043	4.829	97.656
-1.728	-2.139	-1.451	-1.890	-1.322	-1.440	2.092	1.677	3.638	4.304	3.382	1.414	-0.673	-2.507	-1.494	-3.343	-1.999	-0.989	-2.158	-3.654	-3.212	-1.995	-1.755	0.674	2.368	3.967	3.698	5.709	101.562
-2.217	-2.838	-1.731	-2.386	-1.711	-1.720	2.355	2.009	4.453	5.108	4.278	2.368	-0.447	-2.522	-1.817	-3.838	-2.435	-1.213	-2.548	-4.047	-3.465	-2.239	-2.042	1.026	2.528	4.495	4.372	6.632	105.469
-2.700	-3.600	-2.097	-2.915	-2.111	-1.992	2.673	2.442	5.396	5.979	5.304	3.417	-0.239	-2.573	-2.165	-4.391	-2.934	-1.476	-2.997	-4.489	-3.758	-2.540	-2.389	1.355	2.691	5.124	5.066	7.574	109.375
-3.182	-4.361	-2.533	-3.446	-2.506	-2.258	3.009	2.924	6.378	6.860	6.386	4.507	-0.060	-2.663	-2.524	-4.966	-3.461	-1.753	-3.462	-4.954	-4.072	-2.864	-2.756	1.655	2.859	5.841	5.770	8.500	113.281
-3.660	-5.055	-2.996	-3.948	-2.877	-2.519	3.320	3.398	7.305	7.684	7.438	5.573	0.077	-2.789	-2.874	-5.517	-3.975	-2.016	-3.898	-5.406	-4.383	-3.176	-3.101	1.916	3.025	6.610	6.467	9.366	117.188
-4.121	-5.616	-3.428	-4.384	-3.204	-2.766	3.569	3.811	8.088	8.392	8.373	6.552	0.157	-2.945	-3.194	-5.997	-4.432	-2.241	-4.264	-5.808	-4.665	-3.442	-3.386	2.125	3.174	7.369	7.122	10.118	121.094
-4.541	-5.992	-3.765	-4.721	-3.462	-2.984	3.733	4.122	8.663	8.935	9.120	7.385	0.170	-3.119	-3.459	-6.362	-4.793	-2.412	-4.527	-6.125	-4.894	-3.641	-3.587	2.263	3.285	8.041	7.690	10.703	125.000
-4.889	-6.150	-3.959	-4.932	-3.629	-3.151	3.807	4.308	9.000	9.289	9.631	8.022	0.108	-3.299	-3.651	-6.578	-5.025	-2.516	-4.670	-6.326	-5.051	-3.761	-3.695	2.311	3.332	8.550	8.121	11.074	128.906
-5.134	-6.078	-3.987	-4.996	-3.683	-3.242	3.803	4.366	9.101	9.452	9.889	8.430	-0.029	-3.469	-3.751	-6.628	-5.108	-2.548	-4.686	-6.395	-5.123	-3.804	-3.717	2.257	3.297	8.828	8.370	11.199	132.812
-5.253	-5.793	-3.862	-4.908	-3.613	-3.237	3.750	4.311	8.999	9.442	9.906	8.595	-0.232	-3.614	-3.746	-6.511	-5.032	-2.510	-4.583	-6.324	-5.105	-3.783	-3.669	2.095	3.166	8.838	8.404	11.069	136.719
-5.235	-5.335	-3.628	-4.675	-3.415	-3.123	3.682	4.171	8.750	9.292	9.719	8.524	-0.482	-3.718	-3.634	-6.248	-4.799	-2.404	-4.375	-6.125	-5.000	-3.711	-3.576	1.838	2.941	8.574	8.214	10.698	140.625
-5.084	-4.767	-3.349	-4.319	-3.099	-2.902	3.637	3.979	8.413	9.043	9.385	8.242	-0.752	-3.766	-3.421	-5.872	-4.428	-2.239	-4.088	-5.818	-4.815	-3.603	-3.458	1.507	2.637	8.068	7.814	10.127	144.531
-4.822	-4.160	-3.091	-3.876	-2.687	-2.591	3.641	3.770	8.049	8.734	8.967	7.791	-1.013	-3.746	-3.125	-5.431	-3.954	-2.029	-3.747	-5.436	-4.566	-3.468	-3.332	1.138	2.281	7.386	7.247	9.415	148.438
-4.486	-3.584	-2.904	-3.389	-2.210	-2.220	3.711	3.570	7.701	8.404	8.522	7.225	-1.237	-3.653	-2.779	-4.976	-3.426	-1.790	-3.383	-5.015	-4.271	-3.313	-3.208	0.777	1.912	6.616	6.574	8.632	152.344
-4.122	-3.099	-2.808	-2.906	-1.708	-1.829	3.844	3.393	7.395	8.083	8.095	6.603	-1.397	-3.488	-2.421	-4.554	-2.904	-1.548	-3.025	-4.596	-3.951	-3.140	-3.092	0.466	1.567	5.854	5.873	7.850	156.250
-3.782	-2.746	-2.792	-2.474	-1.219	-1.461	4.029	3.243	7.139	7.795	7.718	5.984	-1.475	-3.261	-2.096	-4.206	-2.451	-1.328	-2.704	-4.213	-3.629	-2.952	-2.988	0.246	1.282	5.189	5.222	7.137	160.156
-3.514	-2.542	-2.823	-2.130	-0.780	-1.155	4.244	3.114	6.924	7.557	7.404	5.420	-1.461	-2.990	-1.843	-3.958	-2.123	-1.156	-2.442	-3.895	-3.327	-2.755	-2.897	0.145	1.086	4.692	4.695	6.547	164.062
-3.355	-2.480	-2.860	-1.897	-0.419	-0.942	4.465	2.991	6.733	7.382	7.157	4.957	-1.350	-2.696	-1.692	-3.819	-1.954	-1.050	-2.259	-3.662	-3.064	-2.560	-2.827	0.175	0.990	4.405	4.351	6.118	167.969
-3.324	-2.537	-2.871	-1.784	-0.153	-0.838	4.674	2.861	6.551	7.280	6.977	4.625	-1.147	-2.403	-1.650	-3.786	-1.953	-1.017	-2.162	-3.523	-2.853	-2.376	-2.782	0.336	0.997	4.340	4.224	5.870	171.875
-3.416	-2.677	-2.843	-1.784	0.010	-0.847	4.859	2.715	6.370	7.257	6.858	4.438	-0.861	-2.131	-1.705	-3.843	-2.096	-1.047	-2.151	-3.475	-2.702	-2.218	-2.767	0.611	1.096	4.485	4.325	5.800	175.781
-3.605	-2.863	-2.786	-1.877	0.073	-0.957	5.017	2.550	6.190	7.312	6.795	4.392	-0.510	-1.896	-1.824	-3.964	-2.330	-1.118	-2.212	-3.507	-2.613	-2.095	-2.783	0.972	1.268	4.803	4.635	5.891	179.688
-3.851	-3.058	-2.726	-2.037	0.047	-1.148	5.154	2.375	6.022	7.441	6.784	4.468	-0.114	-1.710	-1.967	-4.124	-2.594	-1.202	-2.324	-3.602	-2.583	-2.013	-2.829	1.388	1.491	5.244	5.114	6.105	183.594
-4.104	-3.234	-2.697	-2.235	-0.056	-1.392	5.277	2.206	5.886	7.630	6.816	4.633	0.300	-1.577	-2.094	-4.300	-2.826	-1.272	-2.464	-3.742	-2.606	-1.975	-2.901	1.822	1.742	5.754	5.705	6.402	187.500
-4.327	-3.374	-2.722	-2.444	-0.219	-1.658	5.397	2.066	5.804	7.863	6.886	4.845	0.701	-1.500	-2.178	-4.478	-2.987	-1.311	-2.611	-3.907	-2.676	-1.979	-2.995	2.239	1.999	6.283	6.343	6.737	191.406
-4.492	-3.470	-2.812	-2.644	-0.423	-1.916	5.524	1.983	5.798	8.118	6.983	5.065	1.055	-1.478	-2.211	-4.650	-3.063	-1.316	-2.752	-4.084	-2.788	-2.022	-3.109	2.611	2.245	6.788	6.968	7.073	195.312
-4.596	-3.528	-2.960	-2.824	-0.651	-2.141	5.666	1.983	5.888	8.374	7.101	5.260	1.330	-1.509	-2.203	-4.817	-3.068	-1.300	-2.879	-4.265	-2.937	-2.097	-3.239	2.914	2.467	7.242	7.531	7.383	199.219
-4.651	-3.561	-3.148	-2.979	-0.888	-2.312	5.828	2.085	6.081	8.616	7.233	5.407	1.501	-1.589	-2.179	-4.984	-3.033	-1.279	-2.990	-4.448	-3.120	-2.199	-3.384	3.137	2.657	7.634	8.002	7.655	203.125
-4.684	-3.585	-3.354	-3.111	-1.121	-2.417	6.009	2.301	6.379	8.833	7.376	5.499	1.552	-1.714	-2.165	-5.155	-2.996	-1.274	-3.088	-4.638	-3.334	-2.321	-3.539	3.278	2.812	7.969	8.373	7.888	207.031
-4.722	-3.619	-3.557	-3.225	-1.337	-2.453	6.207	2.628	6.768	9.022	7.531	5.544	1.486	-1.875	-2.185	-5.334	-2.985	-1.298	-3.179	-4.838	-3.576	-2.457	-3.699	3.346	2.933	8.263	8.659	8.088	210.938
-4.789	-3.674	-3.747	-3.326	-1.532	-2.424	6.414	3.048	7.225	9.183	7.698	5.557	1.319	-2.059	-2.248	-5.519	-3.013	-1.353	-3.266	-5.055	-3.840	-2.600	-3.858	3.360	3.028	8.538	8.890	8.270	214.844
-4.898	-3.758	-3.918	-3.420	-1.699	-2.340	6.619	3.528	7.717	9.321	7.881	5.560	1.084	-2.252	-2.351	-5.704	-3.078	-1.434	-3.355	-5.288	-4.117	-2.743	-4.010	3.346	3.105	8.815	9.107	8.448	218.750
-5.043	-3.872	-4.066	-3.512	-1.837	-2.218	6.810	4.026	8.203	9.441	8.081	5.573	0.825	-2.433	-2.480	-5.887	-3.171	-1.530	-3.455	-5.535	-4.394	-2.881	-4.152	3.329	3.176	9.108	9.345	8.634	222.656
-5.202	-4.019	-4.189	-3.607	-1.947	-2.078	6.976	4.495	8.644	9.547	8.295	5.611	0.587	-2.586	-2.620	-6.063	-3.289	-1.635	-3.577	-5.788	-4.656	-3.011	-4.286	3.332	3.245	9.420	9.635	8.835	226.562
-5.342	-4.199	-4.277	-3.711	-2.032	-1.939	7.109	4.892	9.005	9.642	8.521	5.682	0.415	-2.693	-2.758	-6.240	-3.440	-1.749	-3.737	-6.039	-4.887	-3.130	-4.416	3.372	3.312	9.740	9.988	9.054	230.469
-5.425	-4.416	-4.323	-3.829	-2.092	-1.822	7.205	5.188	9.262	9.730	8.750	5.782	0.341	-2.742	-2.885	-6.425	-3.638	-1.878	-3.947	-6.278	-5.073	-3.240	-4.549	3.455	3.376	10.050	10.401	9.285	234.375
-5.420	-4.667	-4.317	-3.965	-2.132	-1.742	7.269	5.370	9.408	9.812	8.970	5.903	0.382	-2.728	-2.998	-6.630	-3.900	-2.027	-4.211	-6.499	-5.202	-3.342	-4.688	3.581	3.428	10.329	10.855	9.519	238.281
-5.317	-4.945	-4.256	-4.119	-2.153	-1.707	7.307	5.441	9.449	9.890	9.168	6.032	0.541	-2.647	-3.096	-6.860	-4.226	-2.197	-4.518	-6.694	-5.266	-3.434	-4.830	3.742	3.464	10.559	11.324	9.746	242.188
-5.135	-5.229	-4.151	-4.282	-2.155	-1.720	7.333	5.423	9.405	9.962	9.330	6.157	0.807	-2.504	-3.178	-7.111	-4.595	-2.376	-4.841	-6.859	-5.262	-3.514	-4.969	3.928	3.484	10.734	11.780	9.953	246.094
-4.919	-5.488	-4.024	-4.441	-2.137	-1.774	7.360	5.348	9.307	10.031	9.445	6.267	1.160	-2.306	-3.243	-7.370	-4.965	-2.545	-5.143	-6.989	-5.194	-3.578	-5.094	4.128	3.490	10.856	12.198	10.135	250.000
-4.727	-5.687	-3.910	-4.578	-2.100	-1.858	7.400	5.256	9.189	10.099	9.506	6.358	1.574	-2.059	-3.289	-7.613	-5.286	-2.682	-5.386	-7.084	-5.072	-3.624	-5.197	4.329	3.487	10.937	12.561	10.288	253.906
-4.615	-5.798	-3.846	-4.679	-2.046	-1.953	7.463	5.182	9.085	10.167	9.513	6.430	2.025	-1.778	-3.315	-7.820	-5.514	-2.768	-5.546	-7.145	-4.911	-3.652	-5.273	4.522	3.479	10.990	12.860	10.414	257.812
-4.619	-5.809	-3.860	-4.735	-1.979	-2.040	7.554	5.156	9.022	10.243	9.476	6.488	2.492	-1.477	-3.325	-7.975	-5.625	-2.796	-5.619	-7.183	-4.734	-3.670	-5.328	4.695	3.466	11.030	13.090	10.517	261.719
-4.742	-5.729	-3.965	-4.748	-1.906	-2.102	7.672	5.196	9.020	10.332	9.409	6.538	2.958	-1.175	-3.322	-8.077	-5.626	-2.774	-5.622	-7.209	-4.565	-3.690	-5.374	4.838	3.440	11.062	13.252	10.601	265.625
-4.956	-5.590	-4.149	-4.729	-1.833	-2.124	7.815	5.306	9.086	10.439	9.333	6.587	3.408	-0.892	-3.313	-8.135	-5.545	-2.724	-5.592	-7.240	-4.427	-3.727	-5.426	4.940	3.390	11.085	13.348	10.666	269.531
-5.207	-5.437	-4.382	-4.694	-1.768	-2.099	7.973	5.480	9.215	10.570	9.268	6.637	3.828	-0.649	-3.305	-8.171	-5.428	-2.672	-5.571	-7.290	-4.339	-3.796	-5.497	4.994	3.302	11.091	13.378	10.708	273.438
-5.428	-5.314	-4.620	-4.661	-1.715	-2.027	8.140	5.700	9.394	10.725	9.233	6.684	4.205	-0.463	-3.301	-8.208	-5.323	-2.642	-5.594	-7.367	-4.309	-3.903	-5.590	4.993	3.167	11.067	13.343	10.716	277.344
-5.565	-5.253	-4.824	-4.642	-1.676	-1.918	8.309	5.942	9.598	10.900	9.238	6.724	4.522	-0.346	-3.302	-8.262	-5.261	-2.648	-5.678	-7.473	-4.341	-4.045	-5.701	4.939	2.985	11.004	13.243	10.676	281.250
-5.581	-5.262	-4.962	-4.643	-1.651	-1.787	8.475	6.185	9.801	11.088	9.281	6.748	4.766	-0.305	-3.302	-8.341	-5.257	-2.689	-5.818	-7.601	-4.424	-4.207	-5.813	4.838	2.765	10.900	13.083	10.578	285.156
-5.475	-5.323	-5.028	-4.660	-1.637	-1.653	8.636	6.408	9.981	11.279	9.355	6.749	4.924	-0.337	-3.295	-8.440	-5.298	-2.751	-5.985	-7.735	-4.545	-4.366	-5.903	4.703	2.526	10.760	12.871	10.413	289.062
-5.277	-5.399	-5.032	-4.682	-1.625	-1.535	8.795	6.596	10.117	11.463	9.441	6.722	4.991	-0.430	-3.271	-8.541	-5.352	-2.808	-6.142	-7.859	-4.684	-4.497	-5.949	4.554	2.296	10.596	12.621	10.185	292.969
-5.036	-5.447	-5.005	-4.695	-1.612	-1.448	8.952	6.740	10.199	11.630	9.519	6.665	4.968	-0.570	-3.224	-8.620	-5.381	-2.834	-6.248	-7.955	-4.822	-4.577	-5.934	4.409	2.099	10.426	12.353	9.905	296.875
-4.809	-5.426	-4.978	-4.686	-1.589	-1.400	9.109	6.837	10.224	11.773	9.570	6.581	4.864	-0.733	-3.149	-8.654	-5.345	-2.806	-6.273	-8.010	-4.942	-4.590	-5.854	4.287	1.958	10.266	12.086	9.597	300.781
-4.648	-5.316	-4.982	-4.648	-1.556	-1.393	9.264	6.885	10.194	11.890	9.577	6.475	4.699	-0.896	-3.047	-8.628	-5.221	-2.714	-6.205	-8.015	-5.029	-4.533	-5.718	4.200	1.887	10.127	11.838	9.289	304.688
-4.584	-5.119	-5.031	-4.581	-1.511	-1.425	9.413	6.884	10.115	11.981	9.531	6.355	4.498	-1.036	-2.924	-8.537	-5.003	-2.561	-6.047	-7.972	-5.074	-4.412	-5.544	4.153	1.888	10.015	11.625	9.010	308.594
-4.630	-4.861	-5.126	-4.491	-1.460	-1.484	9.548	6.836	9.993	12.046	9.431	6.226	4.290	-1.131	-2.790	-8.386	-4.704	-2.361	-5.822	-7.885	-5.073	-4.240	-5.354	4.147	1.956	9.926	11.456	8.787	312.500
-4.780	-4.582	-5.250	-4.388	-1.405	-1.561	9.662	6.744	9.835	12.091	9.282	6.096	4.104	-1.167	-2.659	-8.193	-4.355	-2.137	-5.559	-7.765	-5.024	-4.037	-5.173	4.175	2.074	9.855	11.335	8.641	316.406
-5.017	-4.328	-5.378	-4.285	-1.354	-1.643	9.748	6.614	9.651	12.120	9.097	5.970	3.963	-1.136	-2.545	-7.981	-3.989	-1.912	-5.288	-7.624	-4.931	-3.821	-5.018	4.230	2.222	9.795	11.262	8.581	320.312
-5.316	-4.137	-5.481	-4.191	-1.306	-1.718	9.804	6.458	9.452	12.141	8.893	5.854	3.885	-1.041	-2.460	-7.775	-3.641	-1.709	-5.032	-7.473	-4.800	-3.607	-4.899	4.302	2.376	9.741	11.234	8.607	324.219
-5.653	-4.031	-5.535	-4.111	-1.262	-1.775	9.831	6.293	9.254	12.163	8.696	5.755	3.877	-0.893	-2.412	-7.596	-3.339	-1.542	-4.805	-7.320	-4.640	-3.402	-4.817	4.383	2.517	9.692	11.244	8.710	328.125
-6.010	-4.014	-5.527	-4.042	-1.217	-1.807	9.835	6.140	9.075	12.194	8.530	5.681	3.939	-0.705	-2.406	-7.460	-3.101	-1.418	-4.607	-7.173	-4.462	-3.209	-4.762	4.465	2.628	9.652	11.285	8.872	332.031
-6.376	-4.066	-5.462	-3.979	-1.163	-1.810	9.821	6.015	8.933	12.240	8.418	5.641	4.065	-0.495	-2.443	-7.377	-2.938	-1.336	-4.436	-7.033	-4.274	-3.027	-4.722	4.546	2.701	9.626	11.348	9.068	335.938
-6.748	-4.155	-5.363	-3.910	-1.096	-1.782	9.796	5.931	8.841	12.304	8.375	5.641	4.245	-0.277	-2.520	-7.346	-2.855	-1.290	-4.284	-6.898	-4.082	-2.851	-4.678	4.626	2.737	9.619	11.424	9.271	339.844
-7.124	-4.243	-5.265	-3.824	-1.010	-1.728	9.761	5.887	8.802	12.378	8.404	5.682	4.466	-0.062	-2.630	-7.355	-2.850	-1.270	-4.142	-6.761	-3.887	-2.676	-4.615	4.707	2.746	9.630	11.504	9.450	343.750
-7.505	-4.292	-5.211	-3.713	-0.906	-1.655	9.716	5.874	8.809	12.450	8.492	5.760	4.718	0.146	-2.763	-7.386	-2.911	-1.265	-4.006	-6.609	-3.685	-2.497	-4.521	4.792	2.741	9.654	11.579	9.576	347.656
-7.889	-4.279	-5.237	-3.572	-0.788	-1.571	9.660	5.872	8.846	12.501	8.616	5.860	4.990	0.349	-2.901	-7.410	-3.015	-1.259	-3.865	-6.429	-3.467	-2.305	-4.390	4.887	2.734	9.678	11.637	9.625	351.562
-8.269	-4.193	-5.364	-3.404	-0.660	-1.488	9.590	5.862	8.888	12.512	8.744	5.966	5.279	0.556	-3.025	-7.398	-3.126	-1.237	-3.708	-6.204	-3.222	-2.092	-4.222	4.993	2.734	9.683	11.666	9.582	355.469
-8.634	-4.039	-5.592	-3.215	-0.527	-1.413	9.506	5.823	8.910	12.465	8.843	6.052	5.582	0.776	-3.112	-7.322	-3.201	-1.181	-3.517	-5.919	-2.937	-1.848	-4.022	5.107	2.739	9.645	11.651	9.442	359.375
-8.973	-3.836	-5.892	-3.013	-0.394	-1.351	9.412	5.743	8.887	12.352	8.881	6.093	5.899	1.019	-3.142	-7.161	-3.191	-1.079	-3.273	-5.567	-2.606	-1.565	-3.799	5.222	2.742	9.545	11.580	9.210	363.281
-9.266	-3.612	-6.220	-2.808	-0.261	-1.302	9.315	5.619	8.803	12.168	8.832	6.064	6.231	1.293	-3.100	-6.905	-3.058	-0.921	-2.961	-5.148	-2.228	-1.240	-3.565	5.325	2.727	9.366	11.441	8.901	367.188
-9.496	-3.392	-6.520	-2.611	-0.125	-1.264	9.223	5.457	8.649	11.919	8.683	5.945	6.575	1.594	-2.981	-6.560	-2.785	-0.711	-2.577	-4.673	-1.812	-0.878	-3.331	5.403	2.682	9.107	11.232	8.537	371.094
-9.645	-3.200	-6.740	-2.424	0.018	-1.229	9.145	5.270	8.424	11.613	8.428	5.726	6.924	1.913	-2.792	-6.144	-2.384	-0.459	-2.135	-4.160	-1.376	-0.493	-3.109	5.444	2.597	8.778	10.955	8.138	375.000
-9.699	-3.046	-6.844	-2.251	0.175	-1.190	9.083	5.072	8.137	11.261	8.075	5.406	7.262	2.229	-2.552	-5.688	-1.893	-0.189	-1.660	-3.637	-0.944	-0.105	-2.908	5.438	2.471	8.402	10.622	7.726	378.906
-9.652	-2.928	-6.819	-2.088	0.350	-1.136	9.037	4.880	7.802	10.876	7.643	5.001	7.565	2.518	-2.289	-5.228	-1.376	0.070	-1.195	-3.134	-0.545	0.259	-2.735	5.381	2.311	8.010	10.252	7.315	382.812
-9.508	-2.835	-6.676	-1.932	0.545	-1.059	8.998	4.709	7.440	10.469	7.163	4.537	7.808	2.754	-2.033	-4.798	-0.901	0.289	-0.783	-2.681	-0.204	0.573	-2.595	5.277	2.131	7.632	9.870	6.921	386.719
-9.281	-2.751	-6.446	-1.779	0.757	-0.954	8.956	4.568	7.073	10.049	6.674	4.054	7.962	2.915	-1.812	-4.430	-0.531	0.443	-0.464	-2.305	0.060	0.816	-2.488	5.134	1.950	7.298	9.499	6.553	390.625
-8.994	-2.660	-6.169	-1.628	0.977	-0.821	8.895	4.467	6.720	9.623	6.216	3.595	8.008	2.988	-1.649	-4.144	-0.305	0.519	-0.263	-2.025	0.234	0.974	-2.415	4.969	1.786	7.026	9.162	6.221	394.531
-8.673	-2.553	-5.882	-1.485	1.190	-0.666	8.803	4.405	6.397	9.194	5.829	3.204	7.937	2.971	-1.553	-3.950	-0.233	0.516	-0.188	-1.851	0.319	1.045	-2.368	4.800	1.659	6.823	8.879	5.935	398.438
-8.343	-2.427	-5.613	-1.355	1.379	-0.501	8.670	4.382	6.114	8.762	5.539	2.915	7.756	2.873	-1.521	-3.848	-0.296	0.448	-0.227	-1.783	0.320	1.034	-2.344	4.647	1.578	6.690	8.662	5.700	402.344
-8.026	-2.289	-5.373	-1.249	1.530	-0.337	8.491	4.388	5.870	8.328	5.358	2.748	7.487	2.711	-1.542	-3.826	-0.453	0.334	-0.353	-1.813	0.253	0.956	-2.335	4.525	1.549	6.618	8.518	5.520	406.250
-7.740	-2.150	-5.160	-1.172	1.630	-0.188	8.270	4.413	5.659	7.892	5.281	2.704	7.165	2.511	-1.600	-3.867	-0.656	0.196	-0.532	-1.923	0.136	0.828	-2.338	4.443	1.566	6.592	8.442	5.392	410.156
-7.490	-2.018	-4.961	-1.126	1.675	-0.062	8.016	4.440	5.466	7.453	5.287	2.764	6.830	2.298	-1.675	-3.949	-0.859	0.055	-0.730	-2.090	-0.010	0.669	-2.350	4.401	1.613	6.592	8.419	5.307	414.062
-7.273	-1.899	-4.759	-1.106	1.671	0.035	7.741	4.453	5.274	7.017	5.344	2.894	6.524	2.099	-1.751	-4.048	-1.029	-0.075	-0.916	-2.283	-0.164	0.496	-2.372	4.389	1.671	6.591	8.426	5.248	417.969
-7.076	-1.792	-4.535	-1.098	1.628	0.104	7.458	4.434	5.065	6.585	5.411	3.047	6.280	1.937	-1.811	-4.140	-1.144	-0.186	-1.070	-2.472	-0.305	0.325	-2.408	4.390	1.714	6.562	8.428	5.197	421.875
-6.874	-1.691	-4.276	-1.088	1.565	0.148	7.180	4.371	4.824	6.160	5.451	3.175	6.119	1.828	-1.842	-4.206	-1.198	-0.274	-1.177	-2.627	-0.414	0.168	-2.457	4.383	1.724	6.479	8.391	5.131	425.781
-6.646	-1.590	-3.977	-1.061	1.499	0.177	6.916	4.256	4.543	5.745	5.434	3.237	6.043	1.779	-1.835	-4.232	-1.191	-0.339	-1.229	-2.724	-0.478	0.038	-2.515	4.347	1.687	6.323	8.281	5.029	429.688
-6.369	-1.487	-3.640	-1.006	1.446	0.199	6.670	4.092	4.223	5.337	5.344	3.207	6.040	1.791	-1.786	-4.208	-1.130	-0.378	-1.227	-2.753	-0.493	-0.058	-2.571	4.267	1.604	6.085	8.074	4.879	433.594
-6.035	-1.383	-3.278	-0.922	1.415	0.226	6.443	3.894	3.876	4.936	5.179	3.082	6.080	1.852	-1.696	-4.137	-1.026	-0.394	-1.175	-2.718	-0.462	-0.114	-2.612	4.135	1.484	5.767	7.756	4.674	437.500
-5.648	-1.280	-2.911	-0.811	1.413	0.267	6.232	3.683	3.521	4.542	4.953	2.878	6.126	1.941	-1.575	-4.023	-0.892	-0.388	-1.083	-2.634	-0.402	-0.130	-2.621	3.951	1.344	5.384	7.331	4.417	441.406
-5.225	-1.177	-2.562	-0.681	1.438	0.327	6.032	3.490	3.185	4.156	4.693	2.629	6.138	2.031	-1.436	-3.881	-0.739	-0.362	-0.962	-2.529	-0.334	-0.112	-2.588	3.720	1.199	4.958	6.814	4.117	445.312
-4.794	-1.069	-2.258	-0.541	1.487	0.412	5.839	3.342	2.893	3.784	4.429	2.372	6.080	2.088	-1.292	-3.725	-0.577	-0.320	-0.826	-2.434	-0.286	-0.071	-2.508	3.449	1.065	4.512	6.231	3.788	449.219
-4.383	-0.944	-2.017	-0.398	1.557	0.524	5.648	3.265	2.668	3.437	4.193	2.143	5.929	2.081	-1.156	-3.573	-0.410	-0.266	-0.688	-2.379	-0.285	-0.025	-2.386	3.150	0.946	4.071	5.615	3.447	453.125
-4.012	-0.794	-1.853	-0.258	1.643	0.664	5.463	3.272	2.524	3.128	4.011	1.966	5.676	1.987	-1.035	-3.444	-0.241	-0.203	-0.558	-2.390	-0.352	0.006	-2.238	2.833	0.844	3.654	5.004	3.110	457.031
-3.688	-0.611	-1.761	-0.127	1.739	0.829	5.288	3.364	2.464	2.874	3.900	1.851	5.331	1.791	-0.932	-3.354	-0.073	-0.136	-0.450	-2.481	-0.503	0.004	-2.080	2.508	0.754	3.277	4.432	2.789	460.938
-3.405	-0.404	-1.726	-0.011	1.837	1.012	5.134	3.527	2.485	2.694	3.873	1.796	4.921	1.495	-0.846	-3.321	0.088	-0.071	-0.373	-2.660	-0.743	-0.043	-1.936	2.188	0.671	2.949	3.933	2.499	464.844
-3.149	-0.189	-1.717	0.082	1.926	1.201	5.015	3.738	2.573	2.604	3.932	1.792	4.483	1.117	-0.774	-3.352	0.234	-0.016	-0.336	-2.922	-1.067	-0.141	-1.823	1.886	0.593	2.677	3.529	2.249	468.750
-2.903	0.006	-1.702	0.142	1.995	1.384	4.941	3.964	2.708	2.612	4.071	1.824	4.060	0.686	-0.713	-3.451	0.353	0.023	-0.343	-3.252	-1.459	-0.284	-1.753	1.617	0.518	2.462	3.237	2.047	472.656
-2.657	0.151	-1.648	0.163	2.031	1.543	4.917	4.168	2.865	2.714	4.274	1.881	3.694	0.242	-0.663	-3.606	0.431	0.041	-0.394	-3.626	-1.890	-0.460	-1.733	1.397	0.449	2.303	3.061	1.898	476.562
-2.411	0.223	-1.538	0.139	2.025	1.660	4.941	4.315	3.015	2.892	4.516	1.951	3.418	-0.173	-0.625	-3.797	0.461	0.033	-0.484	-4.012	-2.326	-0.645	-1.759	1.237	0.390	2.196	2.997	1.800	480.469
-2.177	0.215	-1.372	0.072	1.970	1.721	5.000	4.379	3.131	3.115	4.763	2.025	3.253	-0.520	-0.599	-3.996	0.440	0.002	-0.600	-4.372	-2.725	-0.814	-1.818	1.149	0.347	2.133	3.029	1.748	484.375
-1.976	0.135	-1.174	-0.030	1.869	1.714	5.074	4.344	3.190	3.341	4.977	2.094	3.207	-0.768	-0.584	-4.171	0.377	-0.042	-0.724	-4.674	-3.051	-0.939	-1.890	1.135	0.322	2.107	3.135	1.732	488.281
-1.828	0.008	-0.984	-0.153	1.729	1.634	5.140	4.205	3.177	3.526	5.120	2.148	3.275	-0.900	-0.576	-4.295	0.291	-0.087	-0.834	-4.890	-3.276	-0.997	-1.951	1.192	0.316	2.108	3.290	1.741	492.188
-1.750	-0.135	-0.850	-0.282	1.564	1.485	5.174	3.974	3.086	3.631	5.161	2.176	3.439	-0.913	-0.567	-4.354	0.210	-0.114	-0.909	-5.003	-3.382	-0.976	-1.975	1.312	0.325	2.128	3.469	1.767	496.094
-1.743	-0.260	-0.814	-0.404	1.391	1.279	5.157	3.672	2.924	3.628	5.083	2.166	3.673	-0.817	-0.549	-4.343	0.160	-0.106	-0.930	-5.012	-3.370	-0.871	-1.944	1.478	0.345	2.163	3.647	1.801	500.000
-1.795	-0.342	-0.897	-0.507	1.226	1.033	5.081	3.327	2.704	3.505	4.882	2.105	3.947	-0.632	-0.510	-4.272	0.165	-0.053	-0.889	-4.923	-3.252	-0.694	-1.847	1.673	0.371	2.206	3.809	1.838	503.906
-1.880	-0.370	-1.092	-0.586	1.084	0.770	4.945	2.964	2.443	3.262	4.571	1.982	4.230	-0.386	-0.447	-4.158	0.235	0.050	-0.783	-4.757	-3.052	-0.460	-1.684	1.875	0.404	2.256	3.947	1.868	507.812
-1.962	-0.349	-1.363	-0.641	0.970	0.510	4.755	2.605	2.157	2.913	4.176	1.790	4.491	-0.112	-0.356	-4.020	0.367	0.195	-0.620	-4.535	-2.799	-0.196	-1.469	2.067	0.448	2.312	4.057	1.880	511.719
-2.006	-0.293	-1.653	-0.674	0.887	0.273	4.523	2.262	1.858	2.478	3.730	1.527	4.703	0.160	-0.243	-3.876	0.546	0.368	-0.413	-4.283	-2.524	0.076	-1.220	2.230	0.513	2.370	4.143	1.861	515.625
-1.983	-0.223	-1.897	-0.692	0.825	0.072	4.260	1.937	1.554	1.979	3.269	1.200	4.848	0.402	-0.114	-3.735	0.751	0.549	-0.182	-4.021	-2.253	0.333	-0.960	2.353	0.610	2.429	4.206	1.797	519.531
-1.874	-0.156	-2.039	-0.698	0.775	-0.087	3.976	1.626	1.242	1.438	2.829	0.819	4.911	0.593	0.019	-3.600	0.956	0.718	0.051	-3.765	-2.004	0.559	-0.713	2.426	0.748	2.481	4.245	1.676	523.438
-1.675	-0.101	-2.047	-0.693	0.724	-0.203	3.681	1.327	0.922	0.876	2.435	0.406	4.887	0.719	0.147	-3.469	1.140	0.858	0.267	-3.525	-1.789	0.741	-0.498	2.443	0.923	2.516	4.250	1.493	527.344
-1.395	-0.057	-1.918	-0.675	0.666	-0.278	3.387	1.040	0.594	0.314	2.107	-0.018	4.776	0.775	0.263	-3.334	1.286	0.955	0.446	-3.307	-1.613	0.872	-0.329	2.404	1.119	2.518	4.206	1.250	531.250
-1.052	-0.013	-1.675	-0.638	0.601	-0.314	3.105	0.772	0.264	-0.224	1.858	-0.429	4.586	0.765	0.361	-3.191	1.383	1.003	0.573	-3.113	-1.476	0.947	-0.215	2.307	1.305	2.473	4.093	0.954	535.156
-0.671	0.041	-1.355	-0.577	0.537	-0.310	2.852	0.540	-0.053	-0.714	1.689	-0.805	4.329	0.701	0.440	-3.036	1.430	1.000	0.637	-2.944	-1.379	0.965	-0.157	2.158	1.445	2.368	3.896	0.621	539.062
-0.277	0.116	-0.998	-0.491	0.486	-0.264	2.645	0.360	-0.339	-1.132	1.599	-1.130	4.021	0.596	0.499	-2.874	1.428	0.951	0.638	-2.802	-1.318	0.929	-0.149	1.962	1.508	2.201	3.608	0.268	542.969
0.106	0.211	-0.631	-0.381	0.462	-0.176	2.501	0.249	-0.570	-1.460	1.579	-1.394	3.680	0.466	0.541	-2.712	1.389	0.868	0.581	-2.688	-1.293	0.846	-0.178	1.730	1.476	1.977	3.240	-0.086	546.875
0.459	0.321	-0.272	-0.256	0.476	-0.046	2.431	0.214	-0.729	-1.686	1.614	-1.591	3.325	0.323	0.566	-2.563	1.326	0.762	0.482	-2.604	-1.303	0.727	-0.233	1.479	1.353	1.716	2.815	-0.423	550.781
0.766	0.434	0.077	-0.128	0.533	0.119	2.440	0.257	-0.804	-1.809	1.688	-1.722	2.974	0.176	0.576	-2.438	1.252	0.648	0.359	-2.550	-1.344	0.586	-0.297	1.226	1.166	1.449	2.375	-0.728	554.688
1.011	0.537	0.415	-0.010	0.626	0.306	2.521	0.366	-0.798	-1.836	1.785	-1.794	2.646	0.029	0.572	-2.347	1.182	0.540	0.235	-2.522	-1.414	0.441	-0.359	0.990	0.954	1.206	1.964	-0.992	558.594
1.182	0.623	0.734	0.088	0.745	0.500	2.661	0.521	-0.723	-1.788	1.886	-1.814	2.355	-0.113	0.557	-2.291	1.127	0.450	0.129	-2.516	-1.504	0.308	-0.409	0.791	0.763	1.015	1.628	-1.211	562.500
1.274	0.693	1.011	0.162	0.872	0.683	2.835	0.696	-0.603	-1.689	1.978	-1.796	2.115	-0.247	0.534	-2.266	1.097	0.388	0.059	-2.522	-1.602	0.205	-0.442	0.642	0.629	0.895	1.398	-1.384	566.406
1.286	0.754	1.212	0.212	0.989	0.838	3.018	0.863	-0.468	-1.571	2.047	-1.753	1.937	-0.367	0.511	-2.259	1.096	0.361	0.034	-2.527	-1.693	0.144	-0.454	0.551	0.572	0.850	1.293	-1.516	570.312
1.233	0.814	1.302	0.246	1.079	0.955	3.178	0.994	-0.350	-1.468	2.086	-1.703	1.826	-0.466	0.496	-2.255	1.121	0.371	0.054	-2.521	-1.760	0.134	-0.447	0.520	0.595	0.870	1.307	-1.610	574.219
1.138	0.879	1.257	0.270	1.131	1.024	3.287	1.071	-0.279	-1.412	2.086	-1.661	1.783	-0.534	0.494	-2.240	1.163	0.410	0.111	-2.492	-1.787	0.179	-0.422	0.545	0.680	0.937	1.420	-1.673	578.125
1.032	0.951	1.077	0.293	1.142	1.047	3.323	1.081	-0.277	-1.433	2.041	-1.646	1.801	-0.563	0.509	-2.205	1.207	0.468	0.187	-2.434	-1.764	0.275	-0.382	0.612	0.801	1.023	1.594	-1.713	582.031
0.947	1.021	0.791	0.317	1.116	1.026	3.266	1.022	-0.357	-1.550	1.947	-1.672	1.866	-0.548	0.542	-2.144	1.242	0.534	0.267	-2.344	-1.688	0.415	-0.325	0.708	0.924	1.104	1.786	-1.740	585.938
0.912	1.082	0.455	0.342	1.060	0.971	3.109	0.900	-0.520	-1.775	1.797	-1.750	1.961	-0.488	0.590	-2.054	1.264	0.599	0.342	-2.220	-1.561	0.593	-0.244	0.818	1.022	1.155	1.952	-1.765	589.844
0.942	1.127	0.136	0.369	0.989	0.894	2.851	0.727	-0.758	-2.108	1.589	-1.886	2.065	-0.388	0.654	-1.935	1.284	0.661	0.414	-2.064	-1.392	0.802	-0.125	0.925	1.076	1.160	2.059	-1.801	593.750
1.042	1.154	-0.094	0.395	0.916	0.808	2.500	0.518	-1.054	-2.540	1.318	-2.079	2.160	-0.257	0.732	-1.786	1.319	0.725	0.494	-1.877	-1.194	1.035	0.041	1.016	1.080	1.112	2.082	-1.859	597.656
1.201	1.171	-0.180	0.424	0.855	0.726	2.074	0.290	-1.387	-3.051	0.987	-2.323	2.230	-0.110	0.822	-1.604	1.390	0.797	0.598	-1.663	-0.982	1.282	0.261	1.079	1.039	1.009	2.013	-1.948	601.562
1.397	1.191	-0.094	0.461	0.815	0.658	1.602	0.060	-1.729	-3.614	0.606	-2.604	2.264	0.038	0.922	-1.390	1.515	0.884	0.740	-1.424	-0.769	1.533	0.525	1.107	0.968	0.862	1.857	-2.072	605.469
1.600	1.229	0.163	0.514	0.804	0.615	1.114	-0.160	-2.056	-4.192	0.191	-2.904	2.257	0.172	1.027	-1.145	1.701	0.985	0.927	-1.167	-0.566	1.773	0.814	1.094	0.882	0.683	1.628	-2.228	609.375
1.785	1.299	0.558	0.590	0.826	0.605	0.648	-0.355	-2.344	-4.748	-0.232	-3.203	2.210	0.281	1.131	-0.875	1.944	1.099	1.157	-0.899	-0.382	1.987	1.098	1.038	0.797	0.488	1.347	-2.409	613.281
1.931	1.408	1.036	0.697	0.884	0.638	0.238	-0.512	-2.570	-5.242	-0.632	-3.479	2.128	0.356	1.230	-0.594	2.228	1.215	1.416	-0.635	-0.222	2.160	1.341	0.938	0.723	0.290	1.038	-2.604	617.188
2.031	1.554	1.533	0.834	0.974	0.721	-0.084	-0.618	-2.716	-5.635	-0.975	-3.715	2.016	0.396	1.318	-0.321	2.524	1.320	1.681	-0.391	-0.090	2.282	1.511	0.800	0.662	0.099	0.722	-2.798	621.094
2.089	1.727	1.982	0.996	1.093	0.857	-0.295	-0.664	-2.770	-5.898	-1.236	-3.897	1.881	0.398	1.390	-0.080	2.802	1.402	1.921	-0.187	0.012	2.344	1.584	0.632	0.608	-0.082	0.417	-2.976	625.000
2.115	1.911	2.332	1.171	1.230	1.043	-0.379	-0.644	-2.726	-6.008	-1.396	-4.014	1.728	0.368	1.442	0.108	3.023	1.446	2.106	-0.040	0.079	2.344	1.550	0.446	0.551	-0.251	0.139	-3.125	628.906
2.123	2.085	2.550	1.338	1.372	1.267	-0.336	-0.557	-2.586	-5.958	-1.453	-4.060	1.562	0.311	1.469	0.222	3.157	1.441	2.208	0.036	0.109	2.283	1.413	0.257	0.482	-0.407	-0.100	-3.235	632.812
2.124	2.229	2.627	1.478	1.501	1.510	-0.172	-0.408	-2.361	-5.754	-1.413	-4.036	1.387	0.230	1.466	0.254	3.178	1.382	2.209	0.034	0.099	2.168	1.190	0.080	0.395	-0.549	-0.291	-3.301	636.719
2.126	2.325	2.580	1.570	1.601	1.744	0.093	-0.210	-2.072	-5.418	-1.298	-3.947	1.209	0.133	1.429	0.201	3.077	1.267	2.102	-0.045	0.047	2.007	0.911	-0.069	0.291	-0.674	-0.428	-3.323	640.625
2.131	2.360	2.442	1.600	1.656	1.944	0.433	0.020	-1.745	-4.981	-1.132	-3.802	1.033	0.023	1.357	0.075	2.863	1.107	1.900	-0.190	-0.047	1.816	0.606	-0.181	0.174	-0.777	-0.508	-3.308	644.531
2.136	2.332	2.259	1.563	1.658	2.088	0.816	0.263	-1.411	-4.487	-0.937	-3.616	0.864	-0.092	1.258	-0.106	2.564	0.917	1.632	-0.384	-0.179	1.611	0.310	-0.250	0.053	-0.855	-0.535	-3.264	648.438
2.139	2.251	2.079	1.468	1.607	2.163	1.204	0.494	-1.102	-3.981	-0.736	-3.408	0.711	-0.208	1.143	-0.314	2.224	0.721	1.339	-0.603	-0.340	1.409	0.053	-0.279	-0.064	-0.908	-0.517	-3.206	652.344
2.137	2.141	1.941	1.334	1.510	2.167	1.561	0.690	-0.848	-3.513	-0.544	-3.196	0.584	-0.317	1.029	-0.519	1.898	0.546	1.066	-0.818	-0.518	1.228	-0.140	-0.274	-0.170	-0.939	-0.469	-3.148	656.250
2.132	2.031	1.870	1.190	1.380	2.109	1.850	0.828	-0.674	-3.126	-0.372	-2.999	0.490	-0.412	0.934	-0.690	1.635	0.414	0.857	-1.006	-0.697	1.085	-0.257	-0.241	-0.260	-0.954	-0.405	-3.102	660.156
2.130	1.955	1.874	1.064	1.234	2.005	2.040	0.890	-0.598	-2.857	-0.231	-2.833	0.439	-0.487	0.879	-0.803	1.477	0.344	0.743	-1.145	-0.859	0.990	-0.294	-0.188	-0.333	-0.960	-0.338	-3.075	664.062
2.145	1.937	1.940	0.981	1.087	1.874	2.111	0.863	-0.628	-2.731	-0.128	-2.710	0.434	-0.537	0.876	-0.844	1.442	0.344	0.734	-1.224	-0.992	0.945	-0.262	-0.122	-0.388	-0.963	-0.281	-3.071	667.969
2.188	1.985	2.046	0.954	0.953	1.736	2.052	0.741	-0.762	-2.756	-0.074	-2.639	0.477	-0.560	0.931	-0.809	1.530	0.410	0.825	-1.239	-1.083	0.948	-0.176	-0.044	-0.424	-0.969	-0.238	-3.087	671.875
2.272	2.091	2.166	0.982	0.842	1.608	1.872	0.529	-0.987	-2.926	-0.079	-2.625	0.565	-0.556	1.041	-0.709	1.717	0.527	0.991	-1.198	-1.128	0.989	-0.058	0.043	-0.438	-0.982	-0.213	-3.118	675.781
2.403	2.232	2.282	1.055	0.758	1.502	1.589	0.242	-1.278	-3.220	-0.149	-2.669	0.687	-0.532	1.191	-0.559	1.967	0.676	1.198	-1.114	-1.131	1.058	0.073	0.136	-0.430	-0.999	-0.205	-3.157	679.688
2.579	2.375	2.383	1.154	0.702	1.427	1.236	-0.096	-1.604	-3.605	-0.288	-2.766	0.832	-0.496	1.364	-0.385	2.237	0.833	1.412	-1.007	-1.099	1.141	0.202	0.230	-0.397	-1.019	-0.214	-3.201	683.594
2.789	2.491	2.465	1.257	0.674	1.380	0.849	-0.454	-1.929	-4.042	-0.488	-2.909	0.982	-0.459	1.537	-0.208	2.488	0.977	1.601	-0.894	-1.047	1.227	0.321	0.321	-0.342	-1.034	-0.236	-3.246	687.500
3.018	2.561	2.531	1.349	0.670	1.358	0.470	-0.796	-2.219	-4.488	-0.739	-3.085	1.120	-0.433	1.692	-0.050	2.690	1.094	1.747	-0.789	-0.987	1.306	0.426	0.399	-0.270	-1.040	-0.271	-3.295	691.406
3.246	2.580	2.587	1.422	0.687	1.353	0.135	-1.090	-2.445	-4.905	-1.020	-3.276	1.227	-0.426	1.816	0.076	2.834	1.177	1.846	-0.702	-0.933	1.371	0.517	0.456	-0.192	-1.031	-0.320	-3.350	695.312
3.454	2.558	2.636	1.475	0.724	1.360	-0.125	-1.304	-2.584	-5.257	-1.307	-3.463	1.289	-0.441	1.905	0.164	2.919	1.227	1.902	-0.633	-0.895	1.418	0.589	0.484	-0.125	-1.012	-0.386	-3.415	699.219
3.629	2.517	2.679	1.518	0.781	1.379	-0.284	-1.418	-2.622	-5.517	-1.573	-3.622	1.297	-0.476	1.958	0.213	2.957	1.245	1.922	-0.582	-0.878	1.439	0.635	0.477	-0.086	-0.990	-0.474	-3.492	703.125
3.757	2.481	2.719	1.563	0.859	1.413	-0.328	-1.421	-2.558	-5.664	-1.788	-3.733	1.256	-0.525	1.979	0.227	2.958	1.233	1.911	-0.546	-0.885	1.430	0.644	0.433	-0.096	-0.983	-0.585	-3.583	707.031
3.828	2.469	2.753	1.620	0.959	1.466	-0.251	-1.317	-2.396	-5.684	-1.929	-3.778	1.180	-0.575	1.972	0.214	2.929	1.193	1.869	-0.525	-0.915	1.386	0.601	0.353	-0.167	-1.009	-0.722	-3.683	710.938
3.832	2.492	2.779	1.695	1.076	1.543	-0.058	-1.117	-2.150	-5.571	-1.975	-3.745	1.095	-0.614	1.938	0.178	2.874	1.123	1.793	-0.518	-0.962	1.304	0.499	0.247	-0.304	-1.083	-0.878	-3.787	714.844
3.758	2.548	2.793	1.788	1.206	1.644	0.239	-0.846	-1.841	-5.329	-1.917	-3.629	1.029	-0.630	1.878	0.127	2.797	1.029	1.683	-0.528	-1.021	1.188	0.335	0.125	-0.501	-1.214	-1.045	-3.884	718.750
3.599	2.619	2.789	1.889	1.339	1.761	0.618	-0.531	-1.492	-4.972	-1.754	-3.438	1.014	-0.614	1.795	0.065	2.706	0.917	1.544	-0.556	-1.082	1.046	0.121	0.002	-0.742	-1.398	-1.207	-3.967	722.656
3.351	2.682	2.761	1.986	1.467	1.881	1.051	-0.201	-1.129	-4.527	-1.498	-3.187	1.071	-0.562	1.694	-0.005	2.611	0.800	1.390	-0.600	-1.136	0.896	-0.119	-0.108	-1.002	-1.619	-1.348	-4.028	726.562
3.025	2.712	2.705	2.063	1.579	1.988	1.507	0.114	-0.779	-4.031	-1.172	-2.899	1.207	-0.474	1.579	-0.081	2.524	0.694	1.241	-0.654	-1.173	0.756	-0.355	-0.192	-1.253	-1.852	-1.452	-4.061	730.469
2.642	2.686	2.618	2.106	1.669	2.064	1.949	0.390	-0.466	-3.534	-0.806	-2.604	1.417	-0.357	1.460	-0.159	2.454	0.611	1.116	-0.709	-1.184	0.647	-0.551	-0.244	-1.472	-2.067	-1.509	-4.064	734.375
2.243	2.592	2.503	2.107	1.732	2.097	2.344	0.610	-0.213	-3.087	-0.441	-2.330	1.681	-0.219	1.345	-0.237	2.399	0.560	1.029	-0.754	-1.161	0.584	-0.680	-0.259	-1.637	-2.237	-1.513	-4.038	738.281
1.873	2.433	2.363	2.065	1.769	2.082	2.660	0.759	-0.040	-2.742	-0.116	-2.103	1.974	-0.069	1.243	-0.310	2.353	0.543	0.988	-0.776	-1.099	0.580	-0.723	-0.237	-1.738	-2.342	-1.470	-3.989	742.188
1.579	2.224	2.202	1.989	1.782	2.024	2.873	0.828	0.039	-2.538	0.130	-1.943	2.267	0.086	1.162	-0.375	2.303	0.553	0.989	-0.765	-0.995	0.636	-0.676	-0.181	-1.770	-2.373	-1.389	-3.921	746.094
1.397	1.996	2.030	1.892	1.776	1.936	2.971	0.814	0.014	-2.500	0.265	-1.859	2.539	0.243	1.107	-0.424	2.237	0.583	1.021	-0.712	-0.850	0.748	-0.548	-0.094	-1.735	-2.336	-1.287	-3.843	750.000
1.345	1.783	1.855	1.796	1.755	1.833	2.948	0.716	-0.115	-2.630	0.269	-1.852	2.777	0.399	1.082	-0.452	2.152	0.623	1.069	-0.615	-0.666	0.907	-0.360	0.018	-1.645	-2.248	-1.179	-3.762	753.906
1.414	1.621	1.691	1.718	1.728	1.733	2.816	0.539	-0.345	-2.910	0.138	-1.914	2.977	0.558	1.090	-0.452	2.055	0.667	1.123	-0.474	-0.449	1.099	-0.139	0.150	-1.513	-2.134	-1.081	-3.687	757.812
1.580	1.532	1.552	1.676	1.698	1.652	2.592	0.294	-0.659	-3.304	-0.115	-2.033	3.142	0.720	1.128	-0.419	1.964	0.713	1.175	-0.294	-0.206	1.308	0.087	0.295	-1.359	-2.020	-1.000	-3.627	761.719
1.799	1.526	1.448	1.676	1.670	1.594	2.302	-0.002	-1.037	-3.765	-0.466	-2.194	3.278	0.888	1.195	-0.349	1.903	0.762	1.229	-0.084	0.052	1.519	0.292	0.442	-1.205	-1.928	-0.942	-3.591	765.625
2.026	1.594	1.390	1.716	1.646	1.559	1.973	-0.329	-1.453	-4.246	-0.878	-2.380	3.392	1.060	1.285	-0.242	1.897	0.817	1.296	0.147	0.314	1.723	0.455	0.582	-1.074	-1.874	-0.903	-3.590	769.531
2.219	1.713	1.380	1.785	1.624	1.534	1.630	-0.665	-1.883	-4.709	-1.312	-2.581	3.485	1.233	1.393	-0.102	1.965	0.884	1.397	0.388	0.569	1.913	0.568	0.706	-0.985	-1.864	-0.877	-3.633	773.438
2.353	1.851	1.417	1.867	1.601	1.505	1.293	-0.988	-2.304	-5.126	-1.735	-2.785	3.559	1.402	1.511	0.065	2.114	0.965	1.555	0.628	0.805	2.087	0.630	0.806	-0.954	-1.894	-0.854	-3.732	777.344
2.414	1.973	1.496	1.943	1.572	1.454	0.972	-1.283	-2.702	-5.484	-2.121	-2.987	3.612	1.562	1.635	0.253	2.341	1.063	1.791	0.859	1.016	2.250	0.652	0.880	-0.988	-1.956	-0.823	-3.894	781.250
2.407	2.052	1.611	1.996	1.535	1.366	0.672	-1.541	-3.071	-5.786	-2.456	-3.182	3.645	1.710	1.759	0.452	2.631	1.179	2.114	1.076	1.198	2.409	0.649	0.927	-1.086	-2.036	-0.778	-4.124	785.156
2.345	2.073	1.749	2.019	1.486	1.236	0.388	-1.765	-3.412	-6.046	-2.743	-3.370	3.658	1.846	1.880	0.657	2.965	1.309	2.525	1.278	1.354	2.570	0.637	0.953	-1.237	-2.123	-0.714	-4.417	789.062
2.248	2.040	1.901	2.013	1.427	1.068	0.114	-1.962	-3.734	-6.281	-2.993	-3.555	3.656	1.971	1.997	0.863	3.325	1.450	3.006	1.468	1.492	2.738	0.628	0.966	-1.425	-2.209	-0.632	-4.758	792.969
2.136	1.969	2.056	1.985	1.360	0.875	-0.157	-2.146	-4.049	-6.510	-3.224	-3.739	3.648	2.093	2.111	1.068	3.694	1.599	3.528	1.653	1.623	2.915	0.629	0.973	-1.629	-2.288	-0.537	-5.125	796.875
