FP1	F3	F7	FC3	C3	C5	P3	P7	PO7	PO3	O1	Oz	Pz	CPz	FP2	Fz	F4	F8	FC4	FCz	Cz	C4	C6	P4	P8	PO8	PO4	O2	time
-0.994	0.063	-0.194	-0.210	-0.649	-1.570	-0.001	-1.615	-1.701	0.687	-1.360	0.349	1.835	1.633	0.739	0.508	1.616	0.942	0.578	0.379	1.045	0.377	-0.079	1.822	0.659	0.796	1.970	1.407	-199.219
-0.648	0.246	-0.142	0.040	-0.427	-1.184	-0.407	-1.405	-2.003	0.045	-1.573	-0.144	1.222	1.591	0.652	0.673	1.386	0.798	0.715	0.640	1.192	0.485	0.134	1.285	0.348	0.282	0.990	0.666	-195.312
-0.311	0.412	-0.056	0.264	-0.224	-0.830	-0.774	-1.200	-2.261	-0.532	-1.739	-0.596	0.642	1.523	0.561	0.817	1.148	0.650	0.821	0.866	1.310	0.571	0.327	0.772	0.073	-0.201	0.082	-0.029	-191.406
-0.001	0.546	0.067	0.437	-0.062	-0.536	-1.065	-1.011	-2.437	-0.987	-1.817	-0.969	0.126	1.411	0.467	0.924	0.903	0.503	0.875	1.027	1.376	0.621	0.487	0.315	-0.130	-0.615	-0.685	-0.629	-187.500
0.269	0.634	0.221	0.543	0.047	-0.324	-1.254	-0.843	-2.501	-1.278	-1.781	-1.231	-0.299	1.247	0.374	0.980	0.662	0.365	0.869	1.105	1.374	0.629	0.605	-0.063	-0.240	-0.928	-1.258	-1.093	-183.594
0.484	0.668	0.394	0.574	0.095	-0.201	-1.325	-0.701	-2.438	-1.381	-1.623	-1.363	-0.618	1.037	0.287	0.976	0.436	0.245	0.804	1.092	1.300	0.593	0.676	-0.346	-0.254	-1.118	-1.604	-1.392	-179.688
0.634	0.639	0.566	0.530	0.084	-0.167	-1.274	-0.588	-2.248	-1.297	-1.350	-1.360	-0.823	0.794	0.210	0.906	0.238	0.150	0.695	0.993	1.162	0.522	0.699	-0.524	-0.186	-1.169	-1.714	-1.510	-175.781
0.709	0.545	0.710	0.418	0.020	-0.212	-1.115	-0.503	-1.945	-1.048	-0.987	-1.224	-0.917	0.540	0.146	0.774	0.078	0.083	0.559	0.822	0.972	0.429	0.676	-0.594	-0.057	-1.076	-1.597	-1.447	-171.875
0.700	0.387	0.795	0.249	-0.089	-0.321	-0.874	-0.445	-1.558	-0.673	-0.569	-0.972	-0.908	0.297	0.093	0.587	-0.042	0.044	0.416	0.598	0.751	0.328	0.612	-0.559	0.106	-0.846	-1.285	-1.215	-167.969
0.606	0.173	0.790	0.038	-0.233	-0.477	-0.586	-0.409	-1.126	-0.220	-0.133	-0.627	-0.812	0.087	0.047	0.362	-0.128	0.030	0.281	0.347	0.518	0.236	0.516	-0.428	0.278	-0.498	-0.820	-0.840	-164.062
0.430	-0.081	0.671	-0.195	-0.401	-0.658	-0.286	-0.389	-0.687	0.260	0.284	-0.220	-0.646	-0.077	0.003	0.115	-0.193	0.031	0.162	0.091	0.292	0.164	0.396	-0.217	0.440	-0.063	-0.254	-0.360	-160.156
0.185	-0.356	0.429	-0.432	-0.579	-0.843	-0.006	-0.378	-0.281	0.719	0.649	0.216	-0.427	-0.186	-0.044	-0.132	-0.251	0.041	0.064	-0.151	0.088	0.117	0.266	0.055	0.580	0.419	0.357	0.178	-156.250
-0.106	-0.626	0.076	-0.651	-0.750	-1.010	0.232	-0.366	0.062	1.121	0.943	0.643	-0.170	-0.241	-0.098	-0.365	-0.316	0.051	-0.014	-0.361	-0.084	0.096	0.133	0.361	0.691	0.900	0.960	0.724	-152.344
-0.410	-0.868	-0.351	-0.834	-0.900	-1.138	0.415	-0.346	0.321	1.437	1.153	1.029	0.109	-0.249	-0.157	-0.568	-0.397	0.051	-0.078	-0.531	-0.218	0.094	0.007	0.673	0.772	1.335	1.511	1.227	-148.438
-0.688	-1.065	-0.794	-0.967	-1.011	-1.212	0.541	-0.312	0.485	1.651	1.276	1.344	0.393	-0.222	-0.219	-0.734	-0.498	0.038	-0.132	-0.656	-0.312	0.099	-0.108	0.962	0.821	1.686	1.976	1.642	-144.531
-0.902	-1.204	-1.187	-1.040	-1.072	-1.226	0.611	-0.262	0.556	1.754	1.317	1.565	0.664	-0.171	-0.279	-0.859	-0.616	0.007	-0.183	-0.733	-0.370	0.103	-0.209	1.202	0.838	1.926	2.333	1.939	-140.625
-1.018	-1.278	-1.472	-1.052	-1.076	-1.180	0.629	-0.197	0.542	1.742	1.282	1.679	0.902	-0.107	-0.328	-0.940	-0.742	-0.041	-0.232	-0.766	-0.393	0.096	-0.292	1.376	0.822	2.043	2.570	2.099	-136.719
-1.021	-1.285	-1.609	-1.005	-1.025	-1.080	0.596	-0.124	0.457	1.616	1.177	1.678	1.088	-0.039	-0.359	-0.975	-0.858	-0.101	-0.276	-0.757	-0.388	0.075	-0.354	1.472	0.777	2.036	2.680	2.115	-132.812
-0.912	-1.226	-1.589	-0.906	-0.925	-0.940	0.517	-0.049	0.320	1.383	1.010	1.564	1.205	0.031	-0.365	-0.959	-0.943	-0.161	-0.311	-0.711	-0.359	0.042	-0.392	1.487	0.705	1.915	2.660	1.992	-128.906
-0.709	-1.106	-1.428	-0.764	-0.788	-0.772	0.394	0.021	0.152	1.053	0.790	1.345	1.242	0.098	-0.344	-0.891	-0.974	-0.213	-0.328	-0.634	-0.310	0.005	-0.399	1.422	0.613	1.695	2.507	1.739	-125.000
-0.442	-0.930	-1.167	-0.591	-0.625	-0.588	0.236	0.081	-0.026	0.646	0.528	1.034	1.196	0.164	-0.292	-0.769	-0.933	-0.242	-0.320	-0.532	-0.247	-0.028	-0.373	1.284	0.509	1.390	2.220	1.372	-121.094
-0.145	-0.707	-0.854	-0.397	-0.448	-0.395	0.057	0.128	-0.193	0.189	0.240	0.650	1.071	0.226	-0.209	-0.598	-0.806	-0.239	-0.275	-0.412	-0.173	-0.046	-0.309	1.083	0.399	1.018	1.802	0.910	-117.188
0.149	-0.451	-0.538	-0.193	-0.267	-0.199	-0.122	0.164	-0.331	-0.281	-0.050	0.219	0.879	0.279	-0.098	-0.387	-0.588	-0.195	-0.185	-0.280	-0.093	-0.040	-0.211	0.829	0.287	0.595	1.270	0.381	-113.281
0.414	-0.177	-0.258	0.007	-0.088	-0.001	-0.276	0.193	-0.424	-0.720	-0.316	-0.229	0.638	0.317	0.036	-0.150	-0.286	-0.107	-0.046	-0.143	-0.011	-0.007	-0.083	0.534	0.178	0.142	0.652	-0.179	-109.375
0.628	0.094	-0.034	0.192	0.079	0.192	-0.383	0.220	-0.456	-1.083	-0.527	-0.656	0.367	0.326	0.184	0.090	0.079	0.017	0.133	-0.012	0.063	0.049	0.059	0.215	0.074	-0.313	-0.004	-0.724	-105.469
0.777	0.338	0.127	0.344	0.226	0.373	-0.419	0.251	-0.417	-1.326	-0.654	-1.024	0.085	0.296	0.329	0.305	0.466	0.160	0.331	0.103	0.116	0.113	0.194	-0.111	-0.024	-0.738	-0.641	-1.203	-101.562
0.857	0.528	0.233	0.449	0.344	0.529	-0.373	0.289	-0.303	-1.417	-0.672	-1.293	-0.188	0.214	0.450	0.465	0.819	0.295	0.514	0.182	0.132	0.164	0.295	-0.425	-0.109	-1.093	-1.194	-1.565	-97.656
0.868	0.643	0.302	0.491	0.423	0.650	-0.244	0.336	-0.116	-1.336	-0.568	-1.429	-0.436	0.075	0.522	0.543	1.076	0.391	0.639	0.207	0.094	0.177	0.338	-0.706	-0.175	-1.341	-1.605	-1.767	-93.750
0.819	0.662	0.349	0.459	0.459	0.726	-0.044	0.389	0.134	-1.083	-0.341	-1.411	-0.643	-0.119	0.526	0.519	1.183	0.418	0.668	0.158	-0.013	0.134	0.307	-0.934	-0.216	-1.451	-1.827	-1.780	-89.844
0.717	0.579	0.389	0.352	0.448	0.750	0.208	0.444	0.429	-0.679	-0.007	-1.233	-0.795	-0.356	0.449	0.385	1.102	0.361	0.573	0.027	-0.193	0.025	0.198	-1.091	-0.227	-1.408	-1.842	-1.599	-85.938
0.574	0.400	0.426	0.177	0.396	0.726	0.483	0.497	0.749	-0.160	0.401	-0.907	-0.879	-0.615	0.292	0.152	0.831	0.217	0.351	-0.186	-0.438	-0.146	0.024	-1.168	-0.210	-1.217	-1.656	-1.245	-82.031
0.398	0.145	0.458	-0.046	0.311	0.658	0.753	0.543	1.069	0.421	0.841	-0.463	-0.886	-0.866	0.071	-0.153	0.401	0.004	0.022	-0.462	-0.726	-0.360	-0.192	-1.162	-0.172	-0.904	-1.307	-0.760	-78.125
0.199	-0.152	0.470	-0.290	0.205	0.561	0.994	0.581	1.368	1.005	1.268	0.051	-0.812	-1.078	-0.185	-0.488	-0.123	-0.247	-0.371	-0.769	-1.024	-0.589	-0.415	-1.078	-0.125	-0.512	-0.848	-0.204	-74.219
-0.015	-0.451	0.449	-0.523	0.091	0.446	1.184	0.610	1.625	1.533	1.634	0.583	-0.659	-1.224	-0.439	-0.807	-0.657	-0.492	-0.767	-1.066	-1.290	-0.798	-0.614	-0.927	-0.081	-0.089	-0.345	0.360	-70.312
-0.235	-0.709	0.379	-0.717	-0.021	0.328	1.311	0.629	1.825	1.951	1.904	1.077	-0.440	-1.285	-0.653	-1.064	-1.109	-0.689	-1.103	-1.307	-1.487	-0.955	-0.761	-0.727	-0.052	0.315	0.143	0.877	-66.406
-0.457	-0.892	0.253	-0.848	-0.121	0.215	1.367	0.636	1.955	2.218	2.051	1.484	-0.172	-1.255	-0.796	-1.225	-1.405	-0.803	-1.327	-1.457	-1.584	-1.035	-0.838	-0.497	-0.045	0.665	0.570	1.303	-62.500
-0.673	-0.975	0.077	-0.903	-0.203	0.116	1.349	0.627	2.005	2.308	2.061	1.769	0.117	-1.142	-0.851	-1.275	-1.500	-0.816	-1.405	-1.490	-1.565	-1.025	-0.842	-0.257	-0.060	0.939	0.911	1.618	-58.594
-0.878	-0.950	-0.131	-0.878	-0.262	0.036	1.257	0.598	1.970	2.213	1.934	1.910	0.396	-0.965	-0.819	-1.211	-1.387	-0.729	-1.330	-1.399	-1.432	-0.928	-0.779	-0.025	-0.092	1.130	1.154	1.813	-54.688
-1.062	-0.820	-0.342	-0.778	-0.290	-0.020	1.094	0.544	1.850	1.940	1.679	1.901	0.630	-0.751	-0.714	-1.049	-1.097	-0.561	-1.123	-1.192	-1.201	-0.757	-0.662	0.180	-0.132	1.239	1.301	1.893	-50.781
-1.207	-0.602	-0.519	-0.613	-0.281	-0.041	0.867	0.463	1.650	1.512	1.315	1.751	0.790	-0.527	-0.561	-0.811	-0.689	-0.346	-0.825	-0.891	-0.900	-0.539	-0.511	0.339	-0.170	1.268	1.350	1.861	-46.875
-1.290	-0.322	-0.627	-0.395	-0.224	-0.016	0.589	0.357	1.381	0.966	0.868	1.474	0.853	-0.321	-0.386	-0.523	-0.235	-0.122	-0.487	-0.525	-0.563	-0.303	-0.348	0.433	-0.204	1.214	1.297	1.720	-42.969
-1.283	-0.008	-0.638	-0.139	-0.111	0.065	0.277	0.236	1.061	0.347	0.370	1.094	0.805	-0.149	-0.213	-0.210	0.192	0.074	-0.166	-0.129	-0.224	-0.081	-0.189	0.448	-0.233	1.066	1.128	1.462	-39.062
-1.160	0.312	-0.539	0.142	0.063	0.209	-0.043	0.116	0.716	-0.296	-0.145	0.638	0.647	-0.022	-0.059	0.106	0.534	0.214	0.095	0.264	0.086	0.103	-0.048	0.372	-0.265	0.812	0.830	1.081	-35.156
-0.907	0.611	-0.332	0.433	0.293	0.413	-0.346	0.019	0.378	-0.914	-0.638	0.136	0.393	0.057	0.068	0.409	0.758	0.282	0.270	0.624	0.344	0.233	0.070	0.204	-0.309	0.445	0.391	0.573	-31.250
-0.532	0.872	-0.035	0.721	0.565	0.662	-0.603	-0.036	0.084	-1.461	-1.074	-0.380	0.064	0.091	0.168	0.684	0.859	0.282	0.355	0.927	0.533	0.306	0.163	-0.049	-0.373	-0.031	-0.182	-0.051	-27.344
-0.065	1.084	0.318	0.988	0.858	0.935	-0.792	-0.031	-0.130	-1.900	-1.423	-0.874	-0.309	0.085	0.245	0.918	0.859	0.227	0.365	1.157	0.648	0.328	0.237	-0.368	-0.463	-0.590	-0.859	-0.757	-23.438
0.442	1.245	0.686	1.219	1.143	1.201	-0.897	0.042	-0.235	-2.200	-1.658	-1.309	-0.695	0.041	0.305	1.099	0.801	0.145	0.331	1.304	0.684	0.312	0.294	-0.723	-0.576	-1.188	-1.585	-1.492	-19.531
0.924	1.355	1.028	1.397	1.388	1.432	-0.912	0.181	-0.213	-2.341	-1.764	-1.649	-1.062	-0.039	0.354	1.212	0.729	0.062	0.284	1.360	0.642	0.271	0.339	-1.080	-0.703	-1.762	-2.283	-2.181	-15.625
1.311	1.416	1.306	1.505	1.565	1.599	-0.840	0.370	-0.059	-2.313	-1.733	-1.856	-1.382	-0.153	0.390	1.243	0.679	-0.001	0.250	1.324	0.526	0.215	0.369	-1.405	-0.831	-2.242	-2.868	-2.742	-11.719
1.543	1.426	1.494	1.533	1.651	1.684	-0.695	0.588	0.212	-2.121	-1.568	-1.903	-1.632	-0.303	0.407	1.182	0.669	-0.031	0.237	1.194	0.337	0.148	0.380	-1.665	-0.941	-2.561	-3.255	-3.098	-7.812
1.585	1.383	1.581	1.472	1.636	1.677	-0.497	0.808	0.574	-1.780	-1.278	-1.773	-1.797	-0.485	0.392	1.021	0.689	-0.033	0.238	0.974	0.080	0.067	0.365	-1.834	-1.014	-2.671	-3.384	-3.190	-3.906
1.428	1.283	1.564	1.322	1.519	1.578	-0.268	1.001	0.987	-1.317	-0.886	-1.466	-1.866	-0.692	0.333	0.762	0.708	-0.020	0.230	0.672	-0.238	-0.031	0.318	-1.894	-1.030	-2.548	-3.222	-2.995	0.000
1.097	1.123	1.451	1.094	1.313	1.398	-0.036	1.147	1.405	-0.775	-0.424	-1.001	-1.835	-0.911	0.222	0.418	0.686	-0.012	0.186	0.299	-0.602	-0.150	0.240	-1.841	-0.978	-2.201	-2.780	-2.525	3.906
0.642	0.904	1.252	0.803	1.041	1.157	0.176	1.231	1.782	-0.200	0.068	-0.419	-1.711	-1.125	0.059	0.013	0.589	-0.024	0.084	-0.120	-0.993	-0.287	0.137	-1.677	-0.852	-1.669	-2.104	-1.835	7.812
0.129	0.630	0.982	0.473	0.729	0.883	0.347	1.248	2.079	0.353	0.546	0.226	-1.506	-1.311	-0.144	-0.419	0.396	-0.066	-0.086	-0.559	-1.382	-0.431	0.026	-1.419	-0.653	-1.012	-1.270	-1.009	11.719
-0.373	0.314	0.659	0.132	0.410	0.602	0.462	1.203	2.267	0.833	0.966	0.873	-1.242	-1.450	-0.369	-0.842	0.113	-0.137	-0.315	-0.983	-1.739	-0.566	-0.074	-1.089	-0.397	-0.304	-0.371	-0.147	15.625
-0.805	-0.027	0.306	-0.194	0.113	0.344	0.516	1.111	2.339	1.199	1.292	1.461	-0.948	-1.527	-0.590	-1.220	-0.235	-0.227	-0.581	-1.359	-2.036	-0.675	-0.145	-0.716	-0.104	0.383	0.503	0.652	19.531
-1.124	-0.369	-0.050	-0.483	-0.138	0.129	0.510	0.992	2.305	1.420	1.503	1.943	-0.655	-1.533	-0.783	-1.524	-0.605	-0.324	-0.855	-1.659	-2.250	-0.744	-0.176	-0.329	0.196	0.989	1.274	1.307	23.438
-1.310	-0.688	-0.380	-0.716	-0.323	-0.026	0.454	0.866	2.189	1.488	1.591	2.287	-0.395	-1.473	-0.928	-1.737	-0.947	-0.410	-1.104	-1.866	-2.370	-0.766	-0.165	0.041	0.473	1.471	1.889	1.768	27.344
-1.364	-0.956	-0.652	-0.881	-0.432	-0.114	0.363	0.757	2.027	1.409	1.565	2.479	-0.190	-1.356	-1.012	-1.855	-1.216	-0.475	-1.301	-1.974	-2.395	-0.744	-0.124	0.369	0.699	1.809	2.319	2.020	31.250
-1.299	-1.151	-0.841	-0.973	-0.463	-0.137	0.255	0.681	1.854	1.208	1.443	2.523	-0.055	-1.201	-1.030	-1.881	-1.375	-0.509	-1.425	-1.985	-2.336	-0.687	-0.069	0.634	0.853	2.002	2.563	2.077	35.156
-1.144	-1.256	-0.930	-0.990	-0.419	-0.101	0.149	0.648	1.697	0.919	1.248	2.428	0.003	-1.028	-0.983	-1.828	-1.406	-0.509	-1.464	-1.913	-2.209	-0.609	-0.020	0.823	0.926	2.063	2.634	1.973	39.062
-0.933	-1.262	-0.915	-0.935	-0.312	-0.021	0.062	0.658	1.571	0.582	1.002	2.211	-0.011	-0.856	-0.881	-1.706	-1.306	-0.475	-1.415	-1.775	-2.035	-0.523	0.011	0.933	0.923	2.018	2.560	1.749	42.969
-0.702	-1.170	-0.804	-0.815	-0.155	0.089	0.006	0.702	1.476	0.236	0.724	1.887	-0.090	-0.702	-0.738	-1.530	-1.092	-0.410	-1.284	-1.588	-1.834	-0.437	0.022	0.969	0.861	1.894	2.376	1.445	46.875
-0.488	-0.996	-0.615	-0.640	0.032	0.213	-0.016	0.761	1.404	-0.086	0.424	1.469	-0.224	-0.578	-0.575	-1.312	-0.798	-0.319	-1.086	-1.372	-1.628	-0.355	0.023	0.942	0.769	1.723	2.120	1.101	50.781
-0.320	-0.767	-0.376	-0.430	0.227	0.332	-0.003	0.812	1.343	-0.355	0.111	0.974	-0.404	-0.492	-0.413	-1.068	-0.465	-0.208	-0.843	-1.149	-1.435	-0.277	0.033	0.875	0.680	1.538	1.833	0.748	54.688
-0.219	-0.520	-0.115	-0.207	0.407	0.428	0.039	0.830	1.280	-0.549	-0.207	0.421	-0.618	-0.453	-0.271	-0.818	-0.140	-0.088	-0.587	-0.943	-1.276	-0.204	0.071	0.791	0.630	1.375	1.561	0.424	58.594
-0.192	-0.295	0.132	-0.001	0.545	0.483	0.103	0.794	1.210	-0.653	-0.518	-0.160	-0.855	-0.465	-0.165	-0.585	0.135	0.034	-0.352	-0.778	-1.169	-0.136	0.155	0.716	0.648	1.268	1.344	0.167	62.500
-0.237	-0.131	0.331	0.154	0.618	0.480	0.180	0.693	1.139	-0.657	-0.799	-0.729	-1.103	-0.532	-0.104	-0.399	0.330	0.151	-0.172	-0.682	-1.132	-0.079	0.292	0.671	0.752	1.248	1.221	0.024	66.406
-0.349	-0.057	0.445	0.229	0.605	0.406	0.265	0.531	1.081	-0.555	-1.020	-1.236	-1.348	-0.660	-0.089	-0.286	0.434	0.260	-0.068	-0.677	-1.180	-0.040	0.479	0.670	0.948	1.343	1.222	0.039	70.312
-0.516	-0.089	0.437	0.198	0.493	0.256	0.354	0.326	1.064	-0.349	-1.142	-1.630	-1.575	-0.852	-0.115	-0.271	0.458	0.363	-0.049	-0.784	-1.325	-0.027	0.703	0.720	1.226	1.570	1.364	0.251	74.219
-0.731	-0.229	0.278	0.046	0.277	0.031	0.446	0.111	1.119	-0.044	-1.126	-1.859	-1.773	-1.108	-0.171	-0.371	0.424	0.464	-0.109	-1.010	-1.571	-0.049	0.943	0.820	1.567	1.939	1.653	0.682	78.125
-0.992	-0.472	-0.052	-0.232	-0.037	-0.261	0.543	-0.073	1.279	0.354	-0.937	-1.885	-1.935	-1.425	-0.247	-0.591	0.364	0.564	-0.231	-1.356	-1.913	-0.114	1.167	0.961	1.943	2.447	2.081	1.330	82.031
-1.294	-0.804	-0.548	-0.631	-0.436	-0.603	0.649	-0.180	1.576	0.834	-0.553	-1.685	-2.057	-1.795	-0.339	-0.932	0.294	0.659	-0.399	-1.811	-2.340	-0.231	1.342	1.132	2.326	3.082	2.632	2.170	85.938
-1.636	-1.215	-1.182	-1.134	-0.899	-0.977	0.772	-0.173	2.028	1.386	0.027	-1.256	-2.141	-2.203	-0.453	-1.382	0.212	0.732	-0.603	-2.354	-2.830	-0.404	1.434	1.320	2.691	3.824	3.283	3.155	89.844
-2.013	-1.699	-1.895	-1.719	-1.399	-1.366	0.919	-0.028	2.636	1.998	0.782	-0.615	-2.188	-2.628	-0.604	-1.927	0.090	0.756	-0.848	-2.960	-3.355	-0.637	1.412	1.517	3.021	4.648	4.008	4.224	93.750
-2.419	-2.250	-2.613	-2.355	-1.907	-1.753	1.092	0.259	3.381	2.652	1.669	0.203	-2.199	-3.042	-0.810	-2.543	-0.113	0.699	-1.147	-3.596	-3.883	-0.930	1.254	1.720	3.310	5.525	4.783	5.315	97.656
-2.844	-2.862	-3.254	-3.009	-2.394	-2.126	1.291	0.663	4.218	3.326	2.630	1.150	-2.173	-3.415	-1.087	-3.202	-0.439	0.537	-1.518	-4.227	-4.379	-1.273	0.957	1.929	3.558	6.423	5.585	6.369	101.562
-3.273	-3.517	-3.745	-3.639	-2.834	-2.474	1.506	1.134	5.082	3.986	3.594	2.170	-2.104	-3.715	-1.437	-3.867	-0.908	0.262	-1.965	-4.816	-4.812	-1.650	0.537	2.150	3.767	7.305	6.388	7.337	105.469
-3.681	-4.181	-4.038	-4.201	-3.202	-2.787	1.720	1.597	5.889	4.590	4.490	3.198	-1.986	-3.914	-1.839	-4.492	-1.500	-0.107	-2.471	-5.320	-5.149	-2.029	0.035	2.385	3.941	8.122	7.165	8.176	109.375
-4.040	-4.797	-4.114	-4.649	-3.477	-3.053	1.908	1.966	6.550	5.088	5.250	4.169	-1.814	-3.991	-2.247	-5.024	-2.149	-0.520	-2.986	-5.701	-5.365	-2.370	-0.487	2.634	4.073	8.813	7.878	8.845	113.281
-4.321	-5.296	-3.989	-4.935	-3.643	-3.258	2.044	2.154	6.981	5.432	5.820	5.019	-1.584	-3.933	-2.603	-5.408	-2.756	-0.910	-3.439	-5.919	-5.439	-2.627	-0.957	2.885	4.148	9.311	8.476	9.306	117.188
-4.502	-5.600	-3.709	-5.021	-3.689	-3.387	2.104	2.094	7.121	5.580	6.167	5.691	-1.302	-3.740	-2.841	-5.596	-3.206	-1.198	-3.746	-5.943	-5.357	-2.760	-1.301	3.117	4.147	9.545	8.899	9.523	121.094
-4.573	-5.647	-3.335	-4.884	-3.613	-3.430	2.072	1.752	6.941	5.512	6.283	6.144	-0.980	-3.426	-2.909	-5.554	-3.396	-1.321	-3.834	-5.760	-5.117	-2.740	-1.461	3.302	4.045	9.456	9.087	9.466	125.000
-4.537	-5.401	-2.933	-4.526	-3.421	-3.383	1.942	1.136	6.456	5.232	6.185	6.362	-0.641	-3.020	-2.782	-5.274	-3.266	-1.242	-3.658	-5.373	-4.734	-2.561	-1.411	3.406	3.825	9.015	8.988	9.126	128.906
-4.412	-4.870	-2.561	-3.976	-3.130	-3.252	1.725	0.299	5.718	4.772	5.921	6.354	-0.315	-2.565	-2.470	-4.780	-2.812	-0.963	-3.221	-4.813	-4.238	-2.241	-1.156	3.399	3.482	8.232	8.576	8.521	132.812
-4.223	-4.107	-2.259	-3.293	-2.771	-3.057	1.439	-0.668	4.817	4.190	5.556	6.160	-0.035	-2.109	-2.014	-4.126	-2.093	-0.523	-2.570	-4.138	-3.678	-1.824	-0.741	3.260	3.033	7.165	7.861	7.704	136.719
-3.993	-3.208	-2.046	-2.558	-2.382	-2.826	1.118	-1.653	3.864	3.562	5.169	5.843	0.165	-1.705	-1.483	-3.394	-1.218	0.004	-1.796	-3.420	-3.115	-1.371	-0.236	2.986	2.513	5.921	6.897	6.761	140.625
-3.743	-2.295	-1.920	-1.864	-2.007	-2.595	0.797	-2.538	2.977	2.975	4.839	5.482	0.259	-1.402	-0.955	-2.679	-0.323	0.534	-1.010	-2.746	-2.615	-0.949	0.274	2.598	1.980	4.640	5.783	5.807	144.531
-3.484	-1.496	-1.867	-1.301	-1.690	-2.401	0.513	-3.221	2.261	2.507	4.632	5.156	0.230	-1.237	-0.502	-2.077	0.454	0.982	-0.328	-2.197	-2.242	-0.619	0.706	2.134	1.500	3.477	4.647	4.966	148.438
-3.229	-0.923	-1.863	-0.938	-1.470	-2.275	0.297	-3.629	1.795	2.225	4.592	4.936	0.076	-1.228	-0.181	-1.664	1.009	1.285	0.158	-1.837	-2.043	-0.427	0.998	1.650	1.141	2.581	3.635	4.357	152.344
-2.991	-0.648	-1.890	-0.817	-1.371	-2.238	0.169	-3.732	1.618	2.169	4.734	4.866	-0.190	-1.376	-0.023	-1.488	1.278	1.413	0.391	-1.705	-2.045	-0.392	1.112	1.211	0.955	2.066	2.882	4.071	156.250
-2.792	-0.697	-1.937	-0.941	-1.405	-2.298	0.140	-3.540	1.731	2.352	5.044	4.963	-0.540	-1.662	-0.030	-1.559	1.253	1.365	0.359	-1.807	-2.248	-0.510	1.048	0.878	0.973	1.996	2.494	4.153	160.156
-2.664	-1.048	-2.007	-1.280	-1.564	-2.452	0.209	-3.100	2.099	2.759	5.487	5.215	-0.936	-2.047	-0.185	-1.853	0.972	1.173	0.088	-2.122	-2.627	-0.754	0.831	0.703	1.199	2.376	2.530	4.599	164.062
-2.644	-1.633	-2.113	-1.779	-1.825	-2.682	0.369	-2.482	2.663	3.352	6.012	5.582	-1.332	-2.486	-0.453	-2.320	0.506	0.886	-0.361	-2.602	-3.137	-1.079	0.512	0.716	1.607	3.155	2.993	5.354	167.969
-2.768	-2.359	-2.274	-2.366	-2.154	-2.963	0.607	-1.765	3.352	4.080	6.565	6.012	-1.683	-2.927	-0.796	-2.895	-0.062	0.563	-0.916	-3.190	-3.721	-1.438	0.151	0.926	2.148	4.240	3.835	6.326	171.875
-3.056	-3.125	-2.504	-2.971	-2.513	-3.269	0.909	-1.022	4.100	4.885	7.101	6.446	-1.948	-3.327	-1.174	-3.513	-0.650	0.254	-1.501	-3.828	-4.323	-1.786	-0.193	1.318	2.760	5.510	4.964	7.404	175.781
-3.512	-3.838	-2.808	-3.533	-2.863	-3.572	1.263	-0.305	4.854	5.710	7.588	6.833	-2.100	-3.650	-1.554	-4.120	-1.199	-0.006	-2.055	-4.466	-4.895	-2.088	-0.479	1.855	3.375	6.839	6.265	8.478	179.688
-4.107	-4.431	-3.172	-4.012	-3.175	-3.849	1.655	0.356	5.583	6.512	8.008	7.138	-2.129	-3.879	-1.915	-4.681	-1.671	-0.199	-2.538	-5.069	-5.402	-2.330	-0.688	2.489	3.935	8.121	7.621	9.458	183.594
-4.792	-4.869	-3.569	-4.392	-3.430	-4.086	2.077	0.957	6.271	7.260	8.362	7.347	-2.044	-4.014	-2.243	-5.177	-2.057	-0.331	-2.933	-5.623	-5.831	-2.511	-0.824	3.164	4.398	9.275	8.930	10.288	187.500
-5.500	-5.153	-3.969	-4.675	-3.623	-4.276	2.517	1.512	6.922	7.936	8.663	7.463	-1.870	-4.073	-2.532	-5.612	-2.369	-0.419	-3.249	-6.126	-6.186	-2.647	-0.912	3.829	4.743	10.262	10.120	10.947	191.406
-6.163	-5.315	-4.343	-4.884	-3.760	-4.418	2.967	2.049	7.549	8.537	8.932	7.510	-1.647	-4.083	-2.783	-5.998	-2.630	-0.489	-3.506	-6.589	-6.483	-2.762	-0.989	4.441	4.977	11.078	11.154	11.448	195.312
-6.725	-5.404	-4.677	-5.046	-3.855	-4.518	3.416	2.593	8.167	9.073	9.195	7.522	-1.415	-4.079	-3.000	-6.353	-2.864	-0.563	-3.732	-7.025	-6.749	-2.882	-1.089	4.972	5.125	11.750	12.031	11.832	199.219
-7.158	-5.474	-4.972	-5.191	-3.925	-4.584	3.858	3.163	8.793	9.557	9.476	7.533	-1.215	-4.092	-3.185	-6.694	-3.087	-0.655	-3.947	-7.448	-7.004	-3.025	-1.238	5.414	5.226	12.322	12.776	12.152	203.125
-7.458	-5.571	-5.242	-5.342	-3.986	-4.623	4.288	3.768	9.436	10.008	9.793	7.577	-1.071	-4.141	-3.346	-7.033	-3.308	-0.769	-4.166	-7.863	-7.267	-3.202	-1.447	5.769	5.323	12.837	13.430	12.461	207.031
-7.650	-5.727	-5.513	-5.513	-4.049	-4.641	4.704	4.399	10.099	10.446	10.157	7.677	-0.994	-4.237	-3.487	-7.379	-3.530	-0.899	-4.394	-8.274	-7.543	-3.413	-1.710	6.054	5.451	13.334	14.034	12.803	210.938
-7.770	-5.952	-5.815	-5.707	-4.116	-4.639	5.110	5.040	10.782	10.887	10.571	7.844	-0.973	-4.370	-3.616	-7.733	-3.758	-1.039	-4.633	-8.675	-7.828	-3.653	-2.012	6.290	5.636	13.832	14.626	13.205	214.844
-7.862	-6.240	-6.174	-5.919	-4.186	-4.620	5.510	5.667	11.477	11.342	11.032	8.079	-0.985	-4.524	-3.744	-8.096	-4.002	-1.181	-4.885	-9.063	-8.112	-3.914	-2.332	6.500	5.885	14.339	15.225	13.675	218.750
-7.965	-6.571	-6.602	-6.140	-4.253	-4.590	5.909	6.255	12.175	11.812	11.530	8.373	-0.995	-4.673	-3.882	-8.468	-4.281	-1.327	-5.160	-9.432	-8.380	-4.187	-2.650	6.701	6.190	14.845	15.838	14.200	222.656
-8.104	-6.925	-7.094	-6.361	-4.314	-4.556	6.310	6.782	12.860	12.291	12.049	8.715	-0.965	-4.792	-4.043	-8.848	-4.615	-1.481	-5.469	-9.779	-8.620	-4.468	-2.952	6.903	6.532	15.336	16.458	14.757	226.562
-8.290	-7.284	-7.624	-6.577	-4.365	-4.530	6.712	7.231	13.517	12.766	12.575	9.092	-0.864	-4.859	-4.237	-9.238	-5.024	-1.655	-5.827	-10.107	-8.823	-4.755	-3.229	7.108	6.884	15.796	17.067	15.318	230.469
-8.519	-7.640	-8.150	-6.786	-4.410	-4.524	7.113	7.591	14.127	13.219	13.097	9.490	-0.671	-4.860	-4.469	-9.643	-5.515	-1.857	-6.244	-10.420	-8.986	-5.045	-3.480	7.314	7.217	16.214	17.647	15.859	234.375
-8.770	-7.995	-8.620	-6.994	-4.451	-4.549	7.504	7.860	14.675	13.635	13.606	9.902	-0.375	-4.791	-4.737	-10.066	-6.083	-2.091	-6.718	-10.725	-9.109	-5.332	-3.705	7.514	7.510	16.587	18.181	16.361	238.281
-9.019	-8.357	-8.988	-7.206	-4.493	-4.612	7.879	8.038	15.145	14.003	14.097	10.319	0.017	-4.652	-5.031	-10.510	-6.700	-2.352	-7.233	-11.027	-9.194	-5.608	-3.908	7.702	7.749	16.915	18.657	16.813	242.188
-9.238	-8.737	-9.227	-7.427	-4.538	-4.713	8.227	8.129	15.522	14.315	14.562	10.735	0.491	-4.452	-5.329	-10.974	-7.327	-2.624	-7.758	-11.328	-9.241	-5.858	-4.087	7.875	7.934	17.205	19.069	17.211	246.094
-9.404	-9.137	-9.334	-7.659	-4.585	-4.846	8.541	8.137	15.794	14.566	14.993	11.137	1.026	-4.199	-5.609	-11.447	-7.913	-2.883	-8.250	-11.623	-9.250	-6.058	-4.239	8.038	8.075	17.459	19.417	17.554	250.000
-9.506	-9.549	-9.333	-7.893	-4.628	-4.999	8.812	8.068	15.949	14.756	15.372	11.509	1.598	-3.900	-5.841	-11.909	-8.406	-3.099	-8.657	-11.897	-9.215	-6.183	-4.355	8.201	8.185	17.678	19.705	17.838	253.906
-9.544	-9.949	-9.266	-8.116	-4.660	-5.157	9.035	7.926	15.980	14.881	15.676	11.827	2.185	-3.560	-6.000	-12.333	-8.762	-3.244	-8.932	-12.129	-9.128	-6.209	-4.421	8.377	8.280	17.854	19.936	18.060	257.812
-9.531	-10.306	-9.187	-8.308	-4.671	-5.301	9.208	7.719	15.885	14.943	15.878	12.068	2.770	-3.180	-6.070	-12.687	-8.947	-3.293	-9.041	-12.295	-8.982	-6.115	-4.424	8.579	8.367	17.976	20.114	18.213	261.719
-9.491	-10.578	-9.140	-8.444	-4.652	-5.414	9.335	7.458	15.673	14.945	15.958	12.209	3.340	-2.760	-6.042	-12.941	-8.952	-3.235	-8.969	-12.372	-8.770	-5.893	-4.355	8.815	8.448	18.028	20.239	18.288	265.625
-9.451	-10.731	-9.157	-8.504	-4.596	-5.480	9.424	7.161	15.361	14.897	15.904	12.234	3.884	-2.301	-5.925	-13.077	-8.785	-3.073	-8.726	-12.344	-8.492	-5.552	-4.213	9.085	8.512	17.993	20.310	18.277	269.531
-9.439	-10.742	-9.250	-8.475	-4.499	-5.491	9.486	6.850	14.975	14.812	15.719	12.139	4.391	-1.809	-5.736	-13.088	-8.480	-2.826	-8.346	-12.206	-8.154	-5.113	-4.004	9.379	8.543	17.859	20.323	18.179	273.438
-9.473	-10.608	-9.408	-8.351	-4.362	-5.446	9.531	6.550	14.550	14.707	15.420	11.934	4.850	-1.297	-5.502	-12.979	-8.080	-2.522	-7.879	-11.966	-7.769	-4.610	-3.741	9.678	8.523	17.620	20.272	17.997	277.344
-9.560	-10.348	-9.601	-8.142	-4.190	-5.350	9.570	6.284	14.120	14.593	15.036	11.638	5.247	-0.785	-5.252	-12.769	-7.635	-2.193	-7.377	-11.639	-7.353	-4.084	-3.441	9.955	8.437	17.277	20.152	17.742	281.250
-9.690	-9.999	-9.789	-7.865	-3.992	-5.217	9.604	6.070	13.712	14.480	14.603	11.277	5.564	-0.302	-5.012	-12.481	-7.187	-1.873	-6.887	-11.249	-6.929	-3.574	-3.125	10.180	8.275	16.840	19.956	17.427	285.156
-9.845	-9.605	-9.926	-7.544	-3.778	-5.061	9.631	5.919	13.348	14.364	14.160	10.880	5.785	0.123	-4.797	-12.139	-6.762	-1.584	-6.441	-10.820	-6.519	-3.112	-2.811	10.323	8.036	16.327	19.679	17.067	289.062
-9.991	-9.211	-9.970	-7.206	-3.558	-4.896	9.645	5.832	13.034	14.235	13.736	10.468	5.896	0.460	-4.613	-11.761	-6.370	-1.340	-6.050	-10.373	-6.139	-2.722	-2.518	10.359	7.726	15.757	19.316	16.672	292.969
-10.098	-8.846	-9.890	-6.871	-3.335	-4.728	9.637	5.802	12.767	14.080	13.353	10.056	5.892	0.689	-4.456	-11.357	-6.006	-1.145	-5.710	-9.923	-5.802	-2.416	-2.259	10.276	7.356	15.151	18.867	16.245	296.875
-10.138	-8.519	-9.675	-6.548	-3.109	-4.558	9.601	5.816	12.533	13.883	13.018	9.653	5.775	0.805	-4.316	-10.930	-5.654	-0.995	-5.403	-9.476	-5.511	-2.198	-2.049	10.072	6.942	14.529	18.335	15.786	300.781
-10.104	-8.221	-9.332	-6.241	-2.874	-4.380	9.534	5.857	12.317	13.638	12.728	9.261	5.560	0.816	-4.179	-10.476	-5.297	-0.879	-5.107	-9.031	-5.262	-2.061	-1.895	9.760	6.505	13.910	17.730	15.292	304.688
-10.003	-7.924	-8.892	-5.943	-2.620	-4.183	9.443	5.911	12.101	13.345	12.470	8.878	5.270	0.747	-4.034	-9.989	-4.923	-0.783	-4.803	-8.580	-5.042	-1.992	-1.799	9.365	6.064	13.313	17.070	14.761	308.594
-9.861	-7.599	-8.407	-5.642	-2.338	-3.961	9.337	5.962	11.875	13.015	12.231	8.503	4.936	0.632	-3.876	-9.463	-4.525	-0.694	-4.476	-8.114	-4.837	-1.969	-1.753	8.922	5.641	12.754	16.381	14.197	312.500
-9.716	-7.223	-7.936	-5.328	-2.025	-3.712	9.230	6.002	11.634	12.667	11.995	8.139	4.592	0.513	-3.703	-8.898	-4.104	-0.598	-4.122	-7.625	-4.627	-1.966	-1.742	8.472	5.256	12.251	15.694	13.614	316.406
-9.610	-6.792	-7.542	-4.996	-1.683	-3.439	9.136	6.025	11.379	12.322	11.757	7.790	4.269	0.427	-3.520	-8.299	-3.671	-0.484	-3.741	-7.108	-4.398	-1.951	-1.743	8.056	4.926	11.816	15.045	13.031	320.312
-9.582	-6.316	-7.271	-4.644	-1.323	-3.157	9.063	6.029	11.117	11.997	11.516	7.463	3.995	0.404	-3.336	-7.679	-3.239	-0.346	-3.342	-6.565	-4.139	-1.899	-1.729	7.706	4.664	11.460	14.464	12.475	324.219
-9.662	-5.825	-7.153	-4.283	-0.963	-2.883	9.018	6.013	10.856	11.706	11.279	7.169	3.790	0.461	-3.164	-7.057	-2.826	-0.182	-2.936	-6.000	-3.847	-1.787	-1.677	7.450	4.482	11.187	13.977	11.971	328.125
-9.862	-5.361	-7.186	-3.927	-0.624	-2.637	9.000	5.979	10.608	11.457	11.059	6.918	3.666	0.600	-3.019	-6.455	-2.450	0.002	-2.540	-5.428	-3.525	-1.606	-1.571	7.300	4.382	10.995	13.596	11.541	332.031
-10.177	-4.966	-7.348	-3.596	-0.327	-2.435	9.003	5.928	10.381	11.249	10.871	6.721	3.625	0.809	-2.913	-5.896	-2.128	0.196	-2.168	-4.867	-3.187	-1.359	-1.403	7.256	4.361	10.876	13.324	11.203	335.938
-10.583	-4.677	-7.596	-3.311	-0.090	-2.289	9.017	5.863	10.181	11.075	10.728	6.586	3.662	1.064	-2.852	-5.402	-1.872	0.388	-1.833	-4.337	-2.849	-1.060	-1.176	7.309	4.408	10.818	13.151	10.960	339.844
-11.046	-4.514	-7.879	-3.089	0.079	-2.201	9.031	5.783	10.011	10.926	10.639	6.518	3.764	1.341	-2.839	-4.991	-1.684	0.569	-1.539	-3.860	-2.528	-0.728	-0.900	7.441	4.505	10.804	13.062	10.810	343.750
-11.527	-4.477	-8.149	-2.940	0.177	-2.166	9.029	5.688	9.867	10.787	10.605	6.516	3.919	1.612	-2.864	-4.672	-1.550	0.735	-1.281	-3.454	-2.241	-0.380	-0.589	7.633	4.632	10.816	13.037	10.742	347.656
-11.991	-4.545	-8.370	-2.863	0.214	-2.174	9.000	5.576	9.743	10.645	10.618	6.574	4.112	1.858	-2.914	-4.447	-1.448	0.887	-1.045	-3.132	-1.998	-0.029	-0.255	7.865	4.766	10.840	13.059	10.738	351.562
-12.411	-4.680	-8.518	-2.849	0.203	-2.211	8.933	5.442	9.625	10.486	10.661	6.678	4.332	2.066	-2.970	-4.309	-1.349	1.033	-0.812	-2.901	-1.803	0.324	0.087	8.123	4.890	10.861	13.114	10.781	355.469
-12.767	-4.838	-8.591	-2.882	0.162	-2.262	8.821	5.282	9.499	10.296	10.711	6.805	4.567	2.230	-3.014	-4.246	-1.225	1.184	-0.565	-2.761	-1.657	0.680	0.429	8.395	4.996	10.873	13.193	10.851	359.375
-13.043	-4.974	-8.597	-2.945	0.107	-2.315	8.663	5.093	9.349	10.069	10.740	6.927	4.811	2.351	-3.030	-4.244	-1.057	1.347	-0.296	-2.706	-1.556	1.041	0.758	8.670	5.085	10.873	13.289	10.929	363.281
-13.227	-5.057	-8.551	-3.019	0.054	-2.359	8.461	4.874	9.161	9.804	10.720	7.009	5.056	2.432	-3.010	-4.286	-0.846	1.520	-0.010	-2.725	-1.492	1.403	1.062	8.940	5.164	10.861	13.399	10.994	367.188
-13.305	-5.073	-8.469	-3.091	0.011	-2.388	8.226	4.631	8.927	9.507	10.630	7.012	5.291	2.479	-2.953	-4.360	-0.609	1.693	0.269	-2.806	-1.461	1.755	1.325	9.194	5.249	10.842	13.515	11.030	371.094
-13.264	-5.022	-8.359	-3.153	-0.016	-2.397	7.972	4.375	8.650	9.190	10.452	6.903	5.500	2.498	-2.868	-4.452	-0.382	1.847	0.508	-2.934	-1.455	2.072	1.529	9.418	5.351	10.824	13.629	11.020	375.000
-13.097	-4.920	-8.218	-3.199	-0.026	-2.384	7.716	4.124	8.338	8.867	10.183	6.658	5.661	2.491	-2.768	-4.557	-0.200	1.960	0.672	-3.095	-1.473	2.330	1.663	9.593	5.477	10.809	13.724	10.952	378.906
-12.805	-4.787	-8.036	-3.225	-0.020	-2.347	7.474	3.898	8.009	8.556	9.828	6.275	5.750	2.458	-2.668	-4.668	-0.094	2.016	0.733	-3.274	-1.513	2.503	1.724	9.702	5.624	10.798	13.782	10.823	382.812
-12.401	-4.645	-7.803	-3.231	-0.001	-2.283	7.260	3.719	7.687	8.268	9.412	5.776	5.740	2.395	-2.581	-4.784	-0.079	2.007	0.681	-3.462	-1.579	2.573	1.723	9.727	5.779	10.790	13.781	10.638	386.719
-11.909	-4.509	-7.512	-3.213	0.027	-2.193	7.077	3.603	7.395	8.015	8.968	5.209	5.612	2.295	-2.516	-4.904	-0.148	1.938	0.526	-3.653	-1.674	2.535	1.679	9.654	5.927	10.779	13.705	10.411	390.625
-11.363	-4.385	-7.168	-3.170	0.062	-2.074	6.925	3.561	7.150	7.797	8.540	4.639	5.355	2.153	-2.476	-5.030	-0.279	1.825	0.292	-3.846	-1.807	2.395	1.619	9.480	6.049	10.762	13.542	10.165	394.531
-10.802	-4.268	-6.787	-3.100	0.100	-1.929	6.792	3.591	6.962	7.611	8.168	4.142	4.975	1.966	-2.462	-5.161	-0.445	1.687	0.013	-4.044	-1.984	2.170	1.570	9.209	6.131	10.731	13.294	9.926	398.438
-10.265	-4.145	-6.394	-3.002	0.142	-1.759	6.666	3.683	6.826	7.446	7.886	3.781	4.492	1.732	-2.472	-5.296	-0.620	1.542	-0.280	-4.250	-2.208	1.881	1.546	8.855	6.162	10.682	12.968	9.714	402.344
-9.779	-4.001	-6.015	-2.877	0.187	-1.565	6.532	3.820	6.729	7.287	7.709	3.599	3.942	1.460	-2.502	-5.430	-0.788	1.401	-0.565	-4.465	-2.475	1.552	1.551	8.438	6.141	10.608	12.577	9.540	406.250
-9.357	-3.823	-5.671	-2.728	0.241	-1.351	6.381	3.979	6.649	7.117	7.638	3.604	3.366	1.163	-2.550	-5.559	-0.946	1.266	-0.834	-4.687	-2.772	1.205	1.579	7.981	6.070	10.500	12.134	9.398	410.156
-8.992	-3.610	-5.370	-2.562	0.306	-1.120	6.209	4.136	6.564	6.924	7.654	3.768	2.812	0.864	-2.610	-5.674	-1.100	1.133	-1.084	-4.908	-3.077	0.863	1.612	7.510	5.954	10.347	11.652	9.271	414.062
-8.662	-3.372	-5.106	-2.387	0.387	-0.879	6.018	4.267	6.452	6.699	7.729	4.036	2.323	0.588	-2.674	-5.770	-1.258	0.997	-1.320	-5.114	-3.364	0.544	1.634	7.046	5.801	10.142	11.136	9.129	417.969
-8.334	-3.129	-4.865	-2.214	0.486	-0.636	5.814	4.354	6.300	6.442	7.825	4.337	1.934	0.364	-2.732	-5.838	-1.424	0.853	-1.544	-5.291	-3.601	0.264	1.632	6.609	5.617	9.876	10.592	8.942	421.875
-7.977	-2.904	-4.627	-2.055	0.602	-0.404	5.604	4.381	6.103	6.164	7.903	4.599	1.669	0.216	-2.768	-5.875	-1.591	0.704	-1.753	-5.422	-3.762	0.039	1.601	6.214	5.410	9.548	10.024	8.684	425.781
-7.570	-2.715	-4.372	-1.915	0.728	-0.196	5.395	4.342	5.865	5.878	7.930	4.762	1.536	0.158	-2.768	-5.877	-1.742	0.560	-1.935	-5.498	-3.832	-0.121	1.546	5.872	5.184	9.162	9.440	8.343	429.688
-7.108	-2.570	-4.088	-1.797	0.857	-0.022	5.188	4.238	5.595	5.603	7.881	4.791	1.529	0.194	-2.722	-5.844	-1.852	0.437	-2.077	-5.513	-3.805	-0.209	1.478	5.587	4.943	8.727	8.851	7.925	433.594
-6.603	-2.463	-3.773	-1.698	0.976	0.107	4.984	4.079	5.307	5.354	7.744	4.680	1.627	0.309	-2.623	-5.778	-1.897	0.348	-2.160	-5.474	-3.693	-0.224	1.413	5.359	4.694	8.258	8.275	7.449	437.500
-6.086	-2.379	-3.434	-1.613	1.074	0.187	4.777	3.882	5.012	5.138	7.520	4.448	1.800	0.477	-2.477	-5.685	-1.860	0.307	-2.174	-5.393	-3.517	-0.169	1.368	5.184	4.440	7.778	7.732	6.950	441.406
-5.597	-2.296	-3.088	-1.535	1.140	0.220	4.561	3.668	4.721	4.951	7.221	4.133	2.010	0.662	-2.297	-5.571	-1.736	0.316	-2.110	-5.287	-3.311	-0.051	1.355	5.055	4.191	7.307	7.241	6.465	445.312
-5.176	-2.195	-2.758	-1.458	1.164	0.211	4.329	3.460	4.444	4.780	6.867	3.780	2.215	0.823	-2.103	-5.443	-1.537	0.374	-1.972	-5.177	-3.108	0.115	1.382	4.962	3.953	6.869	6.820	6.029	449.219
-4.857	-2.064	-2.467	-1.382	1.145	0.168	4.079	3.278	4.186	4.608	6.483	3.434	2.379	0.927	-1.917	-5.306	-1.283	0.469	-1.773	-5.080	-2.940	0.312	1.449	4.897	3.738	6.484	6.480	5.667	453.125
-4.659	-1.899	-2.240	-1.308	1.086	0.103	3.813	3.142	3.954	4.418	6.098	3.128	2.471	0.950	-1.758	-5.166	-1.001	0.584	-1.533	-5.011	-2.832	0.518	1.545	4.849	3.553	6.163	6.223	5.396	457.031
-4.579	-1.710	-2.091	-1.239	0.995	0.027	3.539	3.064	3.755	4.201	5.734	2.883	2.473	0.884	-1.638	-5.029	-0.718	0.703	-1.276	-4.977	-2.795	0.713	1.657	4.811	3.404	5.911	6.044	5.216	460.938
-4.596	-1.512	-2.025	-1.179	0.885	-0.052	3.272	3.051	3.596	3.960	5.412	2.703	2.376	0.734	-1.560	-4.898	-0.456	0.812	-1.027	-4.980	-2.831	0.875	1.766	4.772	3.294	5.725	5.930	5.117	464.844
-4.671	-1.321	-2.028	-1.134	0.772	-0.124	3.025	3.102	3.482	3.710	5.144	2.584	2.182	0.518	-1.518	-4.778	-0.226	0.902	-0.805	-5.018	-2.932	0.990	1.858	4.724	3.221	5.593	5.862	5.079	468.750
-4.761	-1.156	-2.075	-1.102	0.669	-0.184	2.809	3.204	3.413	3.470	4.937	2.516	1.903	0.260	-1.501	-4.675	-0.033	0.969	-0.626	-5.086	-3.084	1.046	1.924	4.659	3.180	5.499	5.819	5.079	472.656
-4.820	-1.026	-2.130	-1.085	0.589	-0.227	2.629	3.336	3.381	3.262	4.787	2.488	1.553	-0.016	-1.494	-4.595	0.122	1.014	-0.498	-5.180	-3.273	1.039	1.961	4.568	3.164	5.426	5.780	5.093	476.562
-4.812	-0.935	-2.164	-1.076	0.540	-0.250	2.478	3.466	3.372	3.097	4.686	2.490	1.153	-0.292	-1.485	-4.543	0.240	1.037	-0.429	-5.294	-3.484	0.969	1.973	4.444	3.165	5.358	5.727	5.101	480.469
-4.713	-0.879	-2.154	-1.069	0.522	-0.250	2.344	3.562	3.365	2.977	4.616	2.513	0.720	-0.553	-1.466	-4.520	0.324	1.044	-0.422	-5.424	-3.703	0.843	1.965	4.280	3.174	5.281	5.642	5.088	484.375
-4.517	-0.846	-2.094	-1.056	0.533	-0.229	2.208	3.592	3.336	2.894	4.557	2.547	0.273	-0.792	-1.430	-4.522	0.380	1.037	-0.469	-5.559	-3.919	0.673	1.947	4.073	3.180	5.183	5.511	5.042	488.281
-4.233	-0.822	-1.991	-1.028	0.570	-0.190	2.055	3.534	3.265	2.828	4.486	2.579	-0.174	-1.004	-1.374	-4.536	0.416	1.024	-0.557	-5.686	-4.122	0.478	1.931	3.822	3.174	5.053	5.320	4.954	492.188
-3.884	-0.786	-1.856	-0.974	0.626	-0.140	1.872	3.381	3.139	2.761	4.377	2.590	-0.607	-1.186	-1.296	-4.544	0.447	1.015	-0.660	-5.788	-4.297	0.283	1.927	3.531	3.146	4.881	5.059	4.816	496.094
-3.498	-0.724	-1.700	-0.887	0.700	-0.084	1.661	3.143	2.957	2.678	4.211	2.556	-1.017	-1.335	-1.195	-4.523	0.492	1.018	-0.749	-5.848	-4.431	0.114	1.946	3.208	3.087	4.662	4.724	4.619	500.000
-3.106	-0.621	-1.526	-0.760	0.789	-0.027	1.432	2.842	2.727	2.572	3.970	2.453	-1.397	-1.446	-1.073	-4.455	0.566	1.043	-0.793	-5.848	-4.511	-0.004	1.995	2.869	2.994	4.393	4.318	4.357	503.906
-2.730	-0.473	-1.330	-0.594	0.895	0.028	1.201	2.507	2.461	2.443	3.645	2.258	-1.739	-1.514	-0.932	-4.324	0.679	1.093	-0.767	-5.779	-4.526	-0.054	2.079	2.534	2.868	4.079	3.854	4.032	507.812
-2.388	-0.281	-1.104	-0.393	1.018	0.081	0.988	2.169	2.180	2.300	3.235	1.959	-2.034	-1.534	-0.774	-4.129	0.832	1.170	-0.661	-5.636	-4.470	-0.026	2.197	2.226	2.717	3.729	3.358	3.651	511.719
-2.087	-0.051	-0.837	-0.169	1.155	0.133	0.807	1.849	1.898	2.149	2.747	1.555	-2.274	-1.502	-0.608	-3.876	1.016	1.270	-0.472	-5.427	-4.343	0.083	2.347	1.974	2.556	3.364	2.867	3.234	515.625
-1.836	0.199	-0.527	0.063	1.299	0.185	0.665	1.560	1.629	1.997	2.198	1.065	-2.447	-1.414	-0.443	-3.584	1.215	1.385	-0.216	-5.167	-4.152	0.265	2.521	1.807	2.404	3.009	2.426	2.811	519.531
-1.643	0.451	-0.183	0.283	1.440	0.235	0.558	1.303	1.385	1.847	1.615	0.519	-2.544	-1.273	-0.292	-3.280	1.404	1.505	0.083	-4.876	-3.911	0.508	2.709	1.747	2.280	2.692	2.080	2.415	523.438
-1.514	0.681	0.170	0.472	1.561	0.280	0.477	1.072	1.174	1.699	1.032	-0.036	-2.557	-1.085	-0.166	-2.995	1.563	1.618	0.394	-4.582	-3.643	0.794	2.897	1.811	2.201	2.438	1.867	2.084	527.344
-1.457	0.866	0.493	0.613	1.648	0.313	0.408	0.861	1.003	1.552	0.490	-0.547	-2.487	-0.862	-0.076	-2.758	1.672	1.713	0.684	-4.312	-3.370	1.100	3.070	1.997	2.175	2.267	1.811	1.847	531.250
-1.468	0.991	0.742	0.697	1.687	0.327	0.339	0.664	0.881	1.406	0.029	-0.964	-2.340	-0.623	-0.025	-2.591	1.724	1.783	0.922	-4.090	-3.119	1.404	3.214	2.291	2.198	2.187	1.917	1.729	535.156
-1.539	1.045	0.879	0.721	1.669	0.317	0.262	0.483	0.815	1.263	-0.318	-1.244	-2.130	-0.388	-0.010	-2.508	1.722	1.827	1.088	-3.934	-2.913	1.681	3.317	2.661	2.256	2.193	2.166	1.736	539.062
-1.647	1.027	0.883	0.689	1.595	0.281	0.179	0.326	0.807	1.127	-0.533	-1.364	-1.875	-0.177	-0.023	-2.509	1.675	1.845	1.167	-3.855	-2.767	1.911	3.375	3.064	2.327	2.274	2.519	1.861	542.969
-1.765	0.942	0.759	0.611	1.474	0.222	0.097	0.205	0.856	1.001	-0.610	-1.319	-1.595	-0.009	-0.054	-2.586	1.591	1.838	1.157	-3.854	-2.691	2.077	3.389	3.454	2.388	2.405	2.925	2.083	546.875
-1.867	0.800	0.535	0.502	1.324	0.151	0.030	0.132	0.955	0.890	-0.563	-1.126	-1.309	0.109	-0.098	-2.723	1.475	1.806	1.064	-3.922	-2.680	2.170	3.366	3.788	2.419	2.560	3.323	2.367	550.781
-1.935	0.614	0.260	0.375	1.166	0.081	-0.008	0.118	1.091	0.793	-0.419	-0.817	-1.035	0.175	-0.152	-2.900	1.330	1.749	0.905	-4.042	-2.724	2.188	3.317	4.029	2.411	2.713	3.657	2.674	554.688
-1.961	0.402	-0.009	0.248	1.024	0.030	-0.006	0.165	1.242	0.710	-0.213	-0.441	-0.788	0.198	-0.219	-3.090	1.160	1.668	0.704	-4.193	-2.802	2.137	3.257	4.156	2.368	2.839	3.877	2.958	558.594
-1.955	0.185	-0.222	0.136	0.918	0.010	0.038	0.266	1.388	0.634	0.016	-0.048	-0.582	0.190	-0.300	-3.270	0.973	1.568	0.490	-4.348	-2.895	2.032	3.199	4.162	2.306	2.922	3.948	3.178	562.500
-1.930	-0.010	-0.345	0.055	0.862	0.027	0.115	0.409	1.506	0.555	0.231	0.307	-0.435	0.163	-0.395	-3.413	0.786	1.458	0.291	-4.480	-2.984	1.891	3.154	4.050	2.245	2.949	3.853	3.294	566.406
-1.898	-0.151	-0.362	0.018	0.860	0.083	0.207	0.578	1.578	0.458	0.403	0.579	-0.366	0.126	-0.497	-3.497	0.625	1.350	0.133	-4.567	-3.058	1.732	3.129	3.831	2.208	2.913	3.593	3.278	570.312
-1.865	-0.208	-0.275	0.037	0.906	0.171	0.291	0.756	1.591	0.326	0.506	0.732	-0.395	0.081	-0.594	-3.503	0.517	1.257	0.036	-4.591	-3.108	1.575	3.124	3.525	2.208	2.814	3.183	3.113	574.219
-1.821	-0.156	-0.093	0.116	0.992	0.282	0.340	0.925	1.538	0.142	0.523	0.741	-0.540	0.025	-0.670	-3.420	0.490	1.191	0.009	-4.545	-3.136	1.434	3.137	3.152	2.247	2.657	2.649	2.800	578.125
-1.747	0.011	0.170	0.254	1.101	0.406	0.332	1.076	1.421	-0.105	0.447	0.598	-0.812	-0.048	-0.707	-3.246	0.561	1.159	0.052	-4.425	-3.144	1.321	3.164	2.733	2.310	2.450	2.029	2.353	582.031
-1.618	0.283	0.503	0.439	1.218	0.536	0.253	1.198	1.245	-0.424	0.275	0.309	-1.211	-0.144	-0.692	-2.987	0.732	1.163	0.159	-4.237	-3.135	1.244	3.201	2.292	2.375	2.203	1.362	1.803	585.938
-1.413	0.631	0.894	0.656	1.332	0.666	0.102	1.287	1.021	-0.810	0.015	-0.108	-1.723	-0.269	-0.619	-2.659	0.993	1.199	0.316	-3.994	-3.111	1.208	3.245	1.856	2.415	1.929	0.695	1.189	589.844
-1.125	1.013	1.323	0.886	1.435	0.793	-0.109	1.340	0.761	-1.247	-0.319	-0.625	-2.315	-0.419	-0.489	-2.282	1.318	1.261	0.509	-3.708	-3.068	1.218	3.296	1.452	2.403	1.643	0.072	0.557	593.750
-0.767	1.386	1.762	1.109	1.523	0.915	-0.358	1.356	0.479	-1.708	-0.704	-1.204	-2.944	-0.585	-0.314	-1.882	1.671	1.339	0.720	-3.400	-3.005	1.275	3.356	1.109	2.329	1.362	-0.464	-0.046	597.656
-0.373	1.712	2.173	1.310	1.599	1.029	-0.614	1.336	0.193	-2.156	-1.108	-1.804	-3.553	-0.755	-0.114	-1.486	2.007	1.422	0.927	-3.085	-2.916	1.376	3.425	0.854	2.192	1.102	-0.872	-0.580	601.562
0.015	1.965	2.515	1.478	1.663	1.133	-0.844	1.280	-0.083	-2.549	-1.498	-2.383	-4.087	-0.909	0.088	-1.122	2.284	1.499	1.113	-2.784	-2.799	1.513	3.501	0.708	2.007	0.877	-1.123	-1.010	605.469
0.349	2.138	2.747	1.610	1.719	1.223	-1.019	1.191	-0.334	-2.852	-1.840	-2.901	-4.492	-1.029	0.267	-0.816	2.467	1.561	1.260	-2.510	-2.657	1.676	3.578	0.681	1.803	0.699	-1.202	-1.316	609.375
0.592	2.233	2.841	1.703	1.767	1.294	-1.121	1.075	-0.544	-3.038	-2.103	-3.325	-4.729	-1.099	0.409	-0.584	2.537	1.602	1.357	-2.275	-2.493	1.850	3.647	0.773	1.608	0.579	-1.106	-1.489	613.281
0.725	2.259	2.786	1.758	1.803	1.341	-1.142	0.938	-0.703	-3.093	-2.264	-3.628	-4.776	-1.104	0.505	-0.437	2.498	1.624	1.406	-2.085	-2.314	2.022	3.699	0.972	1.451	0.519	-0.853	-1.532	617.188
0.747	2.226	2.590	1.773	1.820	1.355	-1.086	0.786	-0.808	-3.026	-2.317	-3.796	-4.631	-1.040	0.559	-0.372	2.375	1.634	1.416	-1.939	-2.127	2.181	3.729	1.256	1.347	0.517	-0.474	-1.460	621.094
0.675	2.141	2.285	1.747	1.808	1.329	-0.972	0.629	-0.858	-2.857	-2.267	-3.824	-4.311	-0.907	0.584	-0.377	2.208	1.641	1.404	-1.832	-1.937	2.321	3.734	1.596	1.299	0.562	-0.011	-1.300	625.000
0.537	2.009	1.915	1.676	1.762	1.257	-0.823	0.474	-0.862	-2.619	-2.139	-3.720	-3.850	-0.712	0.593	-0.433	2.037	1.653	1.390	-1.755	-1.750	2.442	3.715	1.961	1.295	0.634	0.484	-1.084	628.906
0.363	1.833	1.532	1.565	1.680	1.138	-0.663	0.331	-0.833	-2.350	-1.968	-3.505	-3.291	-0.468	0.599	-0.516	1.899	1.675	1.386	-1.696	-1.569	2.544	3.677	2.319	1.316	0.709	0.960	-0.845	632.812
0.182	1.625	1.183	1.424	1.568	0.981	-0.514	0.204	-0.787	-2.087	-1.796	-3.207	-2.682	-0.192	0.609	-0.599	1.813	1.706	1.399	-1.645	-1.394	2.631	3.623	2.642	1.336	0.758	1.367	-0.617	636.719
0.015	1.405	0.910	1.271	1.445	0.803	-0.389	0.096	-0.740	-1.859	-1.668	-2.858	-2.070	0.100	0.625	-0.662	1.778	1.738	1.424	-1.588	-1.227	2.703	3.560	2.907	1.333	0.753	1.660	-0.432	640.625
-0.121	1.203	0.738	1.131	1.333	0.628	-0.297	0.007	-0.707	-1.689	-1.622	-2.498	-1.500	0.389	0.642	-0.686	1.780	1.761	1.450	-1.515	-1.070	2.762	3.492	3.095	1.292	0.674	1.806	-0.314	644.531
-0.215	1.054	0.681	1.034	1.259	0.486	-0.241	-0.065	-0.700	-1.595	-1.683	-2.165	-1.012	0.660	0.656	-0.662	1.799	1.765	1.469	-1.421	-0.924	2.807	3.425	3.193	1.207	0.511	1.781	-0.281	648.438
-0.262	0.990	0.744	1.001	1.240	0.399	-0.222	-0.125	-0.729	-1.586	-1.862	-1.895	-0.640	0.894	0.661	-0.584	1.818	1.746	1.478	-1.300	-0.793	2.839	3.367	3.194	1.084	0.268	1.576	-0.344	652.344
-0.255	1.034	0.922	1.048	1.285	0.383	-0.244	-0.176	-0.797	-1.669	-2.151	-1.719	-0.414	1.077	0.658	-0.454	1.834	1.706	1.482	-1.152	-0.681	2.861	3.327	3.097	0.938	-0.037	1.198	-0.507	656.250
-0.195	1.188	1.202	1.173	1.388	0.438	-0.313	-0.222	-0.905	-1.845	-2.528	-1.658	-0.356	1.195	0.652	-0.277	1.859	1.659	1.499	-0.982	-0.591	2.881	3.317	2.911	0.789	-0.377	0.669	-0.768	660.156
-0.080	1.438	1.563	1.361	1.531	0.555	-0.435	-0.263	-1.049	-2.110	-2.958	-1.724	-0.474	1.236	0.655	-0.065	1.920	1.620	1.548	-0.794	-0.528	2.905	3.344	2.649	0.659	-0.722	0.027	-1.119	664.062
0.085	1.750	1.972	1.583	1.686	0.709	-0.617	-0.300	-1.225	-2.453	-3.401	-1.912	-0.762	1.198	0.680	0.169	2.046	1.611	1.649	-0.598	-0.493	2.943	3.415	2.334	0.567	-1.040	-0.680	-1.544	667.969
0.292	2.086	2.389	1.806	1.824	0.872	-0.857	-0.336	-1.423	-2.856	-3.816	-2.206	-1.197	1.085	0.736	0.410	2.260	1.645	1.811	-0.403	-0.482	3.003	3.528	1.992	0.525	-1.312	-1.400	-2.021	671.875
0.527	2.407	2.770	2.001	1.921	1.014	-1.144	-0.370	-1.634	-3.293	-4.171	-2.580	-1.738	0.909	0.828	0.641	2.567	1.730	2.028	-0.218	-0.491	3.086	3.678	1.653	0.533	-1.524	-2.078	-2.522	675.781
0.766	2.683	3.070	2.143	1.965	1.112	-1.454	-0.408	-1.844	-3.726	-4.442	-2.995	-2.330	0.694	0.954	0.848	2.947	1.861	2.283	-0.052	-0.510	3.191	3.853	1.347	0.582	-1.672	-2.663	-3.012	679.688
0.983	2.893	3.253	2.221	1.956	1.151	-1.750	-0.450	-2.039	-4.113	-4.617	-3.411	-2.910	0.469	1.101	1.019	3.362	2.026	2.548	0.089	-0.527	3.312	4.036	1.104	0.656	-1.758	-3.112	-3.458	683.594
1.148	3.026	3.299	2.237	1.907	1.126	-1.989	-0.499	-2.200	-4.410	-4.696	-3.786	-3.417	0.266	1.253	1.142	3.761	2.204	2.789	0.200	-0.531	3.442	4.213	0.944	0.734	-1.790	-3.392	-3.823	687.500
1.231	3.080	3.204	2.198	1.840	1.044	-2.127	-0.553	-2.313	-4.578	-4.687	-4.085	-3.796	0.116	1.388	1.211	4.092	2.374	2.982	0.280	-0.511	3.572	4.367	0.885	0.798	-1.771	-3.482	-4.075	691.406
1.209	3.057	2.981	2.121	1.778	0.919	-2.137	-0.610	-2.365	-4.589	-4.609	-4.277	-4.010	0.044	1.489	1.223	4.314	2.519	3.110	0.332	-0.460	3.695	4.487	0.937	0.836	-1.706	-3.377	-4.188	695.312
1.063	2.967	2.658	2.020	1.739	0.765	-2.009	-0.669	-2.352	-4.440	-4.484	-4.344	-4.038	0.066	1.543	1.184	4.409	2.626	3.170	0.362	-0.374	3.809	4.565	1.102	0.843	-1.596	-3.081	-4.148	699.219
0.790	2.825	2.266	1.910	1.731	0.597	-1.757	-0.729	-2.283	-4.146	-4.334	-4.281	-3.881	0.188	1.544	1.103	4.380	2.694	3.171	0.380	-0.251	3.912	4.598	1.372	0.822	-1.444	-2.615	-3.955	703.125
0.400	2.651	1.836	1.800	1.753	0.423	-1.418	-0.792	-2.174	-3.748	-4.181	-4.095	-3.554	0.403	1.498	0.996	4.250	2.725	3.130	0.393	-0.095	4.003	4.586	1.736	0.782	-1.252	-2.012	-3.627	707.031
-0.076	2.464	1.399	1.696	1.791	0.248	-1.043	-0.863	-2.048	-3.296	-4.037	-3.804	-3.084	0.698	1.416	0.877	4.051	2.728	3.062	0.409	0.087	4.080	4.535	2.172	0.729	-1.033	-1.313	-3.193	710.938
-0.590	2.279	0.982	1.597	1.828	0.070	-0.683	-0.947	-1.931	-2.845	-3.911	-3.435	-2.502	1.051	1.316	0.760	3.819	2.710	2.980	0.433	0.285	4.143	4.451	2.655	0.671	-0.804	-0.565	-2.696	714.844
-1.086	2.103	0.609	1.501	1.846	-0.109	-0.379	-1.049	-1.846	-2.442	-3.800	-3.018	-1.841	1.442	1.215	0.654	3.581	2.678	2.892	0.464	0.492	4.190	4.341	3.154	0.608	-0.588	0.180	-2.182	718.750
-1.506	1.936	0.303	1.405	1.838	-0.290	-0.153	-1.174	-1.807	-2.117	-3.697	-2.585	-1.130	1.851	1.132	0.565	3.358	2.639	2.802	0.501	0.701	4.221	4.215	3.639	0.537	-0.409	0.872	-1.698	722.656
-1.808	1.774	0.084	1.310	1.805	-0.463	-0.008	-1.319	-1.824	-1.883	-3.593	-2.168	-0.398	2.263	1.080	0.498	3.167	2.595	2.713	0.542	0.907	4.236	4.080	4.079	0.452	-0.290	1.466	-1.288	726.562
-1.972	1.615	-0.037	1.220	1.760	-0.617	0.074	-1.480	-1.898	-1.738	-3.481	-1.798	0.328	2.669	1.064	0.456	3.014	2.551	2.631	0.586	1.113	4.240	3.945	4.445	0.352	-0.249	1.923	-0.984	730.469
-2.005	1.463	-0.057	1.146	1.720	-0.735	0.116	-1.646	-2.025	-1.672	-3.355	-1.501	1.016	3.057	1.083	0.445	2.907	2.510	2.562	0.636	1.316	4.237	3.815	4.713	0.238	-0.291	2.215	-0.810	734.375
-1.935	1.329	0.015	1.099	1.707	-0.803	0.139	-1.801	-2.193	-1.670	-3.221	-1.297	1.627	3.413	1.127	0.472	2.846	2.473	2.513	0.696	1.516	4.230	3.698	4.861	0.117	-0.413	2.325	-0.775	738.281
-1.803	1.231	0.159	1.092	1.735	-0.810	0.157	-1.928	-2.387	-1.725	-3.085	-1.201	2.118	3.718	1.182	0.543	2.828	2.441	2.492	0.768	1.708	4.222	3.599	4.879	-0.002	-0.599	2.246	-0.876	742.188
-1.651	1.186	0.342	1.130	1.806	-0.753	0.169	-2.013	-2.590	-1.831	-2.954	-1.216	2.445	3.946	1.234	0.661	2.848	2.413	2.504	0.854	1.880	4.211	3.527	4.761	-0.110	-0.827	1.986	-1.095	746.094
-1.512	1.208	0.528	1.213	1.912	-0.641	0.162	-2.044	-2.780	-1.987	-2.836	-1.336	2.572	4.075	1.272	0.825	2.899	2.391	2.548	0.954	2.020	4.195	3.485	4.516	-0.199	-1.066	1.567	-1.405	750.000
-1.403	1.299	0.677	1.333	2.035	-0.487	0.119	-2.017	-2.939	-2.187	-2.732	-1.541	2.480	4.086	1.291	1.026	2.973	2.373	2.622	1.064	2.115	4.170	3.476	4.164	-0.269	-1.287	1.023	-1.766	753.906
-1.324	1.445	0.755	1.475	2.152	-0.314	0.025	-1.940	-3.050	-2.424	-2.636	-1.801	2.176	3.975	1.292	1.251	3.060	2.360	2.719	1.178	2.156	4.131	3.496	3.737	-0.321	-1.461	0.404	-2.134	757.812
-1.267	1.626	0.744	1.621	2.239	-0.145	-0.125	-1.825	-3.104	-2.678	-2.541	-2.080	1.693	3.755	1.283	1.480	3.154	2.353	2.830	1.288	2.141	4.078	3.535	3.277	-0.357	-1.568	-0.228	-2.465	761.719
-1.218	1.809	0.648	1.751	2.282	-0.003	-0.320	-1.693	-3.095	-2.919	-2.441	-2.337	1.094	3.452	1.274	1.694	3.250	2.354	2.943	1.384	2.076	4.009	3.582	2.830	-0.379	-1.598	-0.808	-2.724	765.625
-1.169	1.965	0.491	1.850	2.275	0.093	-0.532	-1.565	-3.029	-3.114	-2.332	-2.537	0.455	3.109	1.276	1.872	3.351	2.367	3.052	1.457	1.973	3.931	3.623	2.441	-0.380	-1.549	-1.272	-2.885	769.531
-1.119	2.075	0.316	1.909	2.221	0.129	-0.725	-1.461	-2.916	-3.224	-2.217	-2.654	-0.141	2.769	1.296	1.997	3.465	2.398	3.150	1.500	1.849	3.853	3.645	2.147	-0.349	-1.431	-1.566	-2.939	773.438
-1.080	2.132	0.174	1.926	2.134	0.098	-0.858	-1.395	-2.774	-3.218	-2.106	-2.674	-0.623	2.475	1.339	2.058	3.607	2.455	3.239	1.508	1.720	3.783	3.643	1.972	-0.266	-1.258	-1.657	-2.893	777.344
-1.071	2.141	0.107	1.905	2.029	-0.005	-0.896	-1.374	-2.621	-3.074	-2.014	-2.596	-0.945	2.257	1.407	2.052	3.794	2.545	3.321	1.478	1.601	3.733	3.616	1.923	-0.111	-1.049	-1.536	-2.764	781.250
-1.111	2.120	0.144	1.856	1.923	-0.174	-0.819	-1.398	-2.473	-2.790	-1.952	-2.431	-1.089	2.128	1.497	1.983	4.039	2.674	3.402	1.413	1.498	3.708	3.566	1.990	0.132	-0.822	-1.220	-2.577	785.156
-1.207	2.088	0.291	1.790	1.826	-0.399	-0.631	-1.458	-2.340	-2.381	-1.925	-2.201	-1.071	2.084	1.602	1.864	4.345	2.841	3.486	1.317	1.415	3.707	3.500	2.149	0.464	-0.592	-0.748	-2.358	789.062
-1.356	2.058	0.531	1.718	1.743	-0.664	-0.352	-1.543	-2.223	-1.881	-1.928	-1.931	-0.935	2.105	1.717	1.713	4.705	3.037	3.576	1.201	1.349	3.727	3.424	2.366	0.870	-0.367	-0.175	-2.131	792.969
-1.536	2.037	0.828	1.646	1.673	-0.946	-0.022	-1.638	-2.121	-1.335	-1.949	-1.647	-0.738	2.162	1.837	1.549	5.097	3.249	3.672	1.077	1.294	3.759	3.344	2.604	1.318	-0.151	0.436	-1.911	796.875
