FP1	F3	F7	FC3	C3	C5	P3	P7	PO7	PO3	O1	Oz	Pz	CPz	FP2	Fz	F4	F8	FC4	FCz	Cz	C4	C6	P4	P8	PO8	PO4	O2	time
-0.076	-1.388	0.419	-0.688	-0.550	-0.160	-0.673	-0.864	-0.851	-1.141	-0.147	1.079	0.593	-0.465	0.150	-0.317	0.422	0.609	0.714	0.102	0.034	0.278	1.486	1.015	-0.535	0.746	1.715	2.688	-199.219
-0.087	-0.934	-0.024	-0.386	-0.430	-0.138	-0.800	-0.923	-1.009	-1.341	-0.621	0.695	0.783	-0.192	0.260	0.032	0.488	0.593	0.818	0.425	0.281	0.317	1.156	0.991	-0.410	0.523	1.589	2.037	-195.312
-0.074	-0.521	-0.405	-0.107	-0.306	-0.102	-0.895	-0.976	-1.149	-1.507	-1.063	0.307	0.967	0.070	0.368	0.340	0.558	0.583	0.914	0.710	0.509	0.363	0.868	0.967	-0.304	0.285	1.426	1.378	-191.406
-0.014	-0.185	-0.669	0.130	-0.177	-0.047	-0.932	-1.011	-1.254	-1.609	-1.439	-0.083	1.136	0.307	0.471	0.574	0.632	0.581	0.991	0.927	0.703	0.415	0.649	0.935	-0.236	0.017	1.193	0.706	-187.500
0.089	0.059	-0.776	0.316	-0.046	0.026	-0.901	-1.021	-1.311	-1.634	-1.724	-0.468	1.279	0.507	0.561	0.717	0.711	0.588	1.046	1.058	0.849	0.475	0.519	0.890	-0.210	-0.288	0.872	0.029	-183.594
0.209	0.221	-0.719	0.452	0.081	0.112	-0.804	-1.005	-1.315	-1.581	-1.906	-0.838	1.384	0.661	0.631	0.772	0.802	0.605	1.080	1.103	0.942	0.540	0.481	0.822	-0.218	-0.627	0.463	-0.639	-179.688
0.311	0.326	-0.521	0.547	0.193	0.198	-0.658	-0.966	-1.268	-1.461	-1.980	-1.178	1.440	0.763	0.671	0.754	0.907	0.632	1.098	1.074	0.980	0.606	0.521	0.728	-0.244	-0.986	-0.015	-1.272	-175.781
0.361	0.401	-0.232	0.612	0.281	0.271	-0.489	-0.907	-1.177	-1.294	-1.952	-1.466	1.439	0.808	0.678	0.688	1.020	0.663	1.100	0.993	0.966	0.665	0.614	0.603	-0.270	-1.341	-0.526	-1.832	-171.875
0.348	0.466	0.084	0.655	0.334	0.318	-0.323	-0.833	-1.049	-1.100	-1.829	-1.677	1.375	0.798	0.650	0.603	1.126	0.688	1.085	0.884	0.908	0.702	0.725	0.448	-0.283	-1.663	-1.025	-2.278	-167.969
0.281	0.529	0.364	0.681	0.347	0.328	-0.182	-0.742	-0.892	-0.895	-1.629	-1.789	1.249	0.736	0.593	0.520	1.202	0.696	1.045	0.768	0.816	0.704	0.816	0.269	-0.276	-1.918	-1.464	-2.570	-164.062
0.190	0.579	0.559	0.686	0.317	0.296	-0.078	-0.634	-0.713	-0.689	-1.370	-1.783	1.064	0.631	0.517	0.453	1.228	0.679	0.976	0.660	0.700	0.663	0.861	0.079	-0.251	-2.077	-1.799	-2.679	-160.156
0.104	0.600	0.643	0.666	0.248	0.226	-0.013	-0.511	-0.518	-0.485	-1.079	-1.654	0.829	0.494	0.435	0.405	1.193	0.633	0.875	0.564	0.568	0.577	0.845	-0.105	-0.216	-2.115	-1.995	-2.587	-156.250
0.043	0.576	0.612	0.611	0.146	0.129	0.019	-0.376	-0.316	-0.283	-0.785	-1.408	0.554	0.337	0.358	0.372	1.099	0.563	0.747	0.474	0.426	0.453	0.769	-0.260	-0.179	-2.016	-2.030	-2.297	-152.344
0.009	0.496	0.484	0.517	0.022	0.021	0.026	-0.239	-0.119	-0.083	-0.516	-1.064	0.255	0.171	0.290	0.342	0.963	0.480	0.603	0.380	0.279	0.308	0.649	-0.362	-0.144	-1.778	-1.898	-1.832	-148.438
-0.016	0.362	0.288	0.380	-0.115	-0.079	0.019	-0.115	0.059	0.110	-0.297	-0.653	-0.053	0.008	0.233	0.301	0.803	0.394	0.455	0.271	0.127	0.164	0.510	-0.395	-0.112	-1.409	-1.606	-1.230	-144.531
-0.056	0.189	0.062	0.205	-0.253	-0.155	0.002	-0.017	0.201	0.289	-0.144	-0.211	-0.351	-0.143	0.180	0.240	0.640	0.317	0.316	0.138	-0.027	0.039	0.373	-0.348	-0.077	-0.934	-1.177	-0.545	-140.625
-0.130	-0.005	-0.157	0.001	-0.386	-0.195	-0.023	0.040	0.293	0.441	-0.064	0.225	-0.621	-0.274	0.123	0.151	0.482	0.252	0.189	-0.023	-0.180	-0.054	0.258	-0.222	-0.030	-0.387	-0.642	0.162	-136.719
-0.242	-0.198	-0.335	-0.217	-0.506	-0.197	-0.059	0.050	0.324	0.553	-0.052	0.618	-0.844	-0.380	0.054	0.036	0.330	0.195	0.072	-0.205	-0.328	-0.112	0.172	-0.032	0.038	0.186	-0.046	0.829	-132.812
-0.376	-0.368	-0.445	-0.431	-0.606	-0.167	-0.111	0.013	0.291	0.612	-0.098	0.939	-1.006	-0.455	-0.026	-0.098	0.179	0.142	-0.038	-0.395	-0.466	-0.139	0.115	0.199	0.131	0.736	0.565	1.398	-128.906
-0.504	-0.499	-0.469	-0.618	-0.681	-0.114	-0.179	-0.063	0.196	0.612	-0.185	1.169	-1.095	-0.495	-0.115	-0.234	0.024	0.085	-0.146	-0.574	-0.581	-0.148	0.077	0.440	0.247	1.211	1.138	1.822	-125.000
-0.595	-0.575	-0.404	-0.759	-0.723	-0.053	-0.261	-0.163	0.056	0.551	-0.296	1.293	-1.105	-0.497	-0.201	-0.354	-0.130	0.021	-0.251	-0.720	-0.665	-0.149	0.049	0.659	0.373	1.566	1.623	2.067	-121.094
-0.621	-0.587	-0.256	-0.835	-0.723	0.006	-0.346	-0.266	-0.109	0.439	-0.413	1.307	-1.037	-0.458	-0.270	-0.440	-0.272	-0.046	-0.349	-0.813	-0.706	-0.154	0.018	0.826	0.488	1.766	1.973	2.116	-117.188
-0.572	-0.532	-0.046	-0.834	-0.675	0.057	-0.418	-0.348	-0.266	0.296	-0.520	1.216	-0.900	-0.380	-0.309	-0.478	-0.385	-0.113	-0.430	-0.840	-0.700	-0.169	-0.024	0.917	0.565	1.793	2.153	1.973	-113.281
-0.448	-0.412	0.198	-0.752	-0.575	0.098	-0.457	-0.386	-0.384	0.146	-0.602	1.027	-0.714	-0.269	-0.313	-0.465	-0.456	-0.175	-0.485	-0.801	-0.646	-0.196	-0.083	0.920	0.578	1.646	2.144	1.657	-109.375
-0.264	-0.243	0.442	-0.597	-0.426	0.136	-0.447	-0.363	-0.434	0.020	-0.649	0.759	-0.505	-0.137	-0.280	-0.411	-0.481	-0.228	-0.512	-0.706	-0.554	-0.234	-0.163	0.831	0.510	1.345	1.946	1.204	-105.469
-0.038	-0.043	0.650	-0.388	-0.235	0.177	-0.378	-0.268	-0.394	-0.058	-0.651	0.434	-0.304	0.002	-0.219	-0.330	-0.468	-0.273	-0.516	-0.577	-0.440	-0.282	-0.259	0.657	0.359	0.929	1.578	0.662	-101.562
0.207	0.161	0.789	-0.147	-0.019	0.228	-0.253	-0.100	-0.258	-0.072	-0.604	0.079	-0.144	0.125	-0.141	-0.241	-0.431	-0.312	-0.504	-0.439	-0.324	-0.336	-0.366	0.411	0.140	0.447	1.076	0.086	-97.656
0.449	0.347	0.838	0.097	0.203	0.292	-0.084	0.127	-0.036	-0.018	-0.505	-0.276	-0.052	0.215	-0.060	-0.160	-0.385	-0.346	-0.489	-0.318	-0.226	-0.395	-0.471	0.115	-0.116	-0.048	0.491	-0.471	-93.750
0.667	0.499	0.790	0.319	0.407	0.366	0.103	0.389	0.245	0.093	-0.359	-0.601	-0.048	0.254	0.013	-0.097	-0.344	-0.373	-0.477	-0.231	-0.162	-0.453	-0.560	-0.210	-0.371	-0.505	-0.120	-0.959	-89.844
0.848	0.608	0.661	0.501	0.572	0.440	0.281	0.653	0.549	0.240	-0.175	-0.867	-0.135	0.234	0.070	-0.051	-0.314	-0.391	-0.472	-0.183	-0.141	-0.504	-0.618	-0.542	-0.582	-0.883	-0.703	-1.341	-85.938
0.984	0.671	0.485	0.626	0.679	0.501	0.423	0.879	0.829	0.396	0.037	-1.050	-0.302	0.156	0.108	-0.017	-0.298	-0.397	-0.475	-0.171	-0.162	-0.544	-0.633	-0.859	-0.718	-1.154	-1.209	-1.592	-82.031
1.076	0.688	0.308	0.687	0.715	0.532	0.507	1.032	1.044	0.535	0.266	-1.134	-0.524	0.029	0.123	0.011	-0.301	-0.393	-0.482	-0.184	-0.216	-0.569	-0.600	-1.143	-0.756	-1.305	-1.606	-1.702	-78.125
1.134	0.659	0.179	0.680	0.676	0.518	0.524	1.087	1.164	0.639	0.500	-1.110	-0.767	-0.128	0.115	0.036	-0.325	-0.384	-0.493	-0.210	-0.291	-0.579	-0.527	-1.380	-0.697	-1.340	-1.876	-1.676	-74.219
1.170	0.583	0.129	0.605	0.567	0.448	0.478	1.034	1.176	0.700	0.731	-0.980	-0.994	-0.294	0.087	0.053	-0.378	-0.378	-0.511	-0.240	-0.373	-0.579	-0.433	-1.560	-0.555	-1.271	-2.019	-1.529	-70.312
1.192	0.464	0.170	0.468	0.403	0.320	0.387	0.888	1.087	0.727	0.955	-0.758	-1.172	-0.448	0.040	0.055	-0.458	-0.385	-0.540	-0.269	-0.450	-0.577	-0.344	-1.678	-0.361	-1.122	-2.044	-1.285	-66.406
1.199	0.312	0.284	0.284	0.211	0.145	0.276	0.675	0.924	0.734	1.166	-0.463	-1.277	-0.570	-0.021	0.030	-0.559	-0.409	-0.584	-0.298	-0.512	-0.580	-0.288	-1.731	-0.153	-0.916	-1.972	-0.972	-62.500
1.176	0.144	0.430	0.074	0.020	-0.059	0.173	0.439	0.725	0.741	1.358	-0.125	-1.296	-0.648	-0.090	-0.027	-0.664	-0.448	-0.642	-0.329	-0.552	-0.593	-0.285	-1.720	0.031	-0.678	-1.819	-0.621	-58.594
1.098	-0.014	0.550	-0.136	-0.137	-0.262	0.105	0.220	0.529	0.763	1.522	0.226	-1.228	-0.677	-0.159	-0.117	-0.750	-0.495	-0.710	-0.363	-0.568	-0.617	-0.345	-1.646	0.165	-0.425	-1.601	-0.259	-54.688
0.943	-0.136	0.590	-0.318	-0.233	-0.439	0.088	0.056	0.369	0.804	1.645	0.557	-1.081	-0.659	-0.224	-0.228	-0.798	-0.536	-0.776	-0.399	-0.557	-0.642	-0.459	-1.513	0.234	-0.169	-1.328	0.092	-50.781
0.697	-0.207	0.514	-0.448	-0.254	-0.564	0.126	-0.033	0.265	0.857	1.714	0.839	-0.869	-0.597	-0.278	-0.346	-0.795	-0.558	-0.826	-0.430	-0.517	-0.656	-0.603	-1.323	0.242	0.087	-1.008	0.411	-46.875
0.371	-0.224	0.313	-0.515	-0.200	-0.626	0.214	-0.039	0.220	0.904	1.718	1.049	-0.610	-0.501	-0.321	-0.450	-0.745	-0.554	-0.846	-0.447	-0.447	-0.641	-0.747	-1.081	0.206	0.340	-0.646	0.685	-42.969
-0.005	-0.204	0.012	-0.518	-0.086	-0.623	0.336	0.027	0.228	0.919	1.656	1.173	-0.325	-0.380	-0.350	-0.524	-0.665	-0.520	-0.826	-0.440	-0.348	-0.583	-0.857	-0.795	0.149	0.593	-0.253	0.904	-39.062
-0.383	-0.175	-0.339	-0.474	0.059	-0.566	0.469	0.148	0.269	0.884	1.538	1.209	-0.032	-0.243	-0.370	-0.557	-0.585	-0.466	-0.765	-0.403	-0.225	-0.471	-0.906	-0.472	0.098	0.843	0.159	1.062	-35.156
-0.715	-0.171	-0.680	-0.407	0.202	-0.475	0.596	0.299	0.327	0.792	1.388	1.164	0.249	-0.097	-0.387	-0.550	-0.532	-0.404	-0.668	-0.336	-0.085	-0.307	-0.885	-0.129	0.073	1.086	0.566	1.158	-31.250
-0.965	-0.218	-0.955	-0.342	0.313	-0.368	0.702	0.459	0.390	0.650	1.237	1.057	0.502	0.051	-0.406	-0.511	-0.531	-0.349	-0.551	-0.246	0.059	-0.102	-0.797	0.216	0.084	1.310	0.941	1.194	-27.344
-1.121	-0.327	-1.127	-0.301	0.372	-0.263	0.782	0.611	0.454	0.485	1.122	0.912	0.709	0.191	-0.436	-0.454	-0.592	-0.318	-0.436	-0.146	0.193	0.122	-0.664	0.539	0.129	1.497	1.253	1.179	-23.438
-1.193	-0.486	-1.188	-0.294	0.374	-0.168	0.840	0.751	0.526	0.336	1.078	0.756	0.858	0.316	-0.485	-0.398	-0.712	-0.322	-0.350	-0.053	0.302	0.335	-0.522	0.810	0.196	1.626	1.468	1.120	-19.531
-1.207	-0.668	-1.154	-0.317	0.332	-0.084	0.889	0.881	0.620	0.238	1.125	0.613	0.938	0.417	-0.554	-0.357	-0.876	-0.367	-0.318	0.018	0.376	0.505	-0.407	1.003	0.267	1.679	1.562	1.030	-15.625
-1.193	-0.836	-1.059	-0.352	0.268	-0.003	0.941	1.009	0.745	0.220	1.269	0.500	0.941	0.481	-0.642	-0.338	-1.060	-0.450	-0.355	0.056	0.406	0.603	-0.352	1.091	0.323	1.643	1.517	0.919	-11.719
-1.177	-0.951	-0.942	-0.379	0.211	0.084	1.002	1.143	0.907	0.288	1.497	0.427	0.863	0.498	-0.740	-0.340	-1.232	-0.561	-0.464	0.056	0.390	0.610	-0.373	1.060	0.349	1.517	1.331	0.796	-7.812
-1.164	-0.985	-0.832	-0.374	0.185	0.185	1.072	1.287	1.095	0.425	1.777	0.390	0.705	0.457	-0.833	-0.356	-1.362	-0.684	-0.627	0.019	0.327	0.523	-0.468	0.904	0.338	1.308	1.017	0.665	-3.906
-1.144	-0.928	-0.738	-0.321	0.202	0.299	1.138	1.437	1.289	0.594	2.069	0.383	0.473	0.350	-0.906	-0.374	-1.428	-0.799	-0.818	-0.048	0.221	0.354	-0.615	0.636	0.293	1.040	0.604	0.534	0.000
-1.091	-0.788	-0.656	-0.218	0.259	0.418	1.181	1.582	1.458	0.749	2.331	0.393	0.179	0.172	-0.944	-0.384	-1.420	-0.890	-1.003	-0.138	0.078	0.127	-0.783	0.279	0.223	0.742	0.135	0.408	3.906
-0.978	-0.593	-0.566	-0.077	0.336	0.524	1.181	1.707	1.573	0.849	2.530	0.413	-0.159	-0.073	-0.942	-0.381	-1.349	-0.946	-1.153	-0.245	-0.099	-0.129	-0.935	-0.127	0.149	0.451	-0.338	0.297	7.812
-0.791	-0.385	-0.450	0.077	0.403	0.596	1.126	1.797	1.616	0.865	2.649	0.440	-0.515	-0.371	-0.902	-0.370	-1.239	-0.969	-1.251	-0.366	-0.306	-0.382	-1.045	-0.540	0.091	0.206	-0.756	0.214	11.719
-0.537	-0.206	-0.302	0.212	0.431	0.611	1.012	1.839	1.579	0.795	2.688	0.479	-0.862	-0.700	-0.837	-0.362	-1.121	-0.965	-1.292	-0.503	-0.539	-0.606	-1.098	-0.913	0.067	0.039	-1.067	0.176	15.625
-0.248	-0.093	-0.134	0.295	0.392	0.558	0.851	1.832	1.476	0.659	2.666	0.542	-1.170	-1.033	-0.765	-0.368	-1.023	-0.943	-1.283	-0.657	-0.792	-0.784	-1.095	-1.206	0.089	-0.026	-1.233	0.200	19.531
0.025	-0.066	0.022	0.304	0.277	0.437	0.664	1.780	1.332	0.495	2.608	0.642	-1.414	-1.339	-0.703	-0.398	-0.961	-0.912	-1.240	-0.828	-1.055	-0.910	-1.050	-1.395	0.156	0.019	-1.234	0.299	23.438
0.226	-0.123	0.129	0.231	0.095	0.260	0.480	1.694	1.180	0.346	2.542	0.787	-1.577	-1.588	-0.661	-0.454	-0.930	-0.877	-1.178	-1.010	-1.315	-0.985	-0.986	-1.468	0.260	0.165	-1.078	0.477	27.344
0.316	-0.247	0.156	0.088	-0.131	0.055	0.329	1.593	1.053	0.254	2.490	0.977	-1.653	-1.758	-0.642	-0.531	-0.915	-0.839	-1.114	-1.195	-1.556	-1.018	-0.930	-1.436	0.378	0.388	-0.795	0.723	31.250
0.281	-0.405	0.090	-0.099	-0.360	-0.144	0.233	1.492	0.975	0.242	2.463	1.196	-1.646	-1.839	-0.642	-0.617	-0.900	-0.800	-1.061	-1.366	-1.760	-1.023	-0.905	-1.321	0.483	0.651	-0.432	1.012	35.156
0.140	-0.563	-0.053	-0.291	-0.552	-0.304	0.209	1.408	0.959	0.315	2.458	1.419	-1.568	-1.826	-0.650	-0.701	-0.874	-0.766	-1.030	-1.511	-1.911	-1.018	-0.932	-1.153	0.551	0.916	-0.041	1.311	39.062
-0.063	-0.690	-0.237	-0.451	-0.669	-0.399	0.257	1.350	1.001	0.457	2.463	1.607	-1.434	-1.728	-0.661	-0.771	-0.844	-0.745	-1.032	-1.615	-1.997	-1.017	-1.021	-0.964	0.562	1.145	0.332	1.579	42.969
-0.271	-0.769	-0.415	-0.546	-0.690	-0.416	0.368	1.323	1.086	0.639	2.463	1.722	-1.258	-1.558	-0.671	-0.822	-0.832	-0.751	-1.076	-1.672	-2.013	-1.029	-1.173	-0.774	0.515	1.316	0.659	1.780	46.875
-0.438	-0.796	-0.547	-0.561	-0.610	-0.360	0.524	1.324	1.193	0.824	2.443	1.729	-1.050	-1.333	-0.681	-0.855	-0.865	-0.794	-1.163	-1.681	-1.960	-1.056	-1.374	-0.595	0.421	1.418	0.932	1.892	50.781
-0.538	-0.777	-0.614	-0.495	-0.447	-0.245	0.706	1.348	1.302	0.986	2.394	1.610	-0.816	-1.073	-0.697	-0.872	-0.967	-0.876	-1.288	-1.649	-1.849	-1.092	-1.601	-0.424	0.306	1.459	1.165	1.912	54.688
-0.574	-0.727	-0.622	-0.365	-0.228	-0.097	0.893	1.390	1.399	1.110	2.318	1.362	-0.558	-0.796	-0.723	-0.878	-1.143	-0.990	-1.438	-1.585	-1.693	-1.128	-1.828	-0.253	0.200	1.460	1.384	1.861	58.594
-0.574	-0.666	-0.600	-0.200	0.009	0.055	1.076	1.444	1.483	1.201	2.227	1.003	-0.282	-0.523	-0.761	-0.878	-1.378	-1.121	-1.596	-1.503	-1.514	-1.151	-2.031	-0.073	0.133	1.451	1.620	1.777	62.500
-0.574	-0.610	-0.589	-0.033	0.229	0.186	1.254	1.514	1.564	1.285	2.139	0.564	0.004	-0.273	-0.809	-0.877	-1.640	-1.247	-1.743	-1.419	-1.332	-1.155	-2.194	0.118	0.123	1.460	1.892	1.709	66.406
-0.609	-0.576	-0.628	0.105	0.402	0.276	1.437	1.603	1.665	1.399	2.074	0.086	0.283	-0.066	-0.861	-0.877	-1.888	-1.349	-1.869	-1.346	-1.171	-1.142	-2.316	0.316	0.175	1.514	2.207	1.706	70.312
-0.699	-0.578	-0.740	0.189	0.509	0.318	1.639	1.718	1.810	1.582	2.051	-0.389	0.531	0.081	-0.907	-0.884	-2.082	-1.411	-1.970	-1.300	-1.055	-1.120	-2.402	0.507	0.283	1.628	2.555	1.805	74.219
-0.844	-0.627	-0.928	0.202	0.541	0.312	1.874	1.865	2.023	1.867	2.082	-0.824	0.719	0.152	-0.939	-0.905	-2.193	-1.427	-2.049	-1.291	-1.001	-1.102	-2.463	0.673	0.431	1.810	2.912	2.026	78.125
-1.031	-0.732	-1.173	0.139	0.500	0.265	2.149	2.044	2.316	2.272	2.170	-1.190	0.823	0.139	-0.956	-0.951	-2.215	-1.400	-2.117	-1.332	-1.025	-1.101	-2.511	0.796	0.598	2.056	3.253	2.368	82.031
-1.243	-0.900	-1.437	0.000	0.389	0.186	2.460	2.248	2.689	2.792	2.310	-1.464	0.825	0.038	-0.964	-1.033	-2.163	-1.344	-2.185	-1.430	-1.134	-1.127	-2.548	0.870	0.766	2.364	3.557	2.820	85.938
-1.466	-1.134	-1.681	-0.207	0.215	0.083	2.792	2.468	3.130	3.405	2.495	-1.627	0.724	-0.144	-0.978	-1.163	-2.073	-1.276	-2.266	-1.591	-1.327	-1.183	-2.574	0.898	0.926	2.729	3.821	3.363	89.844
-1.698	-1.437	-1.871	-0.475	-0.012	-0.044	3.122	2.689	3.619	4.072	2.718	-1.664	0.533	-0.396	-1.017	-1.350	-1.992	-1.217	-2.368	-1.818	-1.595	-1.266	-2.584	0.898	1.079	3.150	4.056	3.979	93.750
-1.946	-1.807	-1.989	-0.796	-0.288	-0.196	3.422	2.897	4.128	4.750	2.976	-1.561	0.281	-0.697	-1.104	-1.599	-1.964	-1.186	-2.498	-2.108	-1.922	-1.371	-2.573	0.896	1.236	3.636	4.293	4.656	97.656
-2.223	-2.238	-2.042	-1.163	-0.603	-0.380	3.661	3.082	4.633	5.391	3.266	-1.311	0.004	-1.029	-1.254	-1.910	-2.028	-1.197	-2.661	-2.456	-2.288	-1.490	-2.545	0.924	1.420	4.198	4.570	5.387	101.562
-2.537	-2.719	-2.052	-1.569	-0.950	-0.602	3.819	3.236	5.110	5.958	3.586	-0.911	-0.265	-1.370	-1.474	-2.278	-2.206	-1.259	-2.857	-2.851	-2.674	-1.615	-2.508	1.004	1.654	4.848	4.924	6.165	105.469
-2.886	-3.233	-2.057	-2.003	-1.318	-0.866	3.880	3.355	5.542	6.422	3.933	-0.372	-0.499	-1.702	-1.759	-2.691	-2.502	-1.372	-3.085	-3.279	-3.059	-1.746	-2.480	1.151	1.961	5.587	5.376	6.979	109.375
-3.258	-3.758	-2.095	-2.453	-1.691	-1.168	3.841	3.439	5.914	6.767	4.302	0.281	-0.682	-2.013	-2.093	-3.133	-2.901	-1.533	-3.340	-3.720	-3.428	-1.883	-2.482	1.361	2.349	6.405	5.928	7.810	113.281
-3.632	-4.263	-2.200	-2.897	-2.052	-1.495	3.712	3.486	6.215	6.988	4.685	1.014	-0.809	-2.292	-2.453	-3.585	-3.372	-1.728	-3.615	-4.154	-3.766	-2.028	-2.530	1.617	2.813	7.271	6.555	8.626	117.188
-3.990	-4.716	-2.390	-3.312	-2.382	-1.830	3.508	3.493	6.435	7.086	5.070	1.784	-0.884	-2.532	-2.811	-4.024	-3.872	-1.941	-3.893	-4.554	-4.064	-2.181	-2.632	1.890	3.330	8.138	7.212	9.390	121.094
-4.311	-5.080	-2.665	-3.670	-2.662	-2.151	3.252	3.453	6.564	7.066	5.443	2.547	-0.915	-2.724	-3.138	-4.426	-4.345	-2.148	-4.154	-4.898	-4.312	-2.335	-2.781	2.148	3.860	8.948	7.841	10.063	125.000
-4.583	-5.323	-3.001	-3.943	-2.876	-2.436	2.967	3.361	6.598	6.935	5.786	3.261	-0.908	-2.864	-3.404	-4.768	-4.737	-2.325	-4.373	-5.164	-4.503	-2.481	-2.960	2.360	4.351	9.639	8.383	10.607	128.906
-4.791	-5.422	-3.352	-4.111	-3.015	-2.664	2.675	3.216	6.536	6.701	6.082	3.893	-0.873	-2.950	-3.587	-5.028	-4.993	-2.449	-4.520	-5.336	-4.631	-2.601	-3.145	2.502	4.752	10.161	8.788	10.995	132.812
-4.924	-5.369	-3.662	-4.162	-3.076	-2.821	2.395	3.022	6.389	6.375	6.321	4.420	-0.818	-2.985	-3.671	-5.190	-5.077	-2.503	-4.577	-5.406	-4.696	-2.682	-3.312	2.563	5.014	10.477	9.020	11.211	136.719
-4.971	-5.176	-3.871	-4.098	-3.063	-2.897	2.145	2.798	6.179	5.980	6.498	4.836	-0.753	-2.976	-3.652	-5.252	-4.978	-2.484	-4.532	-5.379	-4.702	-2.713	-3.444	2.538	5.104	10.574	9.070	11.255	140.625
-4.926	-4.875	-3.929	-3.935	-2.986	-2.894	1.942	2.576	5.941	5.544	6.620	5.145	-0.694	-2.940	-3.544	-5.224	-4.718	-2.406	-4.394	-5.269	-4.660	-2.696	-3.537	2.433	5.011	10.465	8.947	11.146	144.531
-4.789	-4.514	-3.810	-3.701	-2.861	-2.821	1.800	2.393	5.718	5.108	6.703	5.364	-0.658	-2.895	-3.373	-5.131	-4.352	-2.294	-4.193	-5.104	-4.587	-2.642	-3.599	2.263	4.748	10.186	8.684	10.918	148.438
-4.575	-4.145	-3.514	-3.433	-2.706	-2.692	1.730	2.287	5.555	4.714	6.773	5.514	-0.667	-2.864	-3.180	-5.007	-3.957	-2.187	-3.971	-4.915	-4.505	-2.576	-3.648	2.045	4.352	9.793	8.332	10.621	152.344
-4.316	-3.818	-3.076	-3.167	-2.542	-2.524	1.741	2.291	5.487	4.405	6.852	5.622	-0.739	-2.866	-3.009	-4.888	-3.618	-2.124	-3.778	-4.738	-4.439	-2.527	-3.708	1.802	3.881	9.355	7.947	10.314	156.250
-4.061	-3.569	-2.555	-2.933	-2.384	-2.337	1.831	2.419	5.540	4.211	6.961	5.707	-0.887	-2.916	-2.902	-4.804	-3.403	-2.131	-3.656	-4.600	-4.409	-2.522	-3.801	1.557	3.404	8.945	7.593	10.059	160.156
-3.866	-3.413	-2.029	-2.753	-2.247	-2.148	1.992	2.669	5.717	4.150	7.108	5.787	-1.117	-3.023	-2.885	-4.770	-3.349	-2.221	-3.635	-4.519	-4.430	-2.583	-3.938	1.333	2.987	8.632	7.330	9.911	164.062
-3.784	-3.346	-1.580	-2.638	-2.142	-1.975	2.208	3.017	6.002	4.222	7.289	5.869	-1.419	-3.185	-2.965	-4.789	-3.453	-2.381	-3.721	-4.502	-4.509	-2.717	-4.119	1.155	2.686	8.469	7.207	9.914	167.969
-3.849	-3.353	-1.279	-2.589	-2.077	-1.834	2.457	3.425	6.366	4.410	7.491	5.954	-1.773	-3.395	-3.129	-4.851	-3.679	-2.586	-3.901	-4.544	-4.644	-2.917	-4.332	1.045	2.540	8.492	7.266	10.091	171.875
-4.066	-3.409	-1.174	-2.604	-2.058	-1.740	2.713	3.849	6.767	4.684	7.690	6.038	-2.148	-3.634	-3.347	-4.941	-3.971	-2.797	-4.147	-4.634	-4.825	-3.165	-4.556	1.027	2.565	8.716	7.529	10.444	175.781
-4.412	-3.494	-1.282	-2.675	-2.090	-1.708	2.949	4.242	7.163	5.003	7.866	6.115	-2.509	-3.883	-3.581	-5.043	-4.272	-2.978	-4.425	-4.758	-5.037	-3.432	-4.766	1.119	2.757	9.138	8.003	10.956	179.688
-4.843	-3.594	-1.588	-2.798	-2.174	-1.747	3.144	4.569	7.518	5.329	7.997	6.179	-2.820	-4.117	-3.797	-5.149	-4.533	-3.103	-4.697	-4.903	-5.262	-3.688	-4.937	1.334	3.097	9.736	8.676	11.588	183.594
-5.309	-3.707	-2.053	-2.966	-2.310	-1.861	3.284	4.809	7.810	5.627	8.071	6.224	-3.053	-4.314	-3.968	-5.253	-4.724	-3.153	-4.933	-5.059	-5.485	-3.902	-5.052	1.675	3.551	10.477	9.518	12.293	187.500
-5.764	-3.837	-2.621	-3.174	-2.489	-2.047	3.366	4.960	8.030	5.875	8.082	6.248	-3.191	-4.460	-4.082	-5.358	-4.834	-3.130	-5.110	-5.222	-5.691	-4.050	-5.102	2.132	4.082	11.320	10.484	13.020	191.406
-6.180	-3.996	-3.232	-3.418	-2.701	-2.292	3.401	5.039	8.187	6.066	8.035	6.252	-3.231	-4.546	-4.143	-5.472	-4.868	-3.043	-5.216	-5.391	-5.875	-4.119	-5.088	2.684	4.648	12.217	11.518	13.718	195.312
-6.547	-4.193	-3.832	-3.693	-2.929	-2.573	3.407	5.078	8.302	6.205	7.942	6.240	-3.183	-4.571	-4.164	-5.601	-4.846	-2.915	-5.257	-5.572	-6.036	-4.107	-5.024	3.297	5.213	13.123	12.560	14.348	199.219
-6.867	-4.439	-4.383	-3.991	-3.156	-2.861	3.411	5.117	8.403	6.309	7.818	6.216	-3.065	-4.544	-4.168	-5.754	-4.796	-2.772	-5.248	-5.770	-6.180	-4.027	-4.925	3.934	5.744	13.992	13.552	14.883	203.125
-7.151	-4.735	-4.863	-4.305	-3.362	-3.125	3.444	5.196	8.522	6.402	7.685	6.188	-2.895	-4.478	-4.177	-5.936	-4.748	-2.639	-5.217	-5.994	-6.316	-3.901	-4.815	4.554	6.219	14.783	14.448	15.309	207.031
-7.411	-5.076	-5.273	-4.626	-3.532	-3.336	3.533	5.347	8.686	6.510	7.563	6.166	-2.690	-4.386	-4.207	-6.150	-4.729	-2.537	-5.192	-6.249	-6.454	-3.758	-4.712	5.125	6.620	15.464	15.212	15.625	210.938
-7.652	-5.446	-5.624	-4.944	-3.651	-3.475	3.699	5.588	8.913	6.658	7.472	6.160	-2.458	-4.281	-4.269	-6.392	-4.762	-2.481	-5.201	-6.536	-6.602	-3.626	-4.634	5.621	6.938	16.010	15.829	15.838	214.844
-7.874	-5.826	-5.931	-5.248	-3.713	-3.532	3.954	5.919	9.212	6.864	7.429	6.178	-2.201	-4.170	-4.362	-6.659	-4.857	-2.477	-5.262	-6.850	-6.761	-3.529	-4.592	6.030	7.168	16.409	16.297	15.959	218.750
-8.071	-6.192	-6.205	-5.530	-3.717	-3.512	4.298	6.327	9.581	7.140	7.448	6.225	-1.911	-4.052	-4.479	-6.940	-5.016	-2.523	-5.384	-7.178	-6.925	-3.483	-4.593	6.350	7.306	16.656	16.625	15.999	222.656
-8.235	-6.522	-6.451	-5.780	-3.669	-3.429	4.721	6.786	10.008	7.490	7.534	6.301	-1.580	-3.924	-4.608	-7.227	-5.231	-2.609	-5.564	-7.505	-7.082	-3.494	-4.637	6.590	7.351	16.754	16.831	15.971	226.562
-8.361	-6.801	-6.662	-5.992	-3.576	-3.303	5.205	7.264	10.472	7.912	7.690	6.400	-1.198	-3.774	-4.735	-7.509	-5.486	-2.726	-5.788	-7.812	-7.218	-3.558	-4.717	6.760	7.302	16.716	16.935	15.885	230.469
-8.450	-7.021	-6.824	-6.162	-3.453	-3.157	5.725	7.729	10.949	8.396	7.906	6.512	-0.763	-3.593	-4.853	-7.778	-5.762	-2.859	-6.037	-8.085	-7.315	-3.662	-4.824	6.875	7.165	16.558	16.954	15.754	234.375
-8.508	-7.181	-6.926	-6.288	-3.310	-3.010	6.256	8.155	11.410	8.925	8.170	6.622	-0.281	-3.371	-4.955	-8.027	-6.041	-2.997	-6.289	-8.312	-7.363	-3.788	-4.945	6.947	6.950	16.303	16.904	15.592	238.281
-8.544	-7.289	-6.962	-6.372	-3.160	-2.875	6.773	8.524	11.830	9.481	8.466	6.716	0.235	-3.106	-5.040	-8.252	-6.308	-3.131	-6.525	-8.487	-7.353	-3.915	-5.067	6.983	6.674	15.977	16.797	15.410	242.188
-8.569	-7.355	-6.936	-6.418	-3.011	-2.760	7.254	8.826	12.186	10.040	8.773	6.783	0.762	-2.802	-5.109	-8.450	-6.551	-3.252	-6.729	-8.613	-7.286	-4.024	-5.178	6.991	6.360	15.607	16.645	15.223	246.094
-8.590	-7.391	-6.864	-6.429	-2.870	-2.665	7.682	9.057	12.461	10.576	9.069	6.816	1.270	-2.473	-5.166	-8.621	-6.766	-3.356	-6.892	-8.695	-7.170	-4.102	-5.267	6.974	6.037	15.222	16.459	15.042	250.000
-8.608	-7.407	-6.765	-6.415	-2.739	-2.586	8.043	9.218	12.647	11.066	9.333	6.814	1.731	-2.138	-5.213	-8.767	-6.950	-3.441	-7.009	-8.747	-7.018	-4.144	-5.332	6.937	5.737	14.848	16.254	14.881	253.906
-8.616	-7.408	-6.657	-6.382	-2.623	-2.518	8.328	9.310	12.740	11.486	9.545	6.781	2.120	-1.822	-5.251	-8.892	-7.106	-3.507	-7.084	-8.781	-6.848	-4.153	-5.373	6.886	5.486	14.510	16.042	14.748	257.812
-8.597	-7.398	-6.551	-6.341	-2.522	-2.458	8.531	9.334	12.739	11.814	9.684	6.724	2.417	-1.546	-5.278	-8.999	-7.239	-3.557	-7.122	-8.807	-6.675	-4.135	-5.392	6.828	5.308	14.225	15.841	14.648	261.719
-8.534	-7.379	-6.449	-6.300	-2.440	-2.406	8.646	9.287	12.650	12.033	9.734	6.651	2.615	-1.332	-5.292	-9.089	-7.351	-3.590	-7.129	-8.830	-6.514	-4.103	-5.392	6.770	5.217	14.007	15.662	14.581	265.625
-8.412	-7.350	-6.345	-6.266	-2.381	-2.366	8.668	9.165	12.477	12.129	9.685	6.567	2.710	-1.190	-5.287	-9.160	-7.442	-3.609	-7.108	-8.849	-6.373	-4.065	-5.375	6.720	5.212	13.860	15.515	14.541	269.531
-8.222	-7.311	-6.233	-6.243	-2.348	-2.348	8.597	8.967	12.228	12.096	9.536	6.476	2.706	-1.126	-5.258	-9.206	-7.505	-3.610	-7.062	-8.858	-6.253	-4.025	-5.339	6.681	5.285	13.781	15.405	14.518	273.438
-7.973	-7.261	-6.108	-6.230	-2.342	-2.358	8.434	8.697	11.913	11.937	9.297	6.381	2.610	-1.138	-5.203	-9.218	-7.533	-3.591	-6.990	-8.846	-6.156	-3.986	-5.279	6.654	5.412	13.758	15.325	14.500	277.344
-7.683	-7.195	-5.972	-6.219	-2.363	-2.399	8.190	8.367	11.549	11.666	8.991	6.280	2.427	-1.220	-5.124	-9.187	-7.518	-3.551	-6.892	-8.806	-6.081	-3.943	-5.192	6.633	5.565	13.774	15.265	14.471	281.250
-7.380	-7.106	-5.831	-6.200	-2.402	-2.465	7.882	7.995	11.155	11.308	8.652	6.176	2.165	-1.363	-5.022	-9.104	-7.452	-3.488	-6.771	-8.731	-6.027	-3.896	-5.077	6.606	5.712	13.803	15.206	14.422	285.156
-7.095	-6.984	-5.698	-6.159	-2.447	-2.545	7.534	7.610	10.755	10.890	8.314	6.067	1.834	-1.557	-4.903	-8.965	-7.331	-3.405	-6.632	-8.620	-5.995	-3.839	-4.941	6.561	5.822	13.822	15.127	14.340	289.062
-6.855	-6.817	-5.583	-6.081	-2.480	-2.619	7.174	7.240	10.372	10.447	8.011	5.954	1.450	-1.786	-4.774	-8.767	-7.154	-3.305	-6.478	-8.475	-5.984	-3.773	-4.794	6.484	5.870	13.804	15.009	14.220	292.969
-6.680	-6.596	-5.494	-5.954	-2.481	-2.665	6.832	6.913	10.025	10.004	7.763	5.833	1.036	-2.032	-4.638	-8.514	-6.920	-3.191	-6.312	-8.297	-5.989	-3.696	-4.652	6.365	5.841	13.729	14.834	14.053	296.875
-6.580	-6.311	-5.434	-5.771	-2.432	-2.665	6.537	6.648	9.724	9.584	7.577	5.701	0.625	-2.269	-4.497	-8.210	-6.628	-3.066	-6.131	-8.088	-5.995	-3.606	-4.530	6.200	5.730	13.582	14.595	13.834	300.781
-6.555	-5.960	-5.397	-5.531	-2.320	-2.604	6.308	6.454	9.473	9.201	7.441	5.550	0.258	-2.465	-4.350	-7.861	-6.279	-2.931	-5.928	-7.846	-5.985	-3.499	-4.436	5.995	5.543	13.354	14.291	13.558	304.688
-6.600	-5.552	-5.376	-5.241	-2.139	-2.479	6.155	6.330	9.268	8.861	7.335	5.373	-0.024	-2.588	-4.194	-7.476	-5.878	-2.783	-5.692	-7.569	-5.934	-3.369	-4.373	5.763	5.293	13.048	13.931	13.225	308.594
-6.701	-5.107	-5.358	-4.916	-1.893	-2.299	6.081	6.264	9.102	8.569	7.230	5.161	-0.185	-2.611	-4.028	-7.066	-5.435	-2.621	-5.415	-7.253	-5.823	-3.212	-4.331	5.524	4.999	12.674	13.532	12.838	312.500
-6.844	-4.655	-5.335	-4.577	-1.599	-2.082	6.075	6.238	8.965	8.325	7.101	4.911	-0.203	-2.516	-3.857	-6.647	-4.970	-2.445	-5.097	-6.901	-5.639	-3.023	-4.296	5.303	4.685	12.253	13.119	12.409	316.406
-7.016	-4.234	-5.303	-4.249	-1.278	-1.852	6.122	6.235	8.849	8.132	6.933	4.624	-0.075	-2.301	-3.689	-6.236	-4.511	-2.262	-4.748	-6.523	-5.381	-2.804	-4.252	5.124	4.378	11.811	12.715	11.957	320.312
-7.203	-3.883	-5.263	-3.958	-0.960	-1.634	6.202	6.238	8.750	7.993	6.722	4.310	0.179	-1.984	-3.535	-5.855	-4.095	-2.081	-4.390	-6.135	-5.063	-2.563	-4.186	5.007	4.102	11.381	12.346	11.505	324.219
-7.393	-3.631	-5.218	-3.723	-0.673	-1.450	6.296	6.237	8.667	7.909	6.481	3.984	0.517	-1.595	-3.409	-5.520	-3.756	-1.916	-4.050	-5.758	-4.711	-2.314	-4.091	4.960	3.876	10.994	12.028	11.079	328.125
-7.575	-3.493	-5.170	-3.556	-0.439	-1.310	6.388	6.226	8.603	7.877	6.233	3.667	0.887	-1.176	-3.324	-5.245	-3.521	-1.782	-3.754	-5.413	-4.357	-2.073	-3.969	4.981	3.711	10.671	11.769	10.707	332.031
-7.739	-3.464	-5.115	-3.454	-0.269	-1.216	6.465	6.206	8.557	7.890	6.009	3.386	1.230	-0.771	-3.286	-5.039	-3.400	-1.689	-3.521	-5.120	-4.031	-1.857	-3.830	5.057	3.604	10.422	11.564	10.406	335.938
-7.880	-3.522	-5.049	-3.406	-0.165	-1.161	6.518	6.180	8.528	7.935	5.840	3.169	1.497	-0.422	-3.293	-4.900	-3.382	-1.640	-3.357	-4.888	-3.758	-1.677	-3.683	5.162	3.539	10.242	11.397	10.189	339.844
-7.997	-3.631	-4.968	-3.391	-0.115	-1.129	6.545	6.149	8.508	7.988	5.748	3.041	1.656	-0.155	-3.337	-4.817	-3.438	-1.627	-3.251	-4.716	-3.548	-1.538	-3.540	5.269	3.495	10.113	11.246	10.057	343.750
-8.095	-3.749	-4.872	-3.382	-0.101	-1.105	6.539	6.111	8.484	8.020	5.742	3.019	1.696	0.019	-3.401	-4.772	-3.523	-1.637	-3.181	-4.592	-3.399	-1.433	-3.402	5.347	3.448	10.007	11.084	9.999	347.656
-8.183	-3.836	-4.771	-3.352	-0.101	-1.072	6.495	6.059	8.438	7.999	5.815	3.106	1.627	0.104	-3.469	-4.741	-3.590	-1.648	-3.117	-4.497	-3.296	-1.349	-3.268	5.378	3.381	9.898	10.892	9.995	351.562
-8.270	-3.864	-4.682	-3.280	-0.094	-1.022	6.406	5.981	8.348	7.893	5.939	3.286	1.475	0.120	-3.521	-4.698	-3.598	-1.640	-3.027	-4.405	-3.218	-1.268	-3.130	5.352	3.288	9.763	10.656	10.019	355.469
-8.364	-3.812	-4.625	-3.150	-0.067	-0.951	6.266	5.867	8.196	7.678	6.073	3.523	1.275	0.093	-3.543	-4.624	-3.520	-1.593	-2.885	-4.294	-3.142	-1.169	-2.975	5.272	3.177	9.591	10.380	10.039	359.375
-8.468	-3.674	-4.614	-2.959	-0.014	-0.863	6.071	5.707	7.968	7.342	6.165	3.763	1.059	0.051	-3.528	-4.501	-3.344	-1.497	-2.674	-4.143	-3.049	-1.033	-2.794	5.156	3.066	9.386	10.079	10.023	363.281
-8.581	-3.452	-4.653	-2.714	0.063	-0.766	5.824	5.498	7.661	6.889	6.158	3.941	0.854	0.017	-3.470	-4.323	-3.075	-1.347	-2.388	-3.944	-2.927	-0.849	-2.579	5.029	2.982	9.165	9.782	9.948	367.188
-8.695	-3.158	-4.730	-2.428	0.157	-0.671	5.531	5.242	7.278	6.338	6.007	3.988	0.674	0.007	-3.371	-4.092	-2.731	-1.147	-2.034	-3.694	-2.770	-0.611	-2.328	4.925	2.951	8.955	9.527	9.801	371.094
-8.796	-2.810	-4.821	-2.122	0.259	-0.587	5.207	4.948	6.834	5.719	5.678	3.852	0.522	0.026	-3.237	-3.817	-2.339	-0.908	-1.632	-3.405	-2.584	-0.324	-2.043	4.872	2.992	8.784	9.354	9.585	375.000
-8.867	-2.433	-4.896	-1.817	0.358	-0.519	4.868	4.631	6.349	5.069	5.163	3.503	0.394	0.073	-3.079	-3.516	-1.932	-0.648	-1.211	-3.094	-2.379	-0.002	-1.736	4.896	3.113	8.682	9.293	9.319	378.906
-8.892	-2.058	-4.924	-1.536	0.447	-0.465	4.528	4.307	5.847	4.423	4.477	2.951	0.279	0.136	-2.909	-3.213	-1.547	-0.388	-0.806	-2.785	-2.170	0.331	-1.422	5.005	3.309	8.666	9.362	9.038	382.812
-8.859	-1.717	-4.883	-1.299	0.523	-0.418	4.198	3.996	5.352	3.809	3.668	2.244	0.166	0.201	-2.743	-2.934	-1.218	-0.153	-0.454	-2.505	-1.974	0.646	-1.122	5.197	3.561	8.742	9.560	8.779	386.719
-8.764	-1.443	-4.763	-1.117	0.585	-0.368	3.884	3.713	4.883	3.248	2.802	1.463	0.048	0.256	-2.597	-2.704	-0.972	0.035	-0.189	-2.278	-1.808	0.915	-0.857	5.454	3.839	8.900	9.862	8.577	390.625
-8.615	-1.260	-4.565	-0.996	0.635	-0.305	3.587	3.470	4.457	2.750	1.960	0.712	-0.075	0.291	-2.486	-2.541	-0.827	0.157	-0.032	-2.123	-1.684	1.114	-0.646	5.745	4.111	9.114	10.224	8.457	394.531
-8.428	-1.180	-4.302	-0.933	0.679	-0.221	3.306	3.275	4.083	2.318	1.222	0.091	-0.199	0.303	-2.422	-2.454	-0.789	0.203	0.008	-2.044	-1.608	1.229	-0.504	6.034	4.342	9.344	10.590	8.421	398.438
-8.224	-1.194	-3.995	-0.915	0.723	-0.116	3.043	3.132	3.763	1.948	0.654	-0.322	-0.315	0.300	-2.409	-2.438	-0.847	0.173	-0.061	-2.036	-1.577	1.261	-0.435	6.285	4.505	9.545	10.898	8.451	402.344
-8.024	-1.279	-3.666	-0.922	0.774	0.006	2.804	3.042	3.497	1.637	0.297	-0.486	-0.410	0.296	-2.445	-2.482	-0.979	0.078	-0.217	-2.081	-1.577	1.220	-0.436	6.464	4.583	9.673	11.093	8.510	406.250
-7.838	-1.399	-3.338	-0.932	0.837	0.137	2.602	3.004	3.281	1.384	0.161	-0.405	-0.474	0.311	-2.515	-2.563	-1.159	-0.066	-0.427	-2.151	-1.592	1.130	-0.495	6.548	4.567	9.690	11.131	8.550	410.156
-7.661	-1.514	-3.034	-0.923	0.918	0.270	2.454	3.021	3.114	1.191	0.228	-0.129	-0.499	0.362	-2.603	-2.660	-1.359	-0.237	-0.657	-2.220	-1.599	1.014	-0.594	6.526	4.461	9.575	10.991	8.519	414.062
-7.478	-1.590	-2.774	-0.877	1.018	0.398	2.381	3.093	2.995	1.069	0.455	0.264	-0.484	0.464	-2.684	-2.752	-1.556	-0.412	-0.877	-2.262	-1.580	0.896	-0.713	6.400	4.278	9.323	10.674	8.374	417.969
-7.267	-1.603	-2.574	-0.785	1.135	0.517	2.398	3.216	2.920	1.023	0.784	0.679	-0.432	0.620	-2.740	-2.822	-1.736	-0.573	-1.065	-2.261	-1.525	0.795	-0.830	6.184	4.038	8.945	10.202	8.089	421.875
-7.008	-1.548	-2.439	-0.648	1.262	0.630	2.509	3.380	2.885	1.058	1.149	1.025	-0.352	0.821	-2.753	-2.861	-1.888	-0.704	-1.208	-2.213	-1.430	0.720	-0.927	5.898	3.761	8.468	9.615	7.664	425.781
-6.689	-1.431	-2.363	-0.474	1.390	0.739	2.705	3.567	2.879	1.167	1.491	1.232	-0.261	1.050	-2.714	-2.861	-2.002	-0.795	-1.300	-2.123	-1.303	0.673	-0.994	5.567	3.470	7.929	8.958	7.117	429.688
-6.317	-1.270	-2.329	-0.276	1.509	0.850	2.959	3.755	2.887	1.329	1.760	1.260	-0.184	1.279	-2.622	-2.817	-2.064	-0.839	-1.340	-2.002	-1.158	0.649	-1.020	5.216	3.183	7.366	8.277	6.488	433.594
-5.909	-1.084	-2.304	-0.072	1.608	0.969	3.229	3.916	2.890	1.513	1.926	1.105	-0.148	1.478	-2.481	-2.730	-2.057	-0.836	-1.330	-1.869	-1.017	0.638	-1.006	4.859	2.912	6.812	7.608	5.825	437.500
-5.494	-0.891	-2.252	0.125	1.680	1.098	3.470	4.030	2.870	1.678	1.980	0.799	-0.186	1.615	-2.306	-2.599	-1.966	-0.788	-1.273	-1.743	-0.904	0.630	-0.956	4.505	2.666	6.291	6.973	5.180	441.406
-5.099	-0.699	-2.134	0.303	1.721	1.238	3.636	4.084	2.814	1.786	1.933	0.394	-0.328	1.664	-2.114	-2.430	-1.783	-0.704	-1.179	-1.641	-0.839	0.611	-0.879	4.152	2.445	5.817	6.377	4.594	445.312
-4.746	-0.510	-1.921	0.455	1.732	1.385	3.697	4.076	2.720	1.807	1.809	-0.042	-0.599	1.606	-1.923	-2.233	-1.515	-0.599	-1.059	-1.580	-0.843	0.569	-0.790	3.792	2.249	5.393	5.816	4.093	449.219
-4.445	-0.318	-1.603	0.581	1.720	1.537	3.640	4.018	2.593	1.726	1.643	-0.448	-1.006	1.436	-1.752	-2.022	-1.186	-0.491	-0.929	-1.567	-0.925	0.497	-0.705	3.416	2.079	5.020	5.281	3.691	453.125
-4.194	-0.117	-1.190	0.685	1.693	1.690	3.474	3.929	2.446	1.546	1.466	-0.773	-1.541	1.161	-1.615	-1.813	-0.830	-0.398	-0.803	-1.607	-1.089	0.393	-0.637	3.021	1.933	4.694	4.768	3.386	457.031
-3.981	0.101	-0.713	0.772	1.663	1.837	3.227	3.834	2.294	1.287	1.308	-0.987	-2.175	0.800	-1.518	-1.624	-0.490	-0.333	-0.692	-1.696	-1.326	0.259	-0.593	2.611	1.816	4.419	4.285	3.171	460.938
-3.795	0.332	-0.223	0.846	1.640	1.975	2.938	3.756	2.154	0.984	1.186	-1.079	-2.861	0.383	-1.464	-1.472	-0.206	-0.301	-0.604	-1.829	-1.621	0.104	-0.572	2.206	1.732	4.202	3.856	3.037	464.844
-3.626	0.566	0.221	0.905	1.626	2.095	2.653	3.713	2.037	0.677	1.113	-1.056	-3.540	-0.059	-1.446	-1.368	-0.008	-0.301	-0.544	-1.992	-1.952	-0.059	-0.569	1.834	1.687	4.058	3.516	2.979	468.750
-3.475	0.782	0.562	0.942	1.619	2.188	2.409	3.712	1.948	0.409	1.091	-0.934	-4.153	-0.492	-1.457	-1.322	0.090	-0.325	-0.511	-2.175	-2.293	-0.219	-0.575	1.528	1.684	3.998	3.301	2.998	472.656
-3.345	0.954	0.755	0.950	1.614	2.244	2.235	3.754	1.890	0.216	1.122	-0.734	-4.649	-0.887	-1.485	-1.338	0.092	-0.360	-0.504	-2.364	-2.619	-0.364	-0.580	1.317	1.723	4.028	3.241	3.096	476.562
-3.248	1.057	0.777	0.918	1.601	2.254	2.144	3.831	1.860	0.122	1.202	-0.482	-4.991	-1.219	-1.519	-1.413	0.016	-0.395	-0.519	-2.547	-2.907	-0.485	-0.579	1.219	1.793	4.143	3.345	3.269	480.469
-3.193	1.075	0.633	0.843	1.575	2.216	2.136	3.929	1.854	0.138	1.329	-0.200	-5.162	-1.472	-1.550	-1.540	-0.109	-0.419	-0.553	-2.714	-3.138	-0.576	-0.573	1.237	1.879	4.320	3.594	3.502	484.375
-3.180	1.006	0.360	0.726	1.534	2.133	2.199	4.033	1.867	0.260	1.498	0.084	-5.164	-1.635	-1.573	-1.705	-0.254	-0.430	-0.602	-2.856	-3.299	-0.638	-0.570	1.355	1.958	4.522	3.944	3.765	488.281
-3.198	0.860	0.020	0.578	1.483	2.022	2.314	4.125	1.894	0.471	1.700	0.348	-5.015	-1.707	-1.586	-1.892	-0.397	-0.432	-0.662	-2.967	-3.385	-0.674	-0.579	1.544	2.004	4.705	4.329	4.015	492.188
-3.229	0.663	-0.309	0.418	1.434	1.903	2.460	4.192	1.928	0.742	1.921	0.568	-4.745	-1.690	-1.588	-2.081	-0.526	-0.436	-0.731	-3.043	-3.397	-0.688	-0.613	1.762	1.995	4.826	4.677	4.206	496.094
-3.248	0.446	-0.552	0.269	1.398	1.802	2.616	4.223	1.963	1.036	2.143	0.723	-4.392	-1.596	-1.582	-2.250	-0.637	-0.455	-0.805	-3.082	-3.340	-0.686	-0.681	1.970	1.915	4.847	4.924	4.297	500.000
-3.236	0.244	-0.652	0.152	1.387	1.740	2.761	4.213	1.987	1.313	2.339	0.798	-3.994	-1.441	-1.574	-2.380	-0.733	-0.496	-0.882	-3.082	-3.226	-0.675	-0.783	2.132	1.763	4.751	5.025	4.263	503.906
-3.183	0.090	-0.585	0.087	1.410	1.735	2.878	4.163	1.990	1.532	2.483	0.784	-3.592	-1.245	-1.565	-2.454	-0.815	-0.563	-0.958	-3.042	-3.069	-0.658	-0.912	2.228	1.551	4.537	4.958	4.098	507.812
-3.089	0.007	-0.361	0.089	1.470	1.791	2.951	4.079	1.957	1.659	2.546	0.675	-3.220	-1.028	-1.557	-2.459	-0.879	-0.649	-1.027	-2.964	-2.884	-0.633	-1.049	2.249	1.308	4.227	4.733	3.816	511.719
-2.960	0.010	-0.023	0.160	1.565	1.902	2.970	3.972	1.875	1.669	2.505	0.474	-2.910	-0.812	-1.543	-2.389	-0.914	-0.738	-1.078	-2.850	-2.688	-0.598	-1.171	2.201	1.071	3.854	4.381	3.445	515.625
-2.802	0.100	0.366	0.295	1.686	2.053	2.925	3.851	1.736	1.550	2.348	0.191	-2.686	-0.618	-1.514	-2.247	-0.901	-0.806	-1.096	-2.703	-2.495	-0.547	-1.249	2.098	0.880	3.463	3.944	3.020	519.531
-2.621	0.268	0.740	0.480	1.820	2.223	2.813	3.726	1.535	1.305	2.075	-0.158	-2.567	-0.461	-1.459	-2.043	-0.819	-0.829	-1.065	-2.531	-2.315	-0.474	-1.259	1.959	0.768	3.096	3.469	2.576	523.438
-2.417	0.491	1.038	0.693	1.953	2.389	2.635	3.600	1.278	0.951	1.702	-0.551	-2.562	-0.353	-1.364	-1.795	-0.653	-0.789	-0.969	-2.346	-2.158	-0.375	-1.188	1.805	0.755	2.790	3.001	2.144	527.344
-2.185	0.741	1.220	0.910	2.069	2.529	2.397	3.478	0.980	0.519	1.259	-0.961	-2.673	-0.304	-1.225	-1.529	-0.400	-0.678	-0.801	-2.163	-2.032	-0.252	-1.037	1.651	0.845	2.568	2.572	1.748	531.250
-1.927	0.985	1.272	1.102	2.152	2.625	2.112	3.359	0.668	0.047	0.788	-1.358	-2.889	-0.316	-1.047	-1.273	-0.077	-0.503	-0.571	-1.999	-1.942	-0.115	-0.824	1.513	1.028	2.441	2.205	1.407	535.156
-1.649	1.192	1.205	1.246	2.190	2.667	1.798	3.245	0.372	-0.421	0.331	-1.714	-3.193	-0.389	-0.845	-1.057	0.283	-0.288	-0.299	-1.873	-1.892	0.022	-0.577	1.398	1.277	2.405	1.914	1.131	539.062
-1.367	1.337	1.049	1.323	2.174	2.649	1.476	3.137	0.122	-0.844	-0.071	-2.004	-3.554	-0.517	-0.645	-0.904	0.633	-0.063	-0.018	-1.800	-1.887	0.143	-0.326	1.315	1.559	2.447	1.705	0.929	542.969
-1.105	1.402	0.848	1.323	2.103	2.575	1.169	3.035	-0.056	-1.187	-0.386	-2.213	-3.942	-0.691	-0.475	-0.827	0.921	0.135	0.234	-1.787	-1.926	0.234	-0.104	1.266	1.837	2.547	1.580	0.804	546.875
-0.889	1.380	0.643	1.246	1.981	2.453	0.899	2.943	-0.150	-1.428	-0.600	-2.332	-4.321	-0.897	-0.360	-0.829	1.106	0.277	0.424	-1.836	-2.005	0.287	0.071	1.255	2.080	2.685	1.537	0.753	550.781
-0.746	1.279	0.468	1.103	1.819	2.295	0.684	2.859	-0.158	-1.556	-0.715	-2.363	-4.659	-1.119	-0.317	-0.897	1.161	0.347	0.529	-1.935	-2.118	0.303	0.188	1.284	2.267	2.840	1.575	0.770	554.688
-0.688	1.114	0.340	0.910	1.632	2.118	0.537	2.785	-0.095	-1.577	-0.748	-2.316	-4.930	-1.337	-0.347	-1.013	1.085	0.342	0.544	-2.069	-2.249	0.294	0.250	1.356	2.390	2.999	1.691	0.844	558.594
-0.718	0.908	0.258	0.692	1.440	1.939	0.463	2.719	0.016	-1.507	-0.728	-2.210	-5.115	-1.529	-0.438	-1.154	0.900	0.276	0.478	-2.213	-2.384	0.276	0.270	1.477	2.457	3.153	1.886	0.963	562.500
-0.819	0.687	0.202	0.471	1.260	1.771	0.456	2.659	0.147	-1.370	-0.688	-2.064	-5.200	-1.674	-0.566	-1.297	0.643	0.175	0.356	-2.348	-2.505	0.273	0.269	1.652	2.485	3.298	2.158	1.116	566.406
-0.962	0.476	0.144	0.268	1.106	1.628	0.504	2.603	0.269	-1.193	-0.658	-1.897	-5.183	-1.756	-0.698	-1.427	0.359	0.069	0.207	-2.453	-2.596	0.305	0.267	1.889	2.498	3.437	2.505	1.296	570.312
-1.113	0.290	0.052	0.098	0.986	1.517	0.587	2.547	0.361	-1.005	-0.662	-1.726	-5.066	-1.762	-0.806	-1.534	0.089	-0.014	0.064	-2.517	-2.645	0.387	0.281	2.188	2.519	3.574	2.921	1.498	574.219
-1.238	0.138	-0.094	-0.033	0.902	1.438	0.683	2.489	0.406	-0.828	-0.714	-1.566	-4.859	-1.687	-0.869	-1.620	-0.140	-0.056	-0.048	-2.535	-2.645	0.524	0.323	2.546	2.565	3.712	3.391	1.718	578.125
-1.316	0.018	-0.297	-0.124	0.850	1.389	0.770	2.429	0.397	-0.677	-0.817	-1.429	-4.577	-1.535	-0.881	-1.688	-0.315	-0.054	-0.117	-2.512	-2.596	0.712	0.393	2.948	2.642	3.850	3.887	1.949	582.031
-1.339	-0.075	-0.541	-0.180	0.825	1.362	0.831	2.368	0.339	-0.558	-0.966	-1.322	-4.243	-1.318	-0.850	-1.744	-0.445	-0.016	-0.144	-2.455	-2.502	0.935	0.485	3.368	2.744	3.978	4.371	2.179	585.938
-1.316	-0.147	-0.793	-0.207	0.820	1.349	0.858	2.311	0.240	-0.474	-1.152	-1.256	-3.882	-1.053	-0.795	-1.790	-0.543	0.039	-0.136	-2.375	-2.372	1.172	0.585	3.768	2.854	4.078	4.790	2.385	589.844
-1.261	-0.201	-1.010	-0.208	0.832	1.342	0.847	2.263	0.114	-0.422	-1.365	-1.240	-3.518	-0.762	-0.736	-1.822	-0.627	0.088	-0.109	-2.277	-2.217	1.397	0.678	4.103	2.948	4.123	5.086	2.536	593.750
-1.190	-0.234	-1.145	-0.186	0.859	1.336	0.802	2.226	-0.028	-0.400	-1.602	-1.284	-3.179	-0.471	-0.692	-1.826	-0.704	0.116	-0.073	-2.165	-2.044	1.590	0.753	4.332	3.000	4.088	5.208	2.598	597.656
-1.117	-0.241	-1.161	-0.141	0.902	1.332	0.730	2.203	-0.176	-0.408	-1.862	-1.394	-2.885	-0.200	-0.670	-1.787	-0.768	0.114	-0.031	-2.036	-1.861	1.736	0.802	4.419	2.993	3.951	5.117	2.539	601.562
-1.049	-0.216	-1.037	-0.071	0.963	1.331	0.638	2.189	-0.327	-0.450	-2.149	-1.572	-2.655	0.031	-0.664	-1.688	-0.795	0.091	0.023	-1.882	-1.671	1.832	0.827	4.348	2.920	3.707	4.803	2.338	605.469
-0.987	-0.155	-0.781	0.023	1.040	1.337	0.531	2.182	-0.481	-0.532	-2.466	-1.812	-2.500	0.211	-0.660	-1.516	-0.756	0.062	0.105	-1.698	-1.477	1.882	0.835	4.124	2.789	3.364	4.289	1.998	609.375
-0.931	-0.056	-0.428	0.140	1.129	1.351	0.412	2.172	-0.639	-0.659	-2.812	-2.097	-2.426	0.333	-0.640	-1.268	-0.622	0.052	0.233	-1.480	-1.281	1.902	0.840	3.775	2.619	2.954	3.628	1.539	613.281
-0.876	0.076	-0.041	0.276	1.222	1.376	0.280	2.155	-0.803	-0.835	-3.175	-2.404	-2.434	0.399	-0.588	-0.952	-0.380	0.080	0.418	-1.231	-1.085	1.909	0.855	3.347	2.438	2.520	2.895	1.007	617.188
-0.820	0.233	0.307	0.424	1.308	1.407	0.130	2.121	-0.977	-1.061	-3.539	-2.706	-2.518	0.415	-0.494	-0.588	-0.039	0.159	0.660	-0.961	-0.894	1.922	0.892	2.900	2.276	2.114	2.176	0.457	621.094
-0.761	0.401	0.550	0.576	1.376	1.441	-0.040	2.066	-1.157	-1.332	-3.878	-2.977	-2.673	0.391	-0.358	-0.203	0.371	0.289	0.947	-0.684	-0.715	1.953	0.957	2.493	2.159	1.786	1.555	-0.054	625.000
-0.702	0.567	0.649	0.721	1.416	1.470	-0.231	1.984	-1.341	-1.634	-4.170	-3.196	-2.887	0.336	-0.193	0.175	0.802	0.457	1.251	-0.415	-0.555	2.009	1.049	2.175	2.104	1.573	1.093	-0.479	628.906
-0.649	0.719	0.595	0.853	1.423	1.490	-0.438	1.873	-1.521	-1.949	-4.394	-3.352	-3.148	0.262	-0.019	0.520	1.204	0.642	1.537	-0.172	-0.425	2.090	1.159	1.978	2.113	1.493	0.826	-0.784	632.812
-0.608	0.849	0.421	0.966	1.395	1.500	-0.651	1.737	-1.685	-2.251	-4.538	-3.439	-3.442	0.175	0.143	0.809	1.533	0.818	1.772	0.036	-0.332	2.185	1.274	1.908	2.176	1.540	0.756	-0.959	636.719
-0.584	0.954	0.183	1.061	1.339	1.504	-0.855	1.584	-1.819	-2.510	-4.599	-3.462	-3.752	0.078	0.273	1.031	1.758	0.960	1.929	0.196	-0.283	2.280	1.377	1.950	2.271	1.689	0.857	-1.007	640.625
-0.576	1.036	-0.050	1.143	1.265	1.507	-1.030	1.428	-1.912	-2.699	-4.583	-3.430	-4.060	-0.025	0.357	1.178	1.863	1.049	1.991	0.304	-0.282	2.359	1.451	2.072	2.368	1.897	1.079	-0.947	644.531
-0.581	1.100	-0.215	1.217	1.187	1.520	-1.158	1.284	-1.952	-2.793	-4.503	-3.352	-4.341	-0.132	0.388	1.249	1.848	1.075	1.956	0.354	-0.328	2.406	1.481	2.232	2.440	2.119	1.365	-0.804	648.438
-0.588	1.155	-0.272	1.291	1.121	1.551	-1.226	1.166	-1.937	-2.779	-4.376	-3.243	-4.569	-0.237	0.367	1.250	1.725	1.034	1.833	0.347	-0.413	2.410	1.461	2.392	2.467	2.310	1.657	-0.610	652.344
-0.587	1.211	-0.214	1.369	1.080	1.603	-1.226	1.085	-1.872	-2.660	-4.218	-3.112	-4.715	-0.331	0.307	1.194	1.515	0.935	1.646	0.292	-0.523	2.371	1.388	2.519	2.437	2.434	1.906	-0.396	656.250
-0.564	1.272	-0.066	1.453	1.075	1.680	-1.162	1.041	-1.773	-2.452	-4.046	-2.973	-4.756	-0.402	0.224	1.098	1.249	0.796	1.427	0.202	-0.636	2.298	1.271	2.596	2.347	2.472	2.082	-0.193	660.156
-0.509	1.344	0.120	1.542	1.111	1.776	-1.046	1.028	-1.657	-2.188	-3.875	-2.836	-4.677	-0.434	0.145	0.988	0.966	0.641	1.212	0.101	-0.723	2.206	1.124	2.620	2.203	2.415	2.170	-0.031	664.062
-0.420	1.426	0.284	1.631	1.189	1.888	-0.894	1.037	-1.543	-1.908	-3.718	-2.713	-4.475	-0.411	0.092	0.892	0.709	0.501	1.042	0.017	-0.757	2.122	0.968	2.597	2.017	2.269	2.171	0.065	667.969
-0.306	1.514	0.373	1.714	1.308	2.007	-0.727	1.053	-1.446	-1.655	-3.584	-2.615	-4.167	-0.323	0.087	0.835	0.521	0.403	0.947	-0.020	-0.717	2.068	0.826	2.540	1.802	2.044	2.094	0.076	671.875
-0.182	1.604	0.359	1.788	1.459	2.125	-0.561	1.067	-1.374	-1.464	-3.483	-2.553	-3.782	-0.167	0.138	0.841	0.434	0.364	0.947	0.012	-0.587	2.064	0.717	2.462	1.572	1.755	1.954	-0.008	675.781
-0.072	1.693	0.245	1.851	1.634	2.232	-0.410	1.075	-1.323	-1.357	-3.417	-2.534	-3.364	0.052	0.240	0.920	0.459	0.389	1.045	0.127	-0.371	2.118	0.652	2.374	1.343	1.417	1.763	-0.186	679.688
0.004	1.778	0.066	1.904	1.821	2.322	-0.280	1.079	-1.286	-1.343	-3.384	-2.560	-2.961	0.317	0.374	1.070	0.584	0.467	1.218	0.322	-0.084	2.223	0.632	2.278	1.123	1.047	1.532	-0.443	683.594
0.033	1.861	-0.117	1.952	2.005	2.387	-0.176	1.085	-1.248	-1.411	-3.378	-2.631	-2.619	0.601	0.512	1.274	0.771	0.570	1.431	0.580	0.245	2.360	0.650	2.175	0.921	0.659	1.270	-0.755	687.500
0.015	1.941	-0.236	1.995	2.173	2.423	-0.099	1.102	-1.199	-1.542	-3.384	-2.736	-2.375	0.875	0.622	1.506	0.969	0.665	1.636	0.870	0.577	2.502	0.690	2.062	0.742	0.276	0.987	-1.090	691.406
-0.040	2.013	-0.232	2.035	2.313	2.427	-0.054	1.136	-1.134	-1.710	-3.387	-2.862	-2.252	1.111	0.678	1.734	1.123	0.721	1.789	1.155	0.874	2.619	0.733	1.937	0.592	-0.078	0.695	-1.406	695.312
-0.117	2.070	-0.079	2.068	2.412	2.397	-0.045	1.186	-1.057	-1.889	-3.373	-2.989	-2.252	1.286	0.665	1.924	1.196	0.715	1.863	1.395	1.102	2.688	0.764	1.804	0.478	-0.374	0.415	-1.664	699.219
-0.196	2.100	0.214	2.086	2.459	2.332	-0.077	1.247	-0.980	-2.062	-3.329	-3.093	-2.364	1.388	0.582	2.052	1.170	0.645	1.853	1.562	1.242	2.697	0.773	1.670	0.408	-0.582	0.173	-1.825	703.125
-0.265	2.093	0.601	2.077	2.446	2.233	-0.157	1.307	-0.921	-2.217	-3.252	-3.153	-2.563	1.414	0.446	2.101	1.061	0.525	1.777	1.638	1.285	2.649	0.759	1.550	0.391	-0.678	-0.004	-1.861	707.031
-0.316	2.040	1.007	2.032	2.369	2.105	-0.284	1.349	-0.895	-2.350	-3.147	-3.154	-2.817	1.374	0.284	2.069	0.904	0.383	1.672	1.620	1.240	2.556	0.727	1.460	0.431	-0.647	-0.088	-1.759	710.938
-0.350	1.942	1.354	1.944	2.230	1.955	-0.454	1.358	-0.913	-2.464	-3.027	-3.087	-3.094	1.283	0.126	1.966	0.744	0.253	1.577	1.521	1.126	2.442	0.686	1.413	0.529	-0.490	-0.062	-1.525	714.844
-0.376	1.809	1.576	1.816	2.038	1.793	-0.653	1.324	-0.975	-2.560	-2.909	-2.955	-3.366	1.159	-0.003	1.810	0.623	0.162	1.525	1.363	0.970	2.330	0.646	1.420	0.678	-0.224	0.081	-1.185	718.750
-0.402	1.654	1.638	1.656	1.810	1.630	-0.861	1.241	-1.070	-2.637	-2.813	-2.770	-3.607	1.021	-0.086	1.624	0.564	0.126	1.530	1.173	0.798	2.238	0.617	1.487	0.862	0.118	0.330	-0.783	722.656
-0.437	1.495	1.543	1.481	1.570	1.479	-1.050	1.116	-1.176	-2.688	-2.754	-2.553	-3.800	0.885	-0.120	1.431	0.565	0.146	1.585	0.981	0.636	2.180	0.602	1.611	1.061	0.496	0.665	-0.365	726.562
-0.482	1.345	1.321	1.307	1.341	1.350	-1.189	0.964	-1.266	-2.697	-2.740	-2.325	-3.931	0.763	-0.113	1.250	0.607	0.208	1.669	0.808	0.500	2.156	0.605	1.783	1.253	0.865	1.053	0.023	730.469
-0.529	1.211	1.026	1.149	1.145	1.249	-1.251	0.809	-1.310	-2.644	-2.767	-2.104	-3.994	0.663	-0.079	1.094	0.655	0.292	1.749	0.668	0.398	2.161	0.625	1.988	1.418	1.187	1.458	0.346	734.375
-0.567	1.092	0.713	1.017	0.997	1.178	-1.219	0.677	-1.286	-2.514	-2.821	-1.906	-3.988	0.590	-0.031	0.967	0.679	0.376	1.800	0.567	0.332	2.184	0.661	2.207	1.539	1.432	1.841	0.582	738.281
-0.587	0.984	0.429	0.915	0.904	1.134	-1.087	0.591	-1.183	-2.300	-2.883	-1.738	-3.916	0.543	0.017	0.872	0.654	0.442	1.805	0.501	0.294	2.213	0.707	2.418	1.604	1.581	2.170	0.724	742.188
-0.582	0.882	0.201	0.843	0.864	1.115	-0.869	0.565	-1.008	-2.011	-2.932	-1.605	-3.790	0.522	0.056	0.806	0.577	0.481	1.760	0.466	0.274	2.237	0.758	2.600	1.606	1.626	2.414	0.775	746.094
-0.554	0.782	0.033	0.795	0.866	1.112	-0.592	0.601	-0.784	-1.675	-2.954	-1.508	-3.625	0.523	0.086	0.768	0.460	0.492	1.677	0.453	0.265	2.247	0.806	2.734	1.541	1.570	2.555	0.743	750.000
-0.512	0.682	-0.087	0.765	0.896	1.120	-0.296	0.687	-0.546	-1.336	-2.941	-1.447	-3.437	0.543	0.108	0.754	0.336	0.481	1.578	0.457	0.262	2.241	0.844	2.807	1.411	1.422	2.582	0.641	753.906
-0.470	0.586	-0.183	0.744	0.939	1.132	-0.022	0.801	-0.336	-1.040	-2.897	-1.422	-3.245	0.578	0.129	0.765	0.241	0.464	1.488	0.476	0.266	2.226	0.867	2.815	1.228	1.197	2.498	0.481	757.812
-0.442	0.495	-0.279	0.727	0.981	1.141	0.193	0.915	-0.187	-0.833	-2.834	-1.431	-3.063	0.629	0.157	0.801	0.212	0.455	1.433	0.513	0.281	2.212	0.876	2.768	1.006	0.916	2.318	0.279	761.719
-0.436	0.413	-0.386	0.711	1.009	1.142	0.325	1.002	-0.120	-0.741	-2.770	-1.472	-2.902	0.695	0.198	0.860	0.270	0.468	1.433	0.569	0.317	2.214	0.879	2.678	0.770	0.606	2.070	0.051	765.625
-0.451	0.341	-0.498	0.693	1.017	1.129	0.367	1.041	-0.135	-0.769	-2.720	-1.539	-2.765	0.779	0.256	0.938	0.416	0.510	1.497	0.647	0.381	2.246	0.884	2.568	0.542	0.293	1.785	-0.185	769.531
-0.473	0.282	-0.588	0.675	0.999	1.099	0.328	1.022	-0.217	-0.898	-2.692	-1.623	-2.652	0.880	0.326	1.028	0.625	0.578	1.623	0.744	0.477	2.316	0.902	2.456	0.346	0.001	1.499	-0.408	773.438
-0.479	0.237	-0.617	0.660	0.955	1.051	0.231	0.943	-0.334	-1.092	-2.690	-1.712	-2.558	0.996	0.402	1.122	0.854	0.661	1.794	0.854	0.604	2.426	0.944	2.360	0.196	-0.249	1.241	-0.600	777.344
-0.446	0.208	-0.544	0.651	0.884	0.983	0.102	0.814	-0.450	-1.305	-2.708	-1.795	-2.475	1.124	0.474	1.210	1.052	0.743	1.991	0.967	0.755	2.568	1.014	2.290	0.100	-0.444	1.034	-0.747	781.250
-0.352	0.192	-0.341	0.652	0.790	0.898	-0.031	0.649	-0.534	-1.498	-2.736	-1.861	-2.398	1.259	0.533	1.283	1.177	0.809	2.191	1.073	0.922	2.733	1.116	2.249	0.059	-0.580	0.887	-0.842	785.156
-0.192	0.186	-0.002	0.664	0.678	0.798	-0.149	0.463	-0.568	-1.643	-2.764	-1.906	-2.318	1.397	0.575	1.338	1.206	0.849	2.378	1.166	1.095	2.909	1.247	2.234	0.062	-0.662	0.797	-0.888	789.062
0.028	0.185	0.449	0.686	0.554	0.687	-0.241	0.270	-0.548	-1.734	-2.786	-1.931	-2.234	1.535	0.599	1.376	1.145	0.863	2.545	1.244	1.268	3.089	1.400	2.240	0.097	-0.706	0.750	-0.898	792.969
0.285	0.186	0.968	0.713	0.426	0.571	-0.310	0.081	-0.490	-1.781	-2.802	-1.943	-2.142	1.672	0.612	1.403	1.024	0.859	2.693	1.312	1.440	3.266	1.567	2.256	0.144	-0.733	0.726	-0.890	796.875
