FP1	F3	F7	FC3	C3	C5	P3	P7	PO7	PO3	O1	Oz	Pz	CPz	FP2	Fz	F4	F8	FC4	FCz	Cz	C4	C6	P4	P8	PO8	PO4	O2	time
0.904	-0.654	0.126	-2.013	-1.453	-0.462	0.202	-1.003	-1.302	-0.956	-0.955	1.268	0.907	0.597	0.404	-1.204	0.151	-1.151	0.710	-1.562	-0.817	0.955	1.598	1.018	1.238	0.813	1.269	1.276	-199.219
0.155	-1.319	0.015	-2.101	-1.317	-0.213	0.501	-0.416	-0.846	-0.515	-0.415	1.590	1.041	0.550	-0.080	-1.653	-0.526	-0.944	-0.024	-1.974	-1.113	0.364	1.189	1.118	1.514	1.364	1.567	1.593	-195.312
-0.520	-1.910	-0.095	-2.171	-1.178	0.000	0.767	0.105	-0.419	-0.109	0.096	1.877	1.175	0.520	-0.532	-2.050	-1.131	-0.776	-0.685	-2.329	-1.367	-0.172	0.803	1.209	1.741	1.843	1.840	1.870	-191.406
-1.058	-2.358	-0.199	-2.201	-1.031	0.154	0.974	0.509	-0.055	0.236	0.548	2.099	1.310	0.522	-0.920	-2.346	-1.603	-0.675	-1.208	-2.574	-1.536	-0.602	0.465	1.287	1.872	2.187	2.060	2.068	-187.500
-1.423	-2.615	-0.297	-2.172	-0.877	0.231	1.103	0.759	0.221	0.500	0.916	2.236	1.444	0.567	-1.220	-2.503	-1.899	-0.653	-1.545	-2.671	-1.587	-0.887	0.194	1.348	1.876	2.352	2.211	2.159	-183.594
-1.602	-2.660	-0.389	-2.072	-0.720	0.225	1.146	0.846	0.390	0.679	1.182	2.278	1.571	0.658	-1.419	-2.500	-1.998	-0.705	-1.675	-2.602	-1.506	-1.006	0.001	1.391	1.740	2.322	2.278	2.130	-179.688
-1.609	-2.502	-0.479	-1.897	-0.571	0.142	1.104	0.781	0.448	0.779	1.338	2.229	1.682	0.787	-1.512	-2.336	-1.906	-0.807	-1.601	-2.372	-1.297	-0.960	-0.110	1.416	1.473	2.107	2.261	1.984	-175.781
-1.476	-2.169	-0.565	-1.652	-0.440	-0.003	0.991	0.595	0.399	0.817	1.386	2.101	1.767	0.941	-1.503	-2.028	-1.656	-0.927	-1.354	-2.005	-0.982	-0.769	-0.144	1.424	1.101	1.741	2.162	1.738	-171.875
-1.249	-1.711	-0.644	-1.354	-0.338	-0.186	0.828	0.331	0.263	0.814	1.337	1.915	1.813	1.097	-1.405	-1.609	-1.301	-1.027	-0.982	-1.545	-0.596	-0.472	-0.114	1.410	0.663	1.274	1.993	1.421	-167.969
-0.974	-1.183	-0.709	-1.028	-0.269	-0.379	0.640	0.039	0.067	0.788	1.210	1.691	1.810	1.232	-1.232	-1.126	-0.907	-1.076	-0.544	-1.041	-0.180	-0.121	-0.038	1.371	0.204	0.761	1.766	1.064	-164.062
-0.693	-0.643	-0.748	-0.702	-0.233	-0.553	0.454	-0.235	-0.159	0.755	1.025	1.446	1.749	1.324	-1.006	-0.626	-0.533	-1.058	-0.101	-0.544	0.224	0.229	0.063	1.298	-0.231	0.257	1.495	0.700	-160.156
-0.431	-0.142	-0.750	-0.408	-0.224	-0.681	0.289	-0.454	-0.383	0.719	0.802	1.193	1.627	1.354	-0.749	-0.155	-0.224	-0.969	0.295	-0.098	0.580	0.529	0.167	1.182	-0.603	-0.191	1.195	0.356	-156.250
-0.201	0.282	-0.703	-0.167	-0.233	-0.746	0.156	-0.597	-0.583	0.673	0.556	0.937	1.441	1.309	-0.483	0.249	0.001	-0.822	0.608	0.265	0.862	0.742	0.255	1.015	-0.882	-0.551	0.878	0.050	-152.344
0.004	0.605	-0.602	0.004	-0.251	-0.742	0.054	-0.656	-0.743	0.607	0.299	0.679	1.194	1.185	-0.227	0.563	0.145	-0.634	0.818	0.530	1.051	0.845	0.312	0.793	-1.048	-0.803	0.556	-0.207	-148.438
0.195	0.819	-0.449	0.102	-0.270	-0.672	-0.029	-0.642	-0.858	0.505	0.036	0.416	0.891	0.982	0.007	0.779	0.232	-0.424	0.926	0.692	1.140	0.840	0.333	0.519	-1.098	-0.945	0.242	-0.412	-144.531
0.386	0.932	-0.251	0.133	-0.287	-0.554	-0.107	-0.576	-0.928	0.355	-0.228	0.149	0.544	0.712	0.214	0.900	0.295	-0.202	0.946	0.762	1.131	0.742	0.321	0.207	-1.039	-0.984	-0.050	-0.570	-140.625
0.587	0.960	-0.025	0.114	-0.300	-0.409	-0.200	-0.484	-0.964	0.152	-0.488	-0.120	0.170	0.393	0.398	0.942	0.366	0.027	0.900	0.757	1.036	0.582	0.286	-0.121	-0.891	-0.937	-0.305	-0.686	-136.719
0.794	0.927	0.208	0.065	-0.313	-0.260	-0.319	-0.394	-0.980	-0.102	-0.739	-0.381	-0.207	0.049	0.564	0.925	0.465	0.263	0.817	0.699	0.874	0.397	0.241	-0.437	-0.683	-0.823	-0.506	-0.766	-132.812
0.995	0.858	0.427	0.009	-0.329	-0.129	-0.469	-0.331	-0.990	-0.393	-0.972	-0.622	-0.560	-0.287	0.719	0.870	0.597	0.503	0.721	0.612	0.671	0.224	0.201	-0.706	-0.446	-0.663	-0.638	-0.816	-128.906
1.174	0.774	0.614	-0.036	-0.350	-0.029	-0.646	-0.308	-1.013	-0.702	-1.178	-0.827	-0.860	-0.582	0.867	0.798	0.753	0.735	0.630	0.516	0.460	0.091	0.177	-0.899	-0.211	-0.476	-0.689	-0.835	-125.000
1.312	0.695	0.756	-0.056	-0.375	0.032	-0.834	-0.331	-1.060	-1.003	-1.348	-0.980	-1.080	-0.805	1.005	0.726	0.911	0.941	0.552	0.434	0.271	0.011	0.169	-0.997	-0.006	-0.281	-0.658	-0.823	-121.094
1.396	0.632	0.846	-0.041	-0.397	0.058	-1.011	-0.396	-1.137	-1.269	-1.475	-1.073	-1.201	-0.928	1.126	0.664	1.042	1.097	0.489	0.380	0.133	-0.015	0.172	-0.992	0.149	-0.096	-0.554	-0.778	-117.188
1.420	0.590	0.887	0.011	-0.403	0.058	-1.154	-0.487	-1.243	-1.477	-1.553	-1.101	-1.212	-0.938	1.217	0.618	1.121	1.181	0.432	0.365	0.067	0.000	0.173	-0.891	0.238	0.062	-0.396	-0.699	-113.281
1.388	0.569	0.887	0.099	-0.380	0.046	-1.238	-0.587	-1.365	-1.605	-1.578	-1.068	-1.117	-0.834	1.267	0.588	1.124	1.177	0.372	0.393	0.081	0.038	0.158	-0.716	0.256	0.178	-0.213	-0.590	-109.375
1.308	0.560	0.858	0.215	-0.318	0.034	-1.248	-0.674	-1.479	-1.641	-1.546	-0.982	-0.930	-0.633	1.270	0.568	1.042	1.088	0.300	0.457	0.171	0.077	0.115	-0.496	0.204	0.238	-0.037	-0.461	-105.469
1.198	0.552	0.812	0.347	-0.213	0.033	-1.178	-0.734	-1.560	-1.581	-1.456	-0.857	-0.682	-0.367	1.232	0.549	0.875	0.926	0.211	0.545	0.316	0.103	0.042	-0.264	0.087	0.232	0.104	-0.327	-101.562
1.077	0.530	0.760	0.479	-0.072	0.042	-1.035	-0.753	-1.576	-1.428	-1.303	-0.708	-0.410	-0.078	1.165	0.522	0.639	0.721	0.106	0.639	0.486	0.108	-0.055	-0.053	-0.082	0.155	0.185	-0.203	-97.656
0.963	0.486	0.708	0.594	0.087	0.056	-0.836	-0.729	-1.504	-1.196	-1.090	-0.550	-0.155	0.185	1.087	0.481	0.363	0.503	-0.005	0.722	0.647	0.095	-0.159	0.111	-0.291	0.008	0.195	-0.107	-93.750
0.869	0.415	0.654	0.675	0.240	0.063	-0.605	-0.665	-1.332	-0.906	-0.823	-0.395	0.048	0.381	1.012	0.424	0.084	0.304	-0.106	0.779	0.770	0.071	-0.250	0.211	-0.524	-0.201	0.134	-0.050	-89.844
0.796	0.319	0.589	0.711	0.365	0.048	-0.368	-0.570	-1.062	-0.582	-0.512	-0.253	0.174	0.484	0.945	0.356	-0.156	0.144	-0.178	0.803	0.834	0.052	-0.305	0.245	-0.762	-0.453	0.014	-0.038	-85.938
0.736	0.207	0.500	0.696	0.444	0.003	-0.149	-0.456	-0.712	-0.251	-0.179	-0.136	0.214	0.486	0.883	0.285	-0.324	0.030	-0.201	0.796	0.833	0.051	-0.309	0.220	-0.986	-0.722	-0.142	-0.069	-82.031
0.669	0.092	0.374	0.636	0.472	-0.073	0.038	-0.336	-0.312	0.062	0.153	-0.049	0.178	0.400	0.811	0.220	-0.394	-0.039	-0.163	0.766	0.776	0.080	-0.256	0.153	-1.173	-0.979	-0.309	-0.132	-78.125
0.576	-0.011	0.208	0.543	0.459	-0.170	0.184	-0.217	0.097	0.332	0.453	-0.001	0.084	0.253	0.711	0.168	-0.361	-0.073	-0.062	0.723	0.679	0.144	-0.152	0.063	-1.301	-1.191	-0.463	-0.219	-74.219
0.440	-0.090	0.008	0.440	0.423	-0.268	0.288	-0.106	0.479	0.542	0.693	-0.002	-0.040	0.080	0.574	0.137	-0.234	-0.081	0.092	0.681	0.560	0.237	-0.015	-0.029	-1.354	-1.333	-0.589	-0.317	-70.312
0.254	-0.132	-0.207	0.353	0.389	-0.344	0.352	-0.003	0.802	0.677	0.847	-0.058	-0.171	-0.088	0.398	0.129	-0.038	-0.070	0.279	0.647	0.437	0.347	0.131	-0.110	-1.317	-1.386	-0.683	-0.421	-66.406
0.026	-0.132	-0.409	0.305	0.379	-0.374	0.376	0.094	1.045	0.729	0.897	-0.174	-0.295	-0.231	0.196	0.145	0.191	-0.042	0.470	0.626	0.322	0.454	0.261	-0.174	-1.188	-1.344	-0.749	-0.527	-62.500
-0.226	-0.091	-0.571	0.315	0.404	-0.345	0.360	0.188	1.204	0.699	0.839	-0.349	-0.404	-0.339	-0.006	0.179	0.418	0.008	0.633	0.618	0.219	0.536	0.354	-0.221	-0.973	-1.213	-0.800	-0.632	-58.594
-0.473	-0.014	-0.669	0.387	0.467	-0.254	0.307	0.282	1.286	0.595	0.683	-0.573	-0.501	-0.417	-0.182	0.229	0.609	0.084	0.744	0.619	0.126	0.575	0.397	-0.257	-0.688	-1.011	-0.849	-0.734	-54.688
-0.687	0.088	-0.692	0.514	0.554	-0.109	0.218	0.373	1.309	0.433	0.455	-0.827	-0.593	-0.477	-0.308	0.288	0.743	0.185	0.785	0.625	0.038	0.559	0.389	-0.291	-0.359	-0.762	-0.908	-0.828	-50.781
-0.844	0.205	-0.642	0.679	0.649	0.070	0.102	0.458	1.296	0.238	0.193	-1.084	-0.688	-0.532	-0.373	0.352	0.806	0.300	0.748	0.630	-0.049	0.484	0.333	-0.335	-0.021	-0.498	-0.985	-0.906	-46.875
-0.927	0.328	-0.529	0.855	0.733	0.259	-0.026	0.534	1.271	0.043	-0.058	-1.311	-0.789	-0.590	-0.380	0.418	0.797	0.409	0.640	0.631	-0.140	0.354	0.236	-0.394	0.292	-0.247	-1.077	-0.953	-42.969
-0.933	0.449	-0.376	1.017	0.789	0.436	-0.147	0.594	1.253	-0.120	-0.253	-1.477	-0.892	-0.658	-0.345	0.481	0.722	0.488	0.471	0.624	-0.233	0.177	0.104	-0.477	0.545	-0.034	-1.178	-0.958	-39.062
-0.869	0.565	-0.206	1.142	0.813	0.579	-0.238	0.637	1.255	-0.223	-0.357	-1.557	-0.991	-0.733	-0.295	0.538	0.592	0.512	0.260	0.605	-0.325	-0.031	-0.058	-0.583	0.712	0.122	-1.275	-0.911	-35.156
-0.751	0.675	-0.041	1.216	0.807	0.678	-0.283	0.661	1.281	-0.245	-0.350	-1.536	-1.076	-0.809	-0.254	0.585	0.423	0.467	0.025	0.572	-0.408	-0.256	-0.248	-0.711	0.777	0.211	-1.352	-0.811	-31.250
-0.604	0.781	0.101	1.237	0.780	0.730	-0.270	0.668	1.329	-0.181	-0.230	-1.416	-1.138	-0.880	-0.241	0.619	0.230	0.351	-0.212	0.520	-0.476	-0.481	-0.460	-0.858	0.740	0.229	-1.398	-0.666	-27.344
-0.454	0.882	0.207	1.215	0.747	0.741	-0.199	0.660	1.389	-0.036	-0.015	-1.214	-1.173	-0.939	-0.263	0.639	0.034	0.182	-0.431	0.451	-0.523	-0.689	-0.686	-1.015	0.610	0.178	-1.405	-0.494	-23.438
-0.331	0.979	0.269	1.168	0.723	0.723	-0.078	0.642	1.448	0.168	0.262	-0.955	-1.179	-0.983	-0.315	0.649	-0.146	-0.011	-0.608	0.370	-0.546	-0.861	-0.913	-1.172	0.410	0.068	-1.371	-0.320	-19.531
-0.264	1.069	0.283	1.115	0.717	0.691	0.075	0.621	1.493	0.406	0.559	-0.675	-1.161	-1.009	-0.385	0.651	-0.290	-0.190	-0.723	0.284	-0.541	-0.982	-1.123	-1.319	0.168	-0.089	-1.304	-0.169	-15.625
-0.273	1.144	0.248	1.075	0.734	0.655	0.238	0.604	1.516	0.649	0.834	-0.410	-1.125	-1.021	-0.458	0.653	-0.380	-0.324	-0.760	0.205	-0.512	-1.038	-1.291	-1.442	-0.081	-0.274	-1.215	-0.064	-11.719
-0.363	1.198	0.165	1.055	0.770	0.622	0.390	0.598	1.516	0.873	1.052	-0.189	-1.081	-1.019	-0.523	0.658	-0.403	-0.387	-0.708	0.142	-0.462	-1.017	-1.397	-1.529	-0.304	-0.463	-1.118	-0.017	-7.812
-0.524	1.222	0.044	1.055	0.815	0.591	0.510	0.609	1.494	1.059	1.187	-0.036	-1.035	-1.010	-0.569	0.666	-0.352	-0.370	-0.570	0.099	-0.402	-0.919	-1.426	-1.572	-0.472	-0.633	-1.028	-0.031	-3.906
-0.726	1.209	-0.103	1.065	0.850	0.557	0.580	0.634	1.455	1.193	1.231	0.041	-0.997	-1.000	-0.593	0.675	-0.236	-0.277	-0.361	0.075	-0.343	-0.749	-1.372	-1.568	-0.566	-0.760	-0.958	-0.097	0.000
-0.927	1.160	-0.254	1.070	0.856	0.508	0.588	0.667	1.403	1.266	1.186	0.042	-0.971	-0.997	-0.589	0.677	-0.069	-0.120	-0.108	0.062	-0.296	-0.524	-1.243	-1.519	-0.574	-0.826	-0.910	-0.196	3.906
-1.080	1.080	-0.385	1.056	0.816	0.434	0.527	0.696	1.339	1.272	1.069	-0.019	-0.962	-1.013	-0.551	0.666	0.119	0.077	0.154	0.045	-0.273	-0.272	-1.061	-1.434	-0.500	-0.817	-0.884	-0.307	7.812
-1.147	0.980	-0.475	1.016	0.720	0.326	0.399	0.709	1.265	1.210	0.906	-0.122	-0.973	-1.055	-0.473	0.633	0.296	0.292	0.385	0.010	-0.280	-0.025	-0.856	-1.326	-0.357	-0.730	-0.870	-0.404	11.719
-1.109	0.878	-0.504	0.950	0.569	0.183	0.214	0.695	1.184	1.082	0.727	-0.241	-1.006	-1.132	-0.351	0.578	0.433	0.499	0.551	-0.050	-0.321	0.182	-0.667	-1.213	-0.169	-0.573	-0.856	-0.469	15.625
-0.971	0.792	-0.468	0.867	0.377	0.014	-0.007	0.652	1.103	0.901	0.561	-0.352	-1.061	-1.246	-0.187	0.506	0.509	0.676	0.630	-0.139	-0.392	0.318	-0.528	-1.112	0.036	-0.364	-0.833	-0.489	19.531
-0.759	0.736	-0.371	0.781	0.169	-0.166	-0.237	0.586	1.037	0.690	0.432	-0.436	-1.134	-1.390	0.005	0.426	0.516	0.807	0.616	-0.250	-0.484	0.361	-0.466	-1.040	0.226	-0.130	-0.793	-0.462	23.438
-0.519	0.720	-0.230	0.708	-0.026	-0.333	-0.440	0.515	1.001	0.480	0.356	-0.477	-1.219	-1.552	0.200	0.355	0.465	0.880	0.520	-0.370	-0.580	0.302	-0.495	-1.007	0.372	0.097	-0.738	-0.394	27.344
-0.301	0.744	-0.072	0.659	-0.177	-0.464	-0.582	0.460	1.007	0.303	0.341	-0.472	-1.305	-1.711	0.365	0.305	0.377	0.891	0.369	-0.483	-0.664	0.148	-0.613	-1.019	0.456	0.285	-0.675	-0.299	31.250
-0.153	0.802	0.077	0.639	-0.257	-0.537	-0.636	0.441	1.061	0.191	0.384	-0.425	-1.379	-1.844	0.462	0.288	0.279	0.843	0.196	-0.575	-0.718	-0.081	-0.805	-1.069	0.469	0.409	-0.616	-0.194	35.156
-0.106	0.878	0.191	0.648	-0.254	-0.538	-0.586	0.475	1.158	0.165	0.476	-0.347	-1.427	-1.929	0.461	0.306	0.195	0.746	0.037	-0.637	-0.725	-0.351	-1.040	-1.147	0.416	0.456	-0.570	-0.095	39.062
-0.174	0.956	0.253	0.681	-0.165	-0.464	-0.433	0.568	1.280	0.235	0.605	-0.256	-1.437	-1.948	0.344	0.356	0.139	0.611	-0.080	-0.662	-0.675	-0.625	-1.283	-1.233	0.312	0.426	-0.543	-0.019	42.969
-0.351	1.022	0.256	0.732	0.001	-0.325	-0.193	0.711	1.406	0.394	0.756	-0.174	-1.400	-1.894	0.109	0.432	0.114	0.449	-0.137	-0.647	-0.562	-0.865	-1.500	-1.304	0.175	0.329	-0.533	0.020	46.875
-0.617	1.068	0.200	0.792	0.224	-0.139	0.108	0.887	1.515	0.627	0.921	-0.123	-1.312	-1.765	-0.228	0.525	0.112	0.262	-0.130	-0.593	-0.389	-1.042	-1.666	-1.338	0.028	0.186	-0.533	0.015	50.781
-0.948	1.092	0.092	0.853	0.481	0.067	0.439	1.073	1.593	0.914	1.093	-0.122	-1.173	-1.572	-0.639	0.628	0.116	0.052	-0.065	-0.499	-0.164	-1.135	-1.765	-1.315	-0.111	0.023	-0.525	-0.040	54.688
-1.320	1.098	-0.060	0.907	0.745	0.262	0.771	1.245	1.641	1.235	1.272	-0.189	-0.987	-1.328	-1.090	0.731	0.108	-0.185	0.042	-0.367	0.099	-1.138	-1.797	-1.224	-0.227	-0.133	-0.491	-0.141	58.594
-1.718	1.087	-0.248	0.945	0.996	0.420	1.085	1.387	1.676	1.578	1.459	-0.334	-0.759	-1.053	-1.549	0.826	0.074	-0.449	0.169	-0.207	0.379	-1.055	-1.773	-1.060	-0.310	-0.255	-0.412	-0.280	62.500
-2.136	1.060	-0.467	0.959	1.218	0.522	1.373	1.494	1.727	1.937	1.655	-0.561	-0.492	-0.763	-1.991	0.902	0.004	-0.731	0.293	-0.030	0.656	-0.900	-1.712	-0.827	-0.354	-0.321	-0.278	-0.447	66.406
-2.575	1.014	-0.708	0.943	1.403	0.560	1.639	1.577	1.826	2.310	1.854	-0.870	-0.194	-0.479	-2.400	0.945	-0.102	-1.015	0.393	0.141	0.906	-0.692	-1.634	-0.537	-0.357	-0.320	-0.087	-0.629	70.312
-3.034	0.943	-0.960	0.895	1.550	0.546	1.893	1.656	2.006	2.699	2.043	-1.255	0.128	-0.214	-2.766	0.944	-0.239	-1.281	0.452	0.284	1.111	-0.453	-1.559	-0.211	-0.324	-0.249	0.148	-0.818	74.219
-3.501	0.843	-1.203	0.819	1.668	0.502	2.148	1.759	2.285	3.102	2.202	-1.704	0.464	0.017	-3.084	0.890	-0.398	-1.506	0.459	0.372	1.255	-0.206	-1.499	0.125	-0.261	-0.123	0.398	-1.012	78.125
-3.956	0.714	-1.412	0.726	1.765	0.462	2.412	1.910	2.663	3.507	2.307	-2.201	0.800	0.207	-3.347	0.782	-0.568	-1.669	0.409	0.389	1.332	0.026	-1.458	0.443	-0.177	0.032	0.626	-1.212	82.031
-4.366	0.565	-1.561	0.632	1.853	0.455	2.685	2.124	3.122	3.898	2.335	-2.721	1.117	0.351	-3.550	0.626	-0.739	-1.765	0.303	0.326	1.344	0.223	-1.438	0.715	-0.081	0.185	0.792	-1.424	85.938
-4.697	0.408	-1.629	0.553	1.941	0.505	2.960	2.400	3.629	4.249	2.276	-3.232	1.400	0.448	-3.687	0.435	-0.902	-1.801	0.146	0.186	1.302	0.370	-1.434	0.922	0.023	0.308	0.868	-1.648	89.844
-4.925	0.259	-1.609	0.507	2.034	0.618	3.222	2.720	4.137	4.534	2.130	-3.697	1.634	0.504	-3.762	0.226	-1.051	-1.800	-0.051	-0.015	1.224	0.454	-1.439	1.059	0.134	0.385	0.839	-1.873	93.750
-5.039	0.132	-1.512	0.501	2.134	0.781	3.455	3.055	4.602	4.734	1.919	-4.071	1.815	0.527	-3.785	0.014	-1.185	-1.793	-0.276	-0.254	1.129	0.470	-1.448	1.130	0.259	0.413	0.715	-2.081	97.656
-5.050	0.037	-1.361	0.536	2.236	0.969	3.645	3.371	4.984	4.843	1.680	-4.313	1.944	0.531	-3.773	-0.190	-1.307	-1.812	-0.516	-0.504	1.036	0.418	-1.461	1.152	0.403	0.406	0.522	-2.242	101.562
-4.985	-0.025	-1.194	0.599	2.330	1.145	3.784	3.636	5.257	4.870	1.459	-4.386	2.030	0.525	-3.750	-0.378	-1.422	-1.879	-0.758	-0.742	0.958	0.304	-1.478	1.148	0.570	0.386	0.302	-2.320	105.469
-4.883	-0.059	-1.049	0.670	2.407	1.275	3.871	3.826	5.414	4.839	1.303	-4.265	2.086	0.519	-3.735	-0.552	-1.540	-1.998	-0.988	-0.948	0.898	0.142	-1.505	1.136	0.759	0.378	0.101	-2.287	109.375
-4.785	-0.079	-0.959	0.726	2.451	1.333	3.910	3.927	5.461	4.784	1.249	-3.942	2.125	0.515	-3.744	-0.712	-1.666	-2.153	-1.194	-1.111	0.851	-0.054	-1.545	1.134	0.958	0.403	-0.045	-2.121	113.281
-4.723	-0.100	-0.945	0.741	2.451	1.304	3.909	3.938	5.416	4.738	1.321	-3.428	2.158	0.511	-3.786	-0.861	-1.804	-2.317	-1.363	-1.231	0.804	-0.265	-1.602	1.147	1.148	0.469	-0.108	-1.818	117.188
-4.713	-0.137	-1.013	0.700	2.400	1.194	3.874	3.864	5.302	4.728	1.522	-2.751	2.190	0.499	-3.859	-0.998	-1.952	-2.455	-1.484	-1.309	0.746	-0.473	-1.673	1.172	1.303	0.575	-0.084	-1.392	121.094
-4.754	-0.202	-1.153	0.594	2.294	1.017	3.811	3.717	5.141	4.770	1.838	-1.956	2.220	0.473	-3.953	-1.118	-2.098	-2.537	-1.551	-1.355	0.666	-0.663	-1.752	1.198	1.398	0.706	0.017	-0.870	125.000
-4.830	-0.301	-1.341	0.431	2.139	0.803	3.725	3.514	4.950	4.864	2.239	-1.097	2.245	0.425	-4.053	-1.214	-2.230	-2.548	-1.564	-1.378	0.563	-0.827	-1.834	1.210	1.410	0.842	0.172	-0.289	128.906
-4.916	-0.430	-1.547	0.229	1.951	0.582	3.617	3.270	4.741	4.998	2.685	-0.231	2.255	0.352	-4.143	-1.279	-2.332	-2.491	-1.532	-1.385	0.445	-0.962	-1.909	1.197	1.324	0.962	0.350	0.311	132.812
-4.986	-0.579	-1.738	0.021	1.750	0.388	3.494	3.004	4.521	5.153	3.136	0.588	2.243	0.257	-4.210	-1.306	-2.389	-2.383	-1.472	-1.381	0.325	-1.071	-1.975	1.150	1.138	1.048	0.523	0.894	136.719
-5.023	-0.729	-1.885	-0.155	1.566	0.248	3.362	2.733	4.294	5.305	3.551	1.319	2.203	0.144	-4.246	-1.297	-2.398	-2.257	-1.407	-1.367	0.219	-1.165	-2.031	1.067	0.861	1.093	0.671	1.431	140.625
-5.016	-0.857	-1.968	-0.259	1.426	0.183	3.233	2.470	4.060	5.437	3.900	1.933	2.131	0.020	-4.254	-1.255	-2.361	-2.148	-1.362	-1.341	0.140	-1.254	-2.082	0.951	0.513	1.100	0.782	1.905	144.531
-4.971	-0.942	-1.979	-0.262	1.354	0.200	3.119	2.225	3.821	5.537	4.164	2.418	2.030	-0.106	-4.240	-1.189	-2.293	-2.090	-1.357	-1.301	0.095	-1.351	-2.138	0.813	0.124	1.083	0.859	2.308	148.438
-4.899	-0.969	-1.922	-0.150	1.360	0.295	3.029	2.006	3.582	5.603	4.340	2.777	1.904	-0.228	-4.218	-1.108	-2.213	-2.107	-1.405	-1.243	0.082	-1.462	-2.207	0.666	-0.275	1.060	0.911	2.642	152.344
-4.821	-0.935	-1.812	0.068	1.442	0.454	2.972	1.817	3.354	5.644	4.440	3.026	1.759	-0.343	-4.201	-1.025	-2.146	-2.206	-1.509	-1.170	0.089	-1.585	-2.297	0.523	-0.651	1.052	0.953	2.912	156.250
-4.756	-0.850	-1.670	0.364	1.578	0.649	2.952	1.661	3.155	5.676	4.487	3.187	1.605	-0.448	-4.204	-0.951	-2.114	-2.379	-1.658	-1.087	0.098	-1.714	-2.410	0.395	-0.979	1.080	1.001	3.129	160.156
-4.720	-0.736	-1.525	0.689	1.735	0.849	2.966	1.540	3.013	5.722	4.516	3.288	1.452	-0.545	-4.232	-0.897	-2.129	-2.601	-1.835	-1.007	0.089	-1.836	-2.544	0.292	-1.241	1.155	1.068	3.305	164.062
-4.725	-0.624	-1.401	0.986	1.872	1.017	3.009	1.461	2.960	5.801	4.564	3.355	1.306	-0.637	-4.289	-0.874	-2.198	-2.839	-2.020	-0.949	0.045	-1.933	-2.690	0.223	-1.429	1.285	1.162	3.453	167.969
-4.776	-0.547	-1.319	1.199	1.949	1.122	3.071	1.428	3.027	5.929	4.669	3.414	1.173	-0.726	-4.372	-0.893	-2.320	-3.055	-2.190	-0.934	-0.046	-1.989	-2.834	0.192	-1.542	1.471	1.284	3.587	171.875
-4.873	-0.534	-1.294	1.287	1.934	1.141	3.142	1.449	3.236	6.115	4.861	3.487	1.056	-0.818	-4.476	-0.965	-2.486	-3.221	-2.330	-0.983	-0.191	-1.995	-2.960	0.202	-1.584	1.709	1.431	3.721	175.781
-5.012	-0.605	-1.330	1.226	1.812	1.062	3.212	1.530	3.597	6.356	5.157	3.589	0.953	-0.919	-4.600	-1.099	-2.690	-3.323	-2.432	-1.113	-0.388	-1.948	-3.057	0.253	-1.558	1.995	1.593	3.865	179.688
-5.191	-0.764	-1.423	1.022	1.584	0.892	3.273	1.676	4.102	6.641	5.565	3.734	0.860	-1.036	-4.744	-1.298	-2.924	-3.364	-2.500	-1.333	-0.632	-1.860	-3.117	0.338	-1.467	2.323	1.759	4.031	183.594
-5.404	-1.005	-1.562	0.699	1.271	0.654	3.319	1.890	4.727	6.954	6.074	3.926	0.768	-1.180	-4.917	-1.562	-3.183	-3.360	-2.549	-1.644	-0.916	-1.753	-3.142	0.447	-1.309	2.692	1.916	4.225	187.500
-5.649	-1.311	-1.731	0.296	0.902	0.379	3.347	2.176	5.438	7.276	6.665	4.167	0.667	-1.362	-5.132	-1.887	-3.463	-3.337	-2.601	-2.039	-1.238	-1.658	-3.141	0.565	-1.078	3.103	2.056	4.451	191.406
-5.925	-1.659	-1.913	-0.146	0.510	0.106	3.356	2.531	6.197	7.587	7.309	4.451	0.547	-1.594	-5.403	-2.264	-3.758	-3.320	-2.679	-2.502	-1.598	-1.608	-3.130	0.676	-0.768	3.557	2.175	4.709	195.312
-6.230	-2.027	-2.095	-0.593	0.127	-0.134	3.349	2.948	6.966	7.875	7.975	4.769	0.399	-1.883	-5.741	-2.682	-4.059	-3.328	-2.805	-3.018	-1.998	-1.633	-3.125	0.763	-0.372	4.059	2.273	4.998	199.219
-6.566	-2.397	-2.268	-1.023	-0.227	-0.318	3.329	3.416	7.719	8.132	8.636	5.109	0.219	-2.228	-6.146	-3.125	-4.355	-3.372	-2.991	-3.564	-2.439	-1.752	-3.141	0.814	0.111	4.611	2.357	5.313	203.125
-6.933	-2.755	-2.427	-1.426	-0.539	-0.441	3.303	3.915	8.442	8.357	9.270	5.454	0.008	-2.619	-6.607	-3.580	-4.632	-3.457	-3.241	-4.119	-2.917	-1.970	-3.190	0.823	0.677	5.211	2.434	5.647	207.031
-7.325	-3.094	-2.573	-1.798	-0.805	-0.508	3.280	4.424	9.132	8.554	9.859	5.789	-0.228	-3.033	-7.104	-4.027	-4.878	-3.588	-3.546	-4.659	-3.424	-2.279	-3.279	0.789	1.312	5.849	2.510	5.990	210.938
-7.735	-3.407	-2.705	-2.137	-1.024	-0.538	3.270	4.921	9.791	8.730	10.392	6.094	-0.479	-3.446	-7.606	-4.448	-5.088	-3.762	-3.891	-5.158	-3.945	-2.660	-3.413	0.715	1.992	6.511	2.586	6.328	214.844
-8.144	-3.686	-2.822	-2.437	-1.197	-0.552	3.278	5.383	10.422	8.889	10.860	6.353	-0.736	-3.831	-8.082	-4.820	-5.261	-3.978	-4.253	-5.592	-4.458	-3.090	-3.589	0.608	2.689	7.176	2.656	6.647	218.750
-8.529	-3.919	-2.919	-2.689	-1.330	-0.571	3.305	5.788	11.020	9.033	11.249	6.548	-0.991	-4.165	-8.501	-5.126	-5.404	-4.227	-4.611	-5.940	-4.943	-3.540	-3.799	0.474	3.372	7.820	2.707	6.927	222.656
-8.857	-4.093	-2.988	-2.879	-1.425	-0.607	3.344	6.122	11.570	9.154	11.544	6.665	-1.240	-4.439	-8.833	-5.349	-5.525	-4.491	-4.944	-6.189	-5.380	-3.984	-4.032	0.321	4.012	8.416	2.723	7.149	226.562
-9.099	-4.195	-3.018	-2.995	-1.489	-0.664	3.382	6.374	12.049	9.240	11.725	6.693	-1.480	-4.650	-9.058	-5.482	-5.632	-4.743	-5.236	-6.333	-5.748	-4.400	-4.272	0.153	4.584	8.938	2.690	7.299	230.469
-9.228	-4.220	-2.999	-3.033	-1.530	-0.736	3.404	6.538	12.427	9.276	11.779	6.629	-1.711	-4.804	-9.158	-5.528	-5.729	-4.952	-5.478	-6.382	-6.036	-4.769	-4.496	-0.019	5.072	9.362	2.599	7.363	234.375
-9.231	-4.174	-2.927	-3.001	-1.556	-0.809	3.395	6.616	12.676	9.246	11.695	6.475	-1.928	-4.910	-9.126	-5.502	-5.817	-5.086	-5.665	-6.353	-6.232	-5.072	-4.683	-0.186	5.467	9.675	2.452	7.339	238.281
-9.114	-4.077	-2.804	-2.921	-1.578	-0.870	3.348	6.615	12.775	9.141	11.475	6.242	-2.122	-4.975	-8.966	-5.431	-5.895	-5.123	-5.797	-6.275	-6.335	-5.294	-4.809	-0.330	5.773	9.871	2.266	7.235	242.188
-8.899	-3.960	-2.643	-2.825	-1.608	-0.911	3.263	6.545	12.716	8.960	11.136	5.949	-2.281	-5.004	-8.695	-5.344	-5.959	-5.054	-5.877	-6.180	-6.347	-5.421	-4.853	-0.429	6.000	9.960	2.067	7.067	246.094
-8.624	-3.860	-2.469	-2.751	-1.655	-0.930	3.149	6.425	12.507	8.715	10.703	5.619	-2.389	-4.997	-8.339	-5.273	-6.005	-4.890	-5.905	-6.096	-6.282	-5.439	-4.799	-0.461	6.168	9.961	1.889	6.863	250.000
-8.335	-3.811	-2.311	-2.730	-1.728	-0.934	3.021	6.271	12.175	8.424	10.210	5.279	-2.430	-4.954	-7.935	-5.242	-6.033	-4.655	-5.885	-6.045	-6.157	-5.340	-4.641	-0.404	6.297	9.901	1.767	6.653	253.906
-8.078	-3.837	-2.200	-2.782	-1.829	-0.936	2.898	6.101	11.756	8.113	9.692	4.949	-2.394	-4.869	-7.525	-5.265	-6.039	-4.384	-5.817	-6.037	-5.996	-5.124	-4.380	-0.244	6.407	9.809	1.727	6.463	257.812
-7.892	-3.945	-2.159	-2.907	-1.950	-0.947	2.796	5.935	11.297	7.805	9.182	4.647	-2.275	-4.742	-7.143	-5.341	-6.024	-4.113	-5.704	-6.069	-5.824	-4.801	-4.029	0.019	6.511	9.710	1.786	6.313	261.719
-7.799	-4.126	-2.197	-3.087	-2.078	-0.975	2.732	5.787	10.841	7.521	8.703	4.379	-2.077	-4.574	-6.818	-5.458	-5.988	-3.873	-5.551	-6.126	-5.661	-4.392	-3.612	0.372	6.612	9.617	1.937	6.208	265.625
-7.803	-4.354	-2.309	-3.289	-2.193	-1.020	2.714	5.672	10.430	7.275	8.269	4.143	-1.810	-4.369	-6.565	-5.595	-5.931	-3.685	-5.365	-6.187	-5.522	-3.929	-3.160	0.789	6.701	9.529	2.159	6.141	269.531
-7.889	-4.596	-2.475	-3.475	-2.272	-1.074	2.748	5.602	10.092	7.076	7.883	3.928	-1.491	-4.134	-6.386	-5.728	-5.852	-3.555	-5.154	-6.230	-5.410	-3.446	-2.707	1.230	6.760	9.433	2.411	6.090	273.438
-8.028	-4.816	-2.665	-3.613	-2.296	-1.126	2.832	5.583	9.843	6.921	7.543	3.716	-1.141	-3.877	-6.271	-5.833	-5.749	-3.477	-4.926	-6.236	-5.321	-2.980	-2.285	1.651	6.768	9.307	2.647	6.025	277.344
-8.180	-4.985	-2.849	-3.681	-2.257	-1.163	2.954	5.613	9.681	6.803	7.236	3.488	-0.784	-3.610	-6.203	-5.893	-5.612	-3.433	-4.687	-6.189	-5.239	-2.561	-1.918	2.010	6.706	9.123	2.816	5.915	281.250
-8.303	-5.080	-3.001	-3.675	-2.155	-1.176	3.100	5.687	9.590	6.706	6.949	3.229	-0.443	-3.344	-6.159	-5.893	-5.433	-3.399	-4.441	-6.087	-5.150	-2.213	-1.625	2.271	6.567	8.863	2.880	5.736	285.156
-8.362	-5.092	-3.101	-3.605	-2.006	-1.162	3.246	5.787	9.543	6.610	6.665	2.924	-0.142	-3.093	-6.114	-5.828	-5.203	-3.344	-4.188	-5.934	-5.039	-1.947	-1.414	2.414	6.357	8.517	2.814	5.471	289.062
-8.333	-5.021	-3.139	-3.492	-1.829	-1.122	3.370	5.893	9.505	6.495	6.367	2.570	0.101	-2.866	-6.039	-5.697	-4.918	-3.244	-3.929	-5.738	-4.897	-1.767	-1.284	2.431	6.093	8.091	2.615	5.119	292.969
-8.209	-4.873	-3.111	-3.358	-1.648	-1.065	3.452	5.982	9.444	6.346	6.043	2.168	0.270	-2.675	-5.909	-5.503	-4.582	-3.082	-3.669	-5.513	-4.722	-1.666	-1.228	2.331	5.801	7.602	2.296	4.690	296.875
-7.994	-4.660	-3.020	-3.219	-1.478	-0.996	3.482	6.036	9.332	6.154	5.688	1.728	0.359	-2.525	-5.706	-5.256	-4.210	-2.858	-3.411	-5.269	-4.517	-1.630	-1.235	2.135	5.509	7.077	1.888	4.208	300.781
-7.709	-4.398	-2.874	-3.081	-1.329	-0.922	3.456	6.040	9.157	5.920	5.306	1.267	0.370	-2.416	-5.424	-4.963	-3.825	-2.586	-3.167	-5.013	-4.290	-1.641	-1.291	1.873	5.240	6.546	1.430	3.700	304.688
-7.382	-4.103	-2.689	-2.939	-1.196	-0.846	3.382	5.986	8.920	5.655	4.908	0.804	0.312	-2.341	-5.072	-4.638	-3.454	-2.295	-2.946	-4.749	-4.050	-1.675	-1.379	1.577	5.010	6.038	0.961	3.201	308.594
-7.045	-3.791	-2.483	-2.781	-1.071	-0.766	3.275	5.877	8.638	5.380	4.514	0.361	0.205	-2.289	-4.680	-4.295	-3.121	-2.023	-2.758	-4.481	-3.804	-1.714	-1.482	1.282	4.824	5.581	0.519	2.740	312.500
-6.733	-3.481	-2.279	-2.596	-0.942	-0.683	3.151	5.721	8.335	5.116	4.145	-0.039	0.069	-2.244	-4.292	-3.950	-2.845	-1.806	-2.609	-4.210	-3.561	-1.739	-1.587	1.015	4.680	5.195	0.132	2.348	316.406
-6.476	-3.193	-2.105	-2.379	-0.801	-0.595	3.027	5.532	8.043	4.885	3.825	-0.375	-0.068	-2.190	-3.960	-3.623	-2.636	-1.671	-2.497	-3.941	-3.328	-1.737	-1.679	0.798	4.574	4.898	-0.182	2.045	320.312
-6.302	-2.947	-1.985	-2.136	-0.643	-0.506	2.917	5.326	7.789	4.704	3.572	-0.628	-0.183	-2.115	-3.729	-3.331	-2.495	-1.631	-2.419	-3.680	-3.108	-1.702	-1.750	0.643	4.496	4.698	-0.416	1.843	324.219
-6.230	-2.758	-1.942	-1.883	-0.473	-0.422	2.831	5.121	7.601	4.583	3.401	-0.782	-0.254	-2.005	-3.631	-3.093	-2.418	-1.686	-2.364	-3.432	-2.903	-1.632	-1.792	0.553	4.434	4.596	-0.570	1.745	328.125
-6.269	-2.637	-1.985	-1.640	-0.296	-0.350	2.777	4.931	7.499	4.525	3.322	-0.828	-0.265	-1.855	-3.674	-2.917	-2.393	-1.822	-2.323	-3.202	-2.711	-1.536	-1.808	0.521	4.376	4.581	-0.654	1.742	332.031
-6.418	-2.584	-2.116	-1.430	-0.118	-0.299	2.765	4.770	7.496	4.531	3.340	-0.761	-0.207	-1.662	-3.848	-2.808	-2.408	-2.021	-2.289	-2.987	-2.525	-1.428	-1.807	0.535	4.306	4.632	-0.680	1.816	335.938
-6.667	-2.592	-2.322	-1.267	0.058	-0.275	2.805	4.651	7.599	4.601	3.455	-0.585	-0.076	-1.426	-4.127	-2.758	-2.452	-2.263	-2.257	-2.782	-2.334	-1.323	-1.803	0.577	4.211	4.718	-0.662	1.943	339.844
-6.996	-2.642	-2.583	-1.158	0.235	-0.280	2.906	4.581	7.804	4.733	3.666	-0.312	0.129	-1.149	-4.483	-2.751	-2.515	-2.535	-2.227	-2.579	-2.125	-1.236	-1.817	0.635	4.078	4.806	-0.612	2.099	343.750
-7.384	-2.715	-2.880	-1.102	0.417	-0.313	3.078	4.565	8.098	4.926	3.966	0.041	0.403	-0.835	-4.888	-2.767	-2.587	-2.828	-2.201	-2.368	-1.883	-1.177	-1.866	0.697	3.903	4.868	-0.538	2.263	347.656
-7.811	-2.792	-3.193	-1.086	0.610	-0.368	3.324	4.602	8.454	5.173	4.340	0.449	0.738	-0.485	-5.324	-2.786	-2.666	-3.139	-2.181	-2.146	-1.600	-1.143	-1.957	0.764	3.688	4.883	-0.438	2.422	351.562
-8.262	-2.859	-3.515	-1.095	0.819	-0.436	3.638	4.682	8.837	5.466	4.770	0.884	1.127	-0.104	-5.779	-2.793	-2.749	-3.465	-2.166	-1.910	-1.274	-1.121	-2.089	0.842	3.448	4.845	-0.309	2.572	355.469
-8.729	-2.912	-3.844	-1.110	1.045	-0.507	4.006	4.790	9.206	5.790	5.228	1.319	1.559	0.306	-6.247	-2.783	-2.840	-3.807	-2.154	-1.668	-0.911	-1.088	-2.243	0.944	3.204	4.760	-0.142	2.718	359.375
-9.208	-2.954	-4.184	-1.116	1.284	-0.568	4.406	4.905	9.519	6.126	5.683	1.728	2.025	0.741	-6.726	-2.757	-2.942	-4.161	-2.136	-1.428	-0.520	-1.014	-2.391	1.088	2.979	4.644	0.072	2.870	363.281
-9.696	-2.994	-4.542	-1.103	1.529	-0.614	4.810	5.004	9.740	6.453	6.101	2.094	2.515	1.198	-7.212	-2.724	-3.064	-4.520	-2.103	-1.202	-0.115	-0.872	-2.500	1.291	2.796	4.519	0.341	3.041	367.188
-10.187	-3.041	-4.922	-1.066	1.772	-0.638	5.196	5.069	9.847	6.752	6.451	2.403	3.021	1.675	-7.704	-2.698	-3.208	-4.874	-2.045	-0.999	0.292	-0.639	-2.538	1.566	2.672	4.406	0.666	3.238	371.094
-10.665	-3.104	-5.322	-1.009	2.002	-0.642	5.542	5.089	9.833	7.007	6.706	2.645	3.535	2.167	-8.195	-2.685	-3.374	-5.210	-1.953	-0.821	0.692	-0.306	-2.481	1.920	2.611	4.321	1.040	3.460	375.000
-11.110	-3.183	-5.731	-0.941	2.212	-0.632	5.834	5.060	9.706	7.205	6.847	2.811	4.048	2.668	-8.674	-2.688	-3.550	-5.515	-1.820	-0.669	1.082	0.123	-2.320	2.347	2.608	4.269	1.446	3.693	378.906
-11.491	-3.272	-6.126	-0.873	2.393	-0.617	6.061	4.985	9.484	7.337	6.861	2.891	4.545	3.167	-9.116	-2.698	-3.715	-5.772	-1.640	-0.534	1.459	0.631	-2.060	2.828	2.647	4.245	1.858	3.911	382.812
-11.776	-3.356	-6.477	-0.814	2.542	-0.605	6.217	4.872	9.193	7.393	6.744	2.873	5.009	3.647	-9.487	-2.696	-3.840	-5.967	-1.414	-0.406	1.824	1.188	-1.720	3.331	2.704	4.230	2.238	4.079	386.719
-11.939	-3.414	-6.753	-0.772	2.659	-0.600	6.300	4.731	8.854	7.366	6.500	2.745	5.420	4.089	-9.747	-2.658	-3.893	-6.087	-1.142	-0.274	2.172	1.757	-1.333	3.816	2.748	4.197	2.547	4.160	390.625
-11.957	-3.425	-6.922	-0.746	2.751	-0.600	6.314	4.574	8.488	7.248	6.137	2.503	5.756	4.474	-9.857	-2.560	-3.845	-6.127	-0.833	-0.129	2.499	2.300	-0.937	4.236	2.751	4.111	2.743	4.122	394.531
-11.824	-3.365	-6.962	-0.726	2.829	-0.594	6.268	4.411	8.108	7.038	5.676	2.149	6.000	4.787	-9.790	-2.381	-3.680	-6.087	-0.498	0.036	2.801	2.781	-0.578	4.549	2.685	3.941	2.790	3.943	398.438
-11.546	-3.219	-6.860	-0.698	2.912	-0.566	6.180	4.252	7.723	6.744	5.142	1.702	6.146	5.023	-9.538	-2.114	-3.398	-5.979	-0.155	0.223	3.073	3.169	-0.295	4.718	2.530	3.658	2.663	3.616	402.344
-11.142	-2.979	-6.623	-0.644	3.020	-0.498	6.074	4.103	7.341	6.384	4.568	1.194	6.196	5.189	-9.116	-1.763	-3.019	-5.821	0.176	0.429	3.311	3.445	-0.119	4.725	2.275	3.245	2.353	3.153	406.250
-10.647	-2.649	-6.268	-0.545	3.170	-0.375	5.975	3.972	6.970	5.990	3.987	0.664	6.167	5.302	-8.561	-1.349	-2.579	-5.637	0.474	0.650	3.516	3.607	-0.065	4.567	1.919	2.702	1.871	2.581	410.156
-10.097	-2.243	-5.829	-0.388	3.374	-0.189	5.908	3.859	6.616	5.597	3.434	0.158	6.084	5.385	-7.924	-0.904	-2.123	-5.453	0.721	0.875	3.692	3.662	-0.129	4.267	1.473	2.042	1.246	1.937	414.062
-9.534	-1.783	-5.345	-0.166	3.633	0.056	5.888	3.764	6.286	5.240	2.932	-0.289	5.979	5.466	-7.261	-0.463	-1.699	-5.290	0.905	1.096	3.846	3.636	-0.283	3.863	0.960	1.298	0.527	1.265	417.969
-8.990	-1.297	-4.856	0.116	3.940	0.349	5.920	3.679	5.980	4.945	2.493	-0.654	5.882	5.569	-6.621	-0.062	-1.343	-5.160	1.021	1.302	3.989	3.562	-0.487	3.404	0.406	0.508	-0.230	0.604	421.875
-8.486	-0.815	-4.396	0.447	4.277	0.670	5.998	3.599	5.700	4.725	2.117	-0.933	5.815	5.709	-6.043	0.272	-1.080	-5.065	1.074	1.487	4.129	3.476	-0.690	2.945	-0.158	-0.285	-0.966	-0.012	425.781
-8.031	-0.363	-3.990	0.807	4.623	0.997	6.103	3.517	5.441	4.575	1.795	-1.137	5.791	5.890	-5.546	0.521	-0.915	-4.996	1.071	1.641	4.270	3.410	-0.845	2.530	-0.703	-1.042	-1.629	-0.560	429.688
-7.623	0.037	-3.651	1.171	4.950	1.308	6.214	3.428	5.199	4.478	1.514	-1.285	5.810	6.103	-5.139	0.679	-0.841	-4.940	1.026	1.755	4.411	3.384	-0.919	2.190	-1.204	-1.729	-2.179	-1.022	433.594
-7.258	0.366	-3.383	1.508	5.236	1.584	6.308	3.336	4.967	4.409	1.265	-1.395	5.862	6.330	-4.817	0.748	-0.838	-4.882	0.950	1.820	4.543	3.405	-0.898	1.938	-1.643	-2.321	-2.591	-1.383	437.500
-6.928	0.611	-3.182	1.791	5.462	1.811	6.372	3.247	4.745	4.345	1.047	-1.475	5.931	6.547	-4.575	0.736	-0.884	-4.811	0.854	1.828	4.651	3.467	-0.789	1.768	-2.007	-2.798	-2.858	-1.631	441.406
-6.637	0.765	-3.044	1.997	5.615	1.982	6.399	3.170	4.531	4.270	0.871	-1.525	6.002	6.728	-4.405	0.656	-0.959	-4.721	0.749	1.777	4.719	3.554	-0.618	1.666	-2.292	-3.151	-2.984	-1.752	445.312
-6.392	0.825	-2.958	2.111	5.695	2.095	6.396	3.115	4.329	4.178	0.751	-1.533	6.062	6.854	-4.302	0.522	-1.049	-4.616	0.646	1.673	4.732	3.648	-0.422	1.606	-2.497	-3.376	-2.986	-1.737	449.219
-6.209	0.795	-2.920	2.131	5.707	2.155	6.375	3.088	4.142	4.078	0.705	-1.486	6.106	6.916	-4.265	0.353	-1.145	-4.507	0.559	1.527	4.685	3.730	-0.237	1.569	-2.630	-3.477	-2.889	-1.585	453.125
-6.110	0.685	-2.923	2.066	5.668	2.172	6.352	3.095	3.974	3.985	0.749	-1.372	6.132	6.915	-4.297	0.164	-1.243	-4.412	0.498	1.362	4.582	3.789	-0.095	1.539	-2.701	-3.464	-2.721	-1.307	457.031
-6.113	0.511	-2.963	1.932	5.597	2.164	6.343	3.134	3.831	3.917	0.886	-1.186	6.146	6.860	-4.399	-0.030	-1.349	-4.351	0.473	1.201	4.436	3.818	-0.014	1.510	-2.724	-3.352	-2.510	-0.927	460.938
-6.232	0.292	-3.037	1.756	5.517	2.152	6.360	3.202	3.720	3.893	1.114	-0.935	6.155	6.769	-4.576	-0.218	-1.470	-4.341	0.483	1.060	4.266	3.814	-0.002	1.481	-2.712	-3.160	-2.279	-0.476	464.844
-6.466	0.049	-3.135	1.562	5.447	2.157	6.409	3.293	3.647	3.923	1.418	-0.629	6.165	6.659	-4.827	-0.397	-1.619	-4.393	0.516	0.950	4.092	3.775	-0.055	1.460	-2.677	-2.904	-2.046	0.008	468.750
-6.800	-0.201	-3.250	1.377	5.402	2.197	6.487	3.405	3.620	4.008	1.774	-0.286	6.176	6.544	-5.148	-0.570	-1.808	-4.512	0.548	0.864	3.927	3.702	-0.161	1.454	-2.622	-2.598	-1.822	0.492	472.656
-7.204	-0.446	-3.365	1.218	5.385	2.281	6.586	3.533	3.644	4.141	2.155	0.072	6.184	6.429	-5.522	-0.747	-2.046	-4.689	0.551	0.785	3.773	3.593	-0.304	1.469	-2.546	-2.251	-1.608	0.949	476.562
-7.637	-0.681	-3.468	1.097	5.389	2.407	6.690	3.672	3.718	4.305	2.533	0.429	6.178	6.311	-5.925	-0.941	-2.337	-4.910	0.495	0.686	3.625	3.453	-0.464	1.505	-2.439	-1.868	-1.403	1.362	480.469
-8.053	-0.908	-3.545	1.016	5.398	2.559	6.780	3.815	3.836	4.476	2.880	0.768	6.147	6.178	-6.323	-1.166	-2.674	-5.152	0.360	0.539	3.471	3.290	-0.618	1.563	-2.290	-1.447	-1.202	1.726	484.375
-8.411	-1.132	-3.586	0.968	5.391	2.716	6.834	3.950	3.986	4.631	3.177	1.075	6.079	6.018	-6.677	-1.433	-3.041	-5.387	0.141	0.324	3.297	3.121	-0.742	1.640	-2.085	-0.991	-0.998	2.040	488.281
-8.684	-1.364	-3.591	0.941	5.349	2.851	6.834	4.063	4.149	4.746	3.408	1.339	5.968	5.824	-6.952	-1.744	-3.417	-5.586	-0.146	0.030	3.094	2.968	-0.810	1.732	-1.816	-0.503	-0.789	2.308	492.188
-8.860	-1.614	-3.567	0.918	5.255	2.942	6.768	4.140	4.306	4.806	3.567	1.551	5.813	5.596	-7.121	-2.095	-3.774	-5.722	-0.471	-0.333	2.859	2.856	-0.800	1.839	-1.483	0.008	-0.577	2.537	496.094
-8.943	-1.888	-3.527	0.881	5.105	2.971	6.635	4.168	4.441	4.806	3.655	1.708	5.624	5.346	-7.174	-2.471	-4.084	-5.774	-0.788	-0.744	2.603	2.811	-0.697	1.959	-1.098	0.527	-0.366	2.730	500.000
-8.954	-2.190	-3.492	0.814	4.902	2.930	6.442	4.139	4.542	4.753	3.681	1.806	5.415	5.096	-7.114	-2.850	-4.318	-5.730	-1.051	-1.166	2.346	2.848	-0.501	2.091	-0.681	1.031	-0.169	2.886	503.906
-8.921	-2.515	-3.480	0.705	4.661	2.820	6.208	4.053	4.605	4.661	3.658	1.849	5.203	4.873	-6.960	-3.203	-4.452	-5.592	-1.218	-1.558	2.114	2.970	-0.228	2.229	-0.262	1.492	0.001	3.003	507.812
-8.873	-2.850	-3.508	0.552	4.403	2.649	5.957	3.917	4.633	4.555	3.602	1.844	5.007	4.703	-6.741	-3.500	-4.470	-5.376	-1.263	-1.880	1.941	3.169	0.092	2.365	0.123	1.880	0.125	3.074	511.719
-8.833	-3.172	-3.580	0.363	4.156	2.435	5.716	3.742	4.632	4.457	3.529	1.801	4.840	4.605	-6.491	-3.711	-4.366	-5.108	-1.176	-2.097	1.857	3.419	0.417	2.483	0.438	2.167	0.187	3.089	515.625
-8.806	-3.455	-3.690	0.157	3.947	2.202	5.509	3.538	4.609	4.382	3.450	1.732	4.711	4.589	-6.237	-3.815	-4.149	-4.825	-0.968	-2.187	1.885	3.689	0.705	2.567	0.650	2.328	0.174	3.038	519.531
-8.785	-3.666	-3.818	-0.039	3.801	1.975	5.354	3.318	4.568	4.340	3.372	1.645	4.621	4.649	-6.000	-3.804	-3.844	-4.563	-0.667	-2.142	2.032	3.945	0.916	2.601	0.735	2.346	0.076	2.914	523.438
-8.750	-3.776	-3.932	-0.195	3.736	1.784	5.260	3.093	4.511	4.325	3.295	1.545	4.565	4.768	-5.786	-3.683	-3.484	-4.354	-0.314	-1.971	2.288	4.152	1.025	2.569	0.682	2.216	-0.105	2.716	527.344
-8.670	-3.762	-3.993	-0.283	3.758	1.654	5.225	2.872	4.439	4.325	3.216	1.432	4.532	4.919	-5.587	-3.472	-3.115	-4.217	0.043	-1.703	2.625	4.286	1.023	2.462	0.493	1.946	-0.361	2.451	531.250
-8.519	-3.616	-3.967	-0.282	3.864	1.604	5.241	2.665	4.351	4.324	3.128	1.307	4.505	5.069	-5.385	-3.203	-2.778	-4.154	0.359	-1.377	2.998	4.330	0.916	2.278	0.183	1.556	-0.676	2.132	535.156
-8.277	-3.343	-3.825	-0.183	4.041	1.645	5.289	2.481	4.247	4.303	3.023	1.166	4.469	5.184	-5.162	-2.913	-2.507	-4.151	0.598	-1.038	3.355	4.278	0.722	2.021	-0.219	1.077	-1.025	1.782	539.062
-7.935	-2.964	-3.557	0.010	4.268	1.774	5.348	2.328	4.126	4.246	2.893	1.008	4.408	5.237	-4.900	-2.633	-2.320	-4.177	0.736	-0.729	3.645	4.134	0.471	1.703	-0.677	0.546	-1.386	1.423	542.969
-7.502	-2.507	-3.171	0.284	4.521	1.982	5.395	2.209	3.986	4.144	2.732	0.830	4.309	5.210	-4.594	-2.382	-2.214	-4.198	0.772	-0.478	3.830	3.913	0.190	1.338	-1.150	0.004	-1.735	1.077	546.875
-6.998	-2.008	-2.696	0.618	4.774	2.248	5.407	2.125	3.827	3.988	2.531	0.632	4.167	5.103	-4.248	-2.165	-2.171	-4.177	0.721	-0.295	3.891	3.641	-0.094	0.946	-1.604	-0.517	-2.058	0.758	550.781
-6.452	-1.501	-2.173	0.982	5.006	2.544	5.368	2.076	3.651	3.779	2.287	0.414	3.979	4.926	-3.877	-1.973	-2.155	-4.086	0.615	-0.174	3.833	3.350	-0.358	0.544	-2.010	-0.992	-2.345	0.472	554.688
-5.897	-1.017	-1.653	1.347	5.202	2.840	5.270	2.053	3.459	3.519	1.994	0.173	3.753	4.705	-3.499	-1.790	-2.127	-3.908	0.497	-0.090	3.682	3.077	-0.588	0.155	-2.350	-1.411	-2.597	0.216	558.594
-5.361	-0.579	-1.183	1.684	5.348	3.107	5.109	2.049	3.255	3.215	1.651	-0.094	3.500	4.470	-3.128	-1.593	-2.046	-3.643	0.410	-0.012	3.478	2.859	-0.773	-0.205	-2.620	-1.774	-2.821	-0.021	562.500
-4.865	-0.202	-0.798	1.969	5.439	3.319	4.891	2.048	3.038	2.873	1.257	-0.391	3.233	4.251	-2.769	-1.363	-1.882	-3.303	0.389	0.089	3.268	2.725	-0.907	-0.520	-2.823	-2.092	-3.030	-0.255	566.406
-4.414	0.113	-0.513	2.189	5.473	3.460	4.623	2.034	2.806	2.500	0.815	-0.722	2.965	4.072	-2.413	-1.088	-1.618	-2.912	0.459	0.238	3.092	2.691	-0.987	-0.783	-2.970	-2.378	-3.238	-0.501	570.312
-4.002	0.373	-0.322	2.339	5.455	3.523	4.316	1.986	2.549	2.100	0.330	-1.090	2.702	3.941	-2.043	-0.764	-1.255	-2.501	0.622	0.446	2.978	2.756	-1.011	-0.996	-3.070	-2.647	-3.460	-0.772	574.219
-3.610	0.595	-0.201	2.427	5.393	3.513	3.979	1.887	2.256	1.675	-0.191	-1.494	2.446	3.856	-1.636	-0.396	-0.810	-2.102	0.869	0.712	2.936	2.906	-0.980	-1.166	-3.134	-2.907	-3.707	-1.074	578.125
-3.218	0.794	-0.117	2.469	5.300	3.442	3.621	1.724	1.917	1.229	-0.737	-1.926	2.194	3.803	-1.177	0.006	-0.310	-1.741	1.176	1.022	2.963	3.116	-0.897	-1.307	-3.167	-3.162	-3.983	-1.409	582.031
-2.811	0.986	-0.042	2.482	5.194	3.329	3.251	1.496	1.526	0.766	-1.296	-2.372	1.944	3.763	-0.666	0.423	0.214	-1.438	1.516	1.358	3.045	3.358	-0.765	-1.429	-3.170	-3.407	-4.284	-1.768	585.938
-2.386	1.176	0.043	2.483	5.089	3.189	2.881	1.215	1.092	0.298	-1.852	-2.813	1.693	3.721	-0.120	0.837	0.730	-1.197	1.863	1.696	3.163	3.609	-0.589	-1.541	-3.146	-3.633	-4.598	-2.135	589.844
-1.959	1.360	0.139	2.483	5.003	3.040	2.527	0.904	0.633	-0.160	-2.389	-3.227	1.447	3.666	0.423	1.226	1.209	-1.012	2.197	2.011	3.299	3.853	-0.374	-1.644	-3.096	-3.830	-4.908	-2.493	593.750
-1.553	1.530	0.232	2.486	4.945	2.894	2.205	0.597	0.180	-0.585	-2.886	-3.589	1.214	3.596	0.918	1.572	1.631	-0.869	2.506	2.283	3.434	4.084	-0.125	-1.732	-3.025	-3.989	-5.191	-2.821	597.656
-1.196	1.671	0.307	2.487	4.916	2.761	1.934	0.326	-0.233	-0.953	-3.323	-3.878	1.010	3.515	1.320	1.856	1.977	-0.749	2.782	2.489	3.552	4.301	0.147	-1.796	-2.942	-4.108	-5.430	-3.100	601.562
-0.909	1.775	0.348	2.477	4.913	2.650	1.728	0.118	-0.571	-1.241	-3.683	-4.081	0.850	3.433	1.598	2.066	2.234	-0.637	3.015	2.615	3.641	4.505	0.429	-1.827	-2.855	-4.190	-5.609	-3.314	605.469
-0.699	1.837	0.353	2.445	4.924	2.567	1.595	-0.010	-0.810	-1.432	-3.949	-4.186	0.747	3.358	1.741	2.191	2.390	-0.526	3.197	2.648	3.688	4.690	0.702	-1.820	-2.773	-4.239	-5.720	-3.453	609.375
-0.557	1.863	0.333	2.384	4.933	2.515	1.536	-0.054	-0.934	-1.516	-4.111	-4.195	0.711	3.298	1.761	2.231	2.433	-0.417	3.311	2.585	3.684	4.844	0.948	-1.776	-2.703	-4.267	-5.763	-3.514	613.281
-0.461	1.862	0.307	2.293	4.925	2.496	1.540	-0.025	-0.941	-1.493	-4.167	-4.115	0.738	3.254	1.685	2.188	2.355	-0.325	3.342	2.431	3.624	4.952	1.146	-1.701	-2.648	-4.279	-5.746	-3.496	617.188
-0.385	1.847	0.300	2.181	4.892	2.510	1.593	0.059	-0.844	-1.373	-4.121	-3.957	0.820	3.222	1.550	2.071	2.156	-0.269	3.277	2.205	3.510	4.993	1.281	-1.608	-2.605	-4.282	-5.680	-3.408	621.094
-0.307	1.827	0.328	2.062	4.828	2.550	1.676	0.179	-0.664	-1.173	-3.986	-3.742	0.938	3.197	1.390	1.898	1.845	-0.266	3.108	1.933	3.352	4.951	1.345	-1.512	-2.570	-4.276	-5.580	-3.261	625.000
-0.213	1.809	0.397	1.952	4.736	2.606	1.772	0.313	-0.431	-0.919	-3.783	-3.493	1.068	3.174	1.237	1.687	1.445	-0.322	2.845	1.650	3.167	4.822	1.341	-1.430	-2.538	-4.263	-5.463	-3.073	628.906
-0.103	1.794	0.501	1.867	4.625	2.666	1.866	0.447	-0.180	-0.638	-3.538	-3.236	1.190	3.149	1.111	1.459	0.990	-0.429	2.508	1.391	2.981	4.612	1.279	-1.374	-2.508	-4.241	-5.344	-2.863	632.812
0.014	1.777	0.622	1.816	4.504	2.718	1.945	0.570	0.055	-0.362	-3.282	-2.999	1.283	3.124	1.026	1.236	0.525	-0.565	2.132	1.188	2.821	4.342	1.180	-1.351	-2.479	-4.214	-5.235	-2.653	636.719
0.120	1.751	0.739	1.799	4.385	2.751	2.004	0.674	0.242	-0.117	-3.046	-2.807	1.337	3.104	0.988	1.035	0.097	-0.694	1.759	1.062	2.710	4.044	1.066	-1.361	-2.457	-4.183	-5.144	-2.459	640.625
0.200	1.710	0.833	1.806	4.276	2.763	2.040	0.749	0.360	0.074	-2.855	-2.680	1.351	3.095	0.994	0.872	-0.250	-0.783	1.434	1.018	2.662	3.756	0.961	-1.400	-2.446	-4.153	-5.069	-2.293	644.531
0.241	1.649	0.888	1.820	4.182	2.755	2.051	0.790	0.398	0.197	-2.726	-2.626	1.328	3.103	1.035	0.754	-0.485	-0.803	1.193	1.047	2.678	3.514	0.880	-1.456	-2.452	-4.124	-5.005	-2.154	648.438
0.238	1.568	0.897	1.820	4.104	2.730	2.037	0.790	0.362	0.248	-2.665	-2.644	1.282	3.126	1.097	0.685	-0.590	-0.741	1.064	1.126	2.746	3.346	0.833	-1.511	-2.476	-4.093	-4.939	-2.035	652.344
0.193	1.469	0.864	1.783	4.037	2.696	2.001	0.747	0.267	0.236	-2.666	-2.722	1.226	3.159	1.164	0.662	-0.566	-0.600	1.058	1.227	2.845	3.268	0.821	-1.551	-2.514	-4.055	-4.859	-1.925	656.250
0.119	1.354	0.799	1.694	3.975	2.656	1.944	0.661	0.140	0.172	-2.718	-2.842	1.173	3.191	1.223	0.679	-0.427	-0.398	1.169	1.318	2.945	3.281	0.840	-1.560	-2.559	-4.002	-4.755	-1.811	660.156
0.033	1.231	0.721	1.546	3.911	2.614	1.869	0.539	0.008	0.072	-2.805	-2.981	1.129	3.208	1.270	0.730	-0.202	-0.160	1.378	1.376	3.020	3.371	0.880	-1.532	-2.601	-3.927	-4.629	-1.686	664.062
-0.044	1.107	0.649	1.344	3.839	2.567	1.777	0.392	-0.101	-0.048	-2.912	-3.116	1.100	3.197	1.310	0.805	0.078	0.082	1.651	1.386	3.046	3.513	0.933	-1.465	-2.627	-3.827	-4.489	-1.552	667.969
-0.092	0.988	0.600	1.100	3.750	2.510	1.672	0.232	-0.171	-0.177	-3.026	-3.229	1.084	3.149	1.353	0.896	0.380	0.303	1.950	1.342	3.011	3.678	0.989	-1.366	-2.626	-3.701	-4.350	-1.416	671.875
-0.096	0.880	0.583	0.834	3.640	2.435	1.557	0.074	-0.196	-0.312	-3.142	-3.307	1.078	3.064	1.413	0.995	0.677	0.483	2.234	1.248	2.916	3.835	1.046	-1.244	-2.590	-3.553	-4.230	-1.290	675.781
-0.045	0.786	0.601	0.565	3.504	2.335	1.432	-0.071	-0.181	-0.451	-3.258	-3.345	1.077	2.948	1.500	1.092	0.952	0.610	2.470	1.116	2.772	3.959	1.105	-1.113	-2.512	-3.389	-4.140	-1.186	679.688
0.065	0.707	0.644	0.313	3.341	2.202	1.296	-0.197	-0.144	-0.602	-3.383	-3.345	1.078	2.816	1.616	1.178	1.192	0.687	2.639	0.964	2.602	4.036	1.172	-0.982	-2.392	-3.217	-4.088	-1.113	683.594
0.232	0.642	0.698	0.094	3.151	2.033	1.146	-0.304	-0.106	-0.771	-3.526	-3.320	1.079	2.686	1.757	1.245	1.392	0.720	2.736	0.811	2.432	4.068	1.259	-0.859	-2.232	-3.044	-4.067	-1.077	687.500
0.443	0.589	0.748	-0.081	2.942	1.833	0.980	-0.397	-0.095	-0.961	-3.698	-3.284	1.080	2.576	1.915	1.284	1.549	0.723	2.769	0.673	2.288	4.068	1.380	-0.745	-2.038	-2.875	-4.065	-1.075	691.406
0.678	0.543	0.777	-0.207	2.725	1.608	0.799	-0.483	-0.130	-1.172	-3.905	-3.248	1.086	2.502	2.077	1.287	1.657	0.709	2.760	0.565	2.189	4.061	1.545	-0.636	-1.819	-2.712	-4.057	-1.098	695.312
0.906	0.500	0.773	-0.284	2.514	1.374	0.607	-0.570	-0.221	-1.392	-4.140	-3.219	1.103	2.474	2.229	1.246	1.711	0.684	2.730	0.495	2.142	4.072	1.755	-0.524	-1.584	-2.555	-4.017	-1.132	699.219
1.094	0.452	0.730	-0.314	2.325	1.148	0.418	-0.662	-0.363	-1.600	-4.383	-3.192	1.144	2.494	2.356	1.157	1.704	0.647	2.698	0.465	2.147	4.121	2.001	-0.397	-1.346	-2.400	-3.923	-1.156	703.125
1.210	0.392	0.645	-0.309	2.169	0.945	0.253	-0.759	-0.536	-1.766	-4.604	-3.151	1.217	2.556	2.446	1.022	1.630	0.595	2.670	0.467	2.192	4.217	2.264	-0.247	-1.116	-2.244	-3.756	-1.154	707.031
1.231	0.314	0.523	-0.280	2.051	0.779	0.132	-0.854	-0.708	-1.858	-4.764	-3.076	1.330	2.650	2.483	0.845	1.489	0.518	2.642	0.490	2.260	4.355	2.513	-0.068	-0.907	-2.086	-3.511	-1.108	710.938
1.151	0.212	0.376	-0.244	1.969	0.659	0.075	-0.936	-0.840	-1.849	-4.828	-2.948	1.484	2.758	2.459	0.639	1.291	0.412	2.601	0.519	2.331	4.512	2.717	0.135	-0.733	-1.927	-3.195	-1.011	714.844
0.982	0.090	0.215	-0.217	1.912	0.584	0.096	-0.992	-0.895	-1.724	-4.773	-2.756	1.668	2.861	2.368	0.421	1.049	0.279	2.532	0.535	2.387	4.662	2.851	0.351	-0.604	-1.776	-2.830	-0.867	718.750
0.756	-0.045	0.058	-0.209	1.866	0.548	0.193	-1.008	-0.848	-1.489	-4.596	-2.506	1.865	2.941	2.215	0.210	0.787	0.129	2.425	0.526	2.418	4.774	2.898	0.558	-0.530	-1.643	-2.449	-0.689	722.656
0.513	-0.179	-0.079	-0.228	1.816	0.540	0.353	-0.975	-0.692	-1.171	-4.314	-2.218	2.050	2.985	2.018	0.028	0.526	-0.024	2.281	0.485	2.420	4.827	2.861	0.734	-0.512	-1.543	-2.091	-0.499	726.562
0.296	-0.291	-0.182	-0.271	1.753	0.547	0.553	-0.891	-0.439	-0.816	-3.968	-1.928	2.199	2.987	1.802	-0.108	0.291	-0.162	2.114	0.411	2.394	4.809	2.754	0.855	-0.549	-1.489	-1.799	-0.323	730.469
0.141	-0.360	-0.240	-0.326	1.679	0.561	0.764	-0.763	-0.121	-0.481	-3.611	-1.678	2.291	2.948	1.598	-0.180	0.100	-0.275	1.947	0.316	2.352	4.726	2.602	0.907	-0.637	-1.491	-1.609	-0.189	734.375
0.070	-0.368	-0.243	-0.373	1.609	0.580	0.958	-0.601	0.220	-0.219	-3.298	-1.511	2.319	2.884	1.435	-0.182	-0.035	-0.358	1.805	0.217	2.307	4.592	2.432	0.888	-0.765	-1.555	-1.542	-0.117	738.281
0.084	-0.304	-0.192	-0.388	1.565	0.610	1.121	-0.421	0.538	-0.074	-3.077	-1.458	2.288	2.813	1.331	-0.110	-0.104	-0.418	1.713	0.134	2.274	4.432	2.269	0.808	-0.926	-1.680	-1.603	-0.118	742.188
0.166	-0.167	-0.089	-0.352	1.576	0.666	1.248	-0.236	0.796	-0.063	-2.979	-1.534	2.219	2.765	1.287	0.026	-0.107	-0.472	1.682	0.088	2.267	4.270	2.131	0.690	-1.108	-1.859	-1.780	-0.196	746.094
0.286	0.031	0.050	-0.250	1.663	0.764	1.349	-0.059	0.971	-0.181	-3.011	-1.735	2.140	2.761	1.287	0.211	-0.048	-0.533	1.713	0.092	2.297	4.126	2.024	0.564	-1.301	-2.078	-2.039	-0.338	750.000
0.406	0.269	0.209	-0.084	1.838	0.914	1.441	0.101	1.052	-0.397	-3.160	-2.035	2.079	2.820	1.305	0.424	0.060	-0.611	1.792	0.152	2.367	4.014	1.948	0.460	-1.490	-2.317	-2.337	-0.527	753.906
0.497	0.520	0.366	0.134	2.089	1.118	1.540	0.235	1.045	-0.667	-3.397	-2.398	2.059	2.945	1.308	0.639	0.198	-0.709	1.898	0.264	2.475	3.938	1.895	0.402	-1.661	-2.553	-2.624	-0.734	757.812
0.537	0.752	0.500	0.373	2.388	1.361	1.656	0.336	0.965	-0.941	-3.677	-2.773	2.090	3.122	1.273	0.832	0.341	-0.815	2.005	0.412	2.609	3.892	1.854	0.404	-1.794	-2.759	-2.852	-0.927	761.719
0.523	0.938	0.596	0.600	2.689	1.617	1.789	0.397	0.834	-1.175	-3.953	-3.112	2.168	3.323	1.187	0.983	0.460	-0.915	2.087	0.574	2.755	3.866	1.818	0.465	-1.871	-2.909	-2.984	-1.075	765.625
0.468	1.056	0.647	0.775	2.938	1.851	1.926	0.412	0.678	-1.339	-4.181	-3.370	2.276	3.510	1.050	1.076	0.530	-0.995	2.125	0.725	2.893	3.845	1.779	0.571	-1.876	-2.977	-3.001	-1.148	769.531
0.398	1.090	0.652	0.867	3.086	2.027	2.049	0.378	0.520	-1.418	-4.324	-3.513	2.385	3.640	0.872	1.106	0.528	-1.046	2.106	0.840	3.003	3.813	1.737	0.699	-1.799	-2.944	-2.897	-1.126	773.438
0.343	1.036	0.617	0.855	3.097	2.116	2.139	0.293	0.384	-1.417	-4.358	-3.520	2.469	3.676	0.662	1.072	0.443	-1.065	2.026	0.904	3.070	3.759	1.693	0.820	-1.636	-2.799	-2.687	-0.998	777.344
0.330	0.900	0.547	0.734	2.954	2.099	2.181	0.158	0.281	-1.353	-4.276	-3.390	2.501	3.596	0.430	0.982	0.272	-1.057	1.889	0.906	3.084	3.676	1.651	0.908	-1.391	-2.540	-2.395	-0.762	781.250
0.375	0.695	0.452	0.512	2.661	1.978	2.166	-0.023	0.219	-1.246	-4.086	-3.136	2.467	3.393	0.180	0.847	0.023	-1.027	1.702	0.848	3.043	3.562	1.616	0.947	-1.073	-2.177	-2.050	-0.427	785.156
0.483	0.439	0.337	0.209	2.243	1.764	2.098	-0.240	0.195	-1.121	-3.810	-2.783	2.367	3.079	-0.085	0.683	-0.289	-0.983	1.480	0.740	2.956	3.420	1.589	0.930	-0.700	-1.728	-1.679	-0.013	789.062
0.643	0.153	0.212	-0.145	1.738	1.486	1.988	-0.482	0.200	-0.994	-3.477	-2.367	2.211	2.683	-0.362	0.503	-0.642	-0.931	1.237	0.597	2.836	3.256	1.571	0.866	-0.290	-1.220	-1.304	0.455	792.969
0.836	-0.140	0.086	-0.521	1.194	1.177	1.856	-0.735	0.219	-0.879	-3.122	-1.928	2.022	2.245	-0.642	0.322	-1.013	-0.878	0.987	0.438	2.700	3.080	1.559	0.771	0.135	-0.686	-0.938	0.945	796.875
