FP1	F3	F7	FC3	C3	C5	P3	P7	PO7	PO3	O1	Oz	Pz	CPz	FP2	Fz	F4	F8	FC4	FCz	Cz	C4	C6	P4	P8	PO8	PO4	O2	time
-0.463	0.539	-1.387	0.437	0.137	-0.238	0.288	-1.206	-1.620	-1.238	-1.030	-0.510	1.863	2.401	-1.470	0.842	1.453	-0.286	0.791	0.912	2.232	1.416	0.535	1.453	0.379	-0.234	1.043	-0.167	-199.219
-0.106	0.499	-1.147	0.223	-0.087	-0.538	0.139	-1.441	-1.631	-1.210	-1.092	-0.640	1.795	2.271	-0.684	0.739	1.080	-0.163	0.582	0.693	2.049	1.306	0.604	1.368	0.436	-0.270	0.937	-0.251	-195.312
0.230	0.459	-0.913	0.012	-0.294	-0.802	-0.007	-1.624	-1.610	-1.172	-1.132	-0.761	1.709	2.133	0.030	0.633	0.746	-0.036	0.388	0.492	1.869	1.190	0.646	1.264	0.489	-0.301	0.812	-0.336	-191.406
0.517	0.418	-0.689	-0.189	-0.471	-0.999	-0.148	-1.718	-1.538	-1.119	-1.130	-0.856	1.588	1.977	0.612	0.518	0.473	0.098	0.219	0.320	1.690	1.064	0.643	1.128	0.537	-0.316	0.663	-0.414	-187.500
0.732	0.371	-0.487	-0.375	-0.608	-1.114	-0.283	-1.700	-1.400	-1.049	-1.072	-0.910	1.423	1.796	1.023	0.391	0.275	0.236	0.086	0.183	1.512	0.927	0.589	0.958	0.576	-0.306	0.493	-0.476	-183.594
0.855	0.313	-0.320	-0.539	-0.701	-1.143	-0.412	-1.567	-1.195	-0.967	-0.950	-0.913	1.214	1.589	1.246	0.252	0.154	0.374	-0.003	0.085	1.334	0.789	0.491	0.762	0.605	-0.264	0.319	-0.507	-179.688
0.871	0.239	-0.201	-0.676	-0.752	-1.094	-0.531	-1.334	-0.936	-0.878	-0.767	-0.858	0.969	1.356	1.289	0.103	0.100	0.502	-0.042	0.024	1.158	0.658	0.370	0.558	0.622	-0.188	0.163	-0.496	-175.781
0.779	0.146	-0.140	-0.780	-0.765	-0.988	-0.639	-1.033	-0.649	-0.792	-0.534	-0.743	0.704	1.106	1.179	-0.052	0.094	0.608	-0.035	-0.007	0.984	0.545	0.250	0.366	0.626	-0.082	0.051	-0.431	-171.875
0.593	0.034	-0.140	-0.847	-0.746	-0.845	-0.725	-0.706	-0.366	-0.711	-0.268	-0.573	0.439	0.848	0.959	-0.209	0.109	0.681	0.007	-0.018	0.809	0.454	0.152	0.205	0.618	0.048	0.000	-0.307	-167.969
0.339	-0.092	-0.190	-0.875	-0.700	-0.688	-0.779	-0.393	-0.123	-0.636	0.008	-0.356	0.195	0.594	0.678	-0.362	0.117	0.709	0.065	-0.024	0.632	0.382	0.089	0.084	0.599	0.187	0.021	-0.128	-164.062
0.056	-0.223	-0.271	-0.864	-0.632	-0.535	-0.785	-0.127	0.055	-0.562	0.271	-0.107	-0.011	0.357	0.385	-0.509	0.092	0.688	0.113	-0.037	0.454	0.321	0.066	0.006	0.571	0.316	0.109	0.091	-160.156
-0.212	-0.351	-0.356	-0.815	-0.545	-0.398	-0.731	0.075	0.155	-0.479	0.500	0.155	-0.164	0.150	0.124	-0.646	0.019	0.613	0.128	-0.070	0.278	0.263	0.076	-0.034	0.533	0.417	0.247	0.327	-156.250
-0.426	-0.468	-0.417	-0.733	-0.443	-0.281	-0.606	0.211	0.178	-0.378	0.679	0.407	-0.254	-0.015	-0.078	-0.772	-0.106	0.487	0.097	-0.128	0.114	0.201	0.108	-0.046	0.488	0.471	0.410	0.547	-152.344
-0.560	-0.567	-0.436	-0.626	-0.331	-0.185	-0.408	0.295	0.140	-0.249	0.798	0.628	-0.277	-0.125	-0.208	-0.881	-0.271	0.317	0.016	-0.210	-0.025	0.134	0.151	-0.038	0.437	0.466	0.566	0.720	-148.438
-0.606	-0.647	-0.406	-0.504	-0.213	-0.106	-0.148	0.346	0.066	-0.089	0.853	0.796	-0.232	-0.173	-0.276	-0.966	-0.455	0.116	-0.105	-0.307	-0.125	0.067	0.195	-0.018	0.384	0.399	0.689	0.820	-144.531
-0.576	-0.707	-0.335	-0.379	-0.098	-0.036	0.154	0.387	-0.017	0.100	0.847	0.895	-0.125	-0.156	-0.302	-1.022	-0.628	-0.097	-0.242	-0.405	-0.174	0.012	0.234	0.012	0.332	0.278	0.757	0.835	-140.625
-0.498	-0.743	-0.240	-0.256	0.005	0.029	0.468	0.431	-0.089	0.306	0.787	0.917	0.031	-0.077	-0.314	-1.039	-0.764	-0.300	-0.368	-0.484	-0.163	-0.020	0.264	0.057	0.288	0.124	0.760	0.763	-136.719
-0.407	-0.753	-0.146	-0.142	0.088	0.090	0.757	0.484	-0.139	0.511	0.682	0.860	0.219	0.054	-0.335	-1.012	-0.843	-0.469	-0.455	-0.529	-0.094	-0.020	0.286	0.118	0.258	-0.033	0.699	0.620	-132.812
-0.334	-0.731	-0.074	-0.032	0.145	0.146	0.989	0.536	-0.169	0.691	0.539	0.732	0.416	0.221	-0.382	-0.937	-0.853	-0.587	-0.484	-0.525	0.024	0.013	0.300	0.200	0.246	-0.162	0.586	0.431	-128.906
-0.301	-0.669	-0.035	0.078	0.177	0.194	1.138	0.575	-0.192	0.822	0.367	0.546	0.600	0.404	-0.453	-0.813	-0.798	-0.641	-0.448	-0.467	0.174	0.075	0.305	0.302	0.251	-0.238	0.440	0.226	-125.000
-0.311	-0.559	-0.031	0.201	0.189	0.230	1.190	0.582	-0.223	0.884	0.174	0.323	0.747	0.579	-0.536	-0.648	-0.686	-0.632	-0.354	-0.358	0.333	0.152	0.299	0.416	0.269	-0.246	0.282	0.033	-121.094
-0.355	-0.400	-0.047	0.343	0.191	0.254	1.149	0.548	-0.278	0.867	-0.030	0.086	0.839	0.723	-0.608	-0.450	-0.534	-0.570	-0.224	-0.208	0.476	0.227	0.278	0.528	0.288	-0.190	0.131	-0.128	-117.188
-0.409	-0.194	-0.062	0.509	0.195	0.271	1.032	0.473	-0.358	0.774	-0.231	-0.142	0.864	0.814	-0.643	-0.239	-0.360	-0.473	-0.084	-0.039	0.575	0.282	0.237	0.621	0.294	-0.092	0.003	-0.248	-113.281
-0.449	0.045	-0.057	0.694	0.213	0.288	0.866	0.371	-0.453	0.623	-0.414	-0.340	0.821	0.838	-0.628	-0.034	-0.181	-0.365	0.037	0.127	0.612	0.303	0.173	0.677	0.272	0.020	-0.094	-0.326	-109.375
-0.456	0.296	-0.016	0.883	0.252	0.317	0.684	0.263	-0.538	0.442	-0.561	-0.491	0.714	0.786	-0.562	0.143	-0.014	-0.271	0.115	0.265	0.571	0.284	0.089	0.681	0.214	0.114	-0.162	-0.372	-105.469
-0.423	0.531	0.063	1.054	0.311	0.367	0.515	0.176	-0.581	0.265	-0.653	-0.588	0.556	0.662	-0.462	0.273	0.127	-0.209	0.142	0.355	0.452	0.228	-0.008	0.627	0.122	0.165	-0.205	-0.394	-101.562
-0.353	0.720	0.170	1.180	0.382	0.443	0.382	0.135	-0.551	0.124	-0.676	-0.627	0.366	0.478	-0.360	0.344	0.228	-0.191	0.122	0.385	0.264	0.145	-0.103	0.517	0.003	0.164	-0.235	-0.404	-97.656
-0.263	0.834	0.287	1.235	0.455	0.546	0.298	0.155	-0.426	0.046	-0.621	-0.613	0.164	0.252	-0.289	0.352	0.282	-0.219	0.069	0.354	0.024	0.050	-0.184	0.359	-0.126	0.113	-0.263	-0.407	-93.750
-0.173	0.854	0.393	1.202	0.517	0.668	0.265	0.238	-0.202	0.043	-0.489	-0.554	-0.029	0.010	-0.273	0.302	0.283	-0.281	0.004	0.267	-0.241	-0.043	-0.236	0.171	-0.245	0.029	-0.297	-0.403	-89.844
-0.105	0.776	0.471	1.077	0.558	0.800	0.277	0.374	0.104	0.112	-0.294	-0.462	-0.194	-0.221	-0.324	0.209	0.231	-0.357	-0.054	0.140	-0.504	-0.120	-0.250	-0.025	-0.338	-0.069	-0.345	-0.391	-85.938
-0.075	0.609	0.510	0.873	0.575	0.929	0.319	0.543	0.455	0.238	-0.060	-0.350	-0.319	-0.418	-0.431	0.089	0.129	-0.422	-0.092	-0.007	-0.739	-0.174	-0.222	-0.209	-0.394	-0.160	-0.404	-0.366	-82.031
-0.086	0.382	0.509	0.616	0.571	1.041	0.372	0.716	0.803	0.394	0.181	-0.233	-0.399	-0.567	-0.564	-0.040	-0.015	-0.452	-0.106	-0.157	-0.926	-0.204	-0.157	-0.362	-0.410	-0.229	-0.471	-0.326	-78.125
-0.132	0.130	0.479	0.340	0.554	1.124	0.420	0.867	1.094	0.545	0.393	-0.120	-0.437	-0.662	-0.686	-0.161	-0.189	-0.430	-0.103	-0.292	-1.054	-0.214	-0.065	-0.473	-0.391	-0.268	-0.537	-0.267	-74.219
-0.195	-0.104	0.432	0.082	0.534	1.172	0.445	0.972	1.286	0.660	0.545	-0.023	-0.442	-0.710	-0.760	-0.262	-0.375	-0.351	-0.097	-0.399	-1.120	-0.213	0.038	-0.540	-0.350	-0.276	-0.591	-0.192	-70.312
-0.253	-0.283	0.387	-0.128	0.521	1.177	0.435	1.013	1.353	0.715	0.616	0.052	-0.434	-0.727	-0.759	-0.334	-0.552	-0.225	-0.100	-0.472	-1.129	-0.215	0.135	-0.570	-0.302	-0.257	-0.628	-0.105	-66.406
-0.280	-0.385	0.357	-0.272	0.517	1.137	0.380	0.986	1.292	0.697	0.600	0.104	-0.430	-0.734	-0.672	-0.373	-0.697	-0.070	-0.123	-0.509	-1.094	-0.231	0.212	-0.575	-0.263	-0.220	-0.643	-0.014	-62.500
-0.258	-0.401	0.349	-0.345	0.520	1.053	0.281	0.893	1.125	0.608	0.508	0.133	-0.451	-0.753	-0.505	-0.376	-0.785	0.090	-0.166	-0.511	-1.030	-0.271	0.257	-0.574	-0.247	-0.176	-0.638	0.069	-58.594
-0.181	-0.341	0.367	-0.359	0.523	0.927	0.142	0.751	0.893	0.464	0.363	0.145	-0.511	-0.801	-0.274	-0.342	-0.798	0.234	-0.221	-0.483	-0.952	-0.342	0.262	-0.583	-0.264	-0.134	-0.621	0.132	-54.688
-0.056	-0.231	0.404	-0.332	0.516	0.763	-0.027	0.578	0.645	0.288	0.197	0.147	-0.613	-0.887	-0.008	-0.272	-0.725	0.349	-0.274	-0.430	-0.874	-0.444	0.222	-0.618	-0.314	-0.101	-0.599	0.165	-50.781
0.099	-0.102	0.450	-0.286	0.488	0.570	-0.208	0.399	0.431	0.113	0.043	0.148	-0.753	-1.009	0.266	-0.169	-0.570	0.432	-0.308	-0.355	-0.808	-0.572	0.137	-0.681	-0.392	-0.077	-0.579	0.167	-46.875
0.255	0.017	0.493	-0.240	0.432	0.358	-0.384	0.233	0.286	-0.035	-0.071	0.157	-0.914	-1.153	0.516	-0.037	-0.349	0.482	-0.310	-0.263	-0.761	-0.714	0.008	-0.769	-0.486	-0.058	-0.563	0.142	-42.969
0.385	0.103	0.519	-0.207	0.345	0.138	-0.536	0.095	0.226	-0.134	-0.128	0.182	-1.075	-1.300	0.717	0.117	-0.087	0.500	-0.274	-0.155	-0.733	-0.853	-0.158	-0.867	-0.580	-0.037	-0.545	0.103	-39.062
0.468	0.149	0.518	-0.187	0.229	-0.078	-0.653	-0.011	0.241	-0.174	-0.121	0.228	-1.211	-1.424	0.849	0.287	0.185	0.486	-0.199	-0.033	-0.720	-0.971	-0.351	-0.956	-0.656	-0.004	-0.518	0.067	-35.156
0.496	0.158	0.485	-0.176	0.092	-0.277	-0.730	-0.091	0.306	-0.160	-0.059	0.293	-1.302	-1.505	0.904	0.466	0.440	0.435	-0.092	0.101	-0.714	-1.050	-0.556	-1.016	-0.705	0.046	-0.476	0.051	-31.250
0.475	0.146	0.422	-0.161	-0.057	-0.449	-0.768	-0.157	0.385	-0.106	0.038	0.371	-1.339	-1.529	0.885	0.647	0.658	0.345	0.039	0.242	-0.707	-1.075	-0.752	-1.033	-0.718	0.112	-0.416	0.062	-27.344
0.427	0.128	0.341	-0.132	-0.205	-0.587	-0.777	-0.223	0.444	-0.034	0.143	0.450	-1.323	-1.494	0.810	0.822	0.828	0.219	0.179	0.382	-0.694	-1.039	-0.918	-0.999	-0.698	0.187	-0.345	0.101	-23.438
0.376	0.120	0.257	-0.085	-0.340	-0.682	-0.765	-0.295	0.466	0.033	0.230	0.513	-1.266	-1.409	0.707	0.978	0.943	0.068	0.315	0.508	-0.676	-0.944	-1.032	-0.916	-0.650	0.263	-0.275	0.153	-19.531
0.347	0.123	0.190	-0.022	-0.452	-0.731	-0.740	-0.374	0.447	0.081	0.276	0.543	-1.187	-1.292	0.605	1.102	1.000	-0.087	0.431	0.602	-0.660	-0.800	-1.081	-0.795	-0.581	0.327	-0.219	0.201	-15.625
0.354	0.129	0.157	0.045	-0.533	-0.732	-0.703	-0.448	0.408	0.105	0.272	0.529	-1.108	-1.170	0.534	1.174	0.995	-0.222	0.513	0.648	-0.661	-0.627	-1.062	-0.652	-0.498	0.374	-0.192	0.222	-11.719
0.402	0.123	0.171	0.100	-0.578	-0.686	-0.653	-0.497	0.381	0.113	0.224	0.471	-1.045	-1.068	0.509	1.176	0.925	-0.313	0.544	0.626	-0.693	-0.448	-0.983	-0.507	-0.405	0.400	-0.199	0.204	-7.812
0.481	0.084	0.233	0.125	-0.585	-0.599	-0.583	-0.500	0.402	0.123	0.154	0.380	-1.010	-1.010	0.529	1.096	0.785	-0.347	0.513	0.526	-0.770	-0.288	-0.863	-0.376	-0.306	0.408	-0.239	0.142	-3.906
0.570	-0.005	0.334	0.107	-0.558	-0.477	-0.486	-0.439	0.504	0.157	0.092	0.277	-1.007	-1.011	0.579	0.927	0.579	-0.320	0.414	0.346	-0.900	-0.170	-0.729	-0.277	-0.201	0.403	-0.302	0.045	0.000
0.645	-0.149	0.453	0.039	-0.504	-0.336	-0.362	-0.311	0.703	0.234	0.070	0.190	-1.029	-1.076	0.631	0.678	0.320	-0.241	0.251	0.095	-1.081	-0.107	-0.607	-0.219	-0.098	0.392	-0.375	-0.068	3.906
0.684	-0.344	0.563	-0.076	-0.434	-0.190	-0.213	-0.123	0.998	0.367	0.117	0.144	-1.069	-1.198	0.658	0.366	0.030	-0.129	0.038	-0.209	-1.297	-0.103	-0.521	-0.209	-0.003	0.378	-0.443	-0.175	7.812
0.668	-0.574	0.638	-0.225	-0.360	-0.058	-0.048	0.100	1.368	0.557	0.244	0.160	-1.111	-1.362	0.640	0.024	-0.255	-0.003	-0.199	-0.535	-1.527	-0.154	-0.484	-0.248	0.070	0.363	-0.492	-0.253	11.719
0.590	-0.813	0.658	-0.392	-0.297	0.042	0.122	0.325	1.774	0.792	0.447	0.241	-1.145	-1.544	0.569	-0.312	-0.498	0.118	-0.428	-0.853	-1.738	-0.245	-0.501	-0.333	0.108	0.344	-0.515	-0.288	15.625
0.455	-1.033	0.615	-0.555	-0.253	0.099	0.282	0.517	2.167	1.052	0.707	0.381	-1.159	-1.716	0.454	-0.603	-0.666	0.221	-0.614	-1.128	-1.897	-0.358	-0.566	-0.457	0.098	0.317	-0.511	-0.275	19.531
0.279	-1.206	0.512	-0.693	-0.234	0.103	0.420	0.642	2.496	1.307	0.989	0.558	-1.144	-1.851	0.312	-0.816	-0.734	0.299	-0.729	-1.331	-1.976	-0.475	-0.665	-0.606	0.033	0.279	-0.482	-0.219	23.438
0.088	-1.310	0.368	-0.787	-0.239	0.054	0.527	0.676	2.717	1.525	1.254	0.743	-1.100	-1.926	0.171	-0.926	-0.696	0.349	-0.752	-1.441	-1.954	-0.578	-0.779	-0.766	-0.085	0.227	-0.431	-0.136	27.344
-0.087	-1.327	0.209	-0.824	-0.262	-0.042	0.595	0.608	2.797	1.676	1.460	0.903	-1.026	-1.928	0.058	-0.920	-0.562	0.370	-0.680	-1.445	-1.827	-0.655	-0.890	-0.921	-0.245	0.162	-0.362	-0.047	31.250
-0.216	-1.250	0.064	-0.795	-0.291	-0.172	0.620	0.440	2.725	1.737	1.575	1.004	-0.928	-1.855	-0.001	-0.798	-0.357	0.363	-0.524	-1.341	-1.605	-0.701	-0.981	-1.051	-0.430	0.089	-0.277	0.026	35.156
-0.273	-1.081	-0.037	-0.700	-0.311	-0.317	0.602	0.189	2.508	1.695	1.578	1.020	-0.812	-1.714	0.011	-0.573	-0.117	0.328	-0.308	-1.137	-1.309	-0.713	-1.043	-1.143	-0.617	0.015	-0.178	0.062	39.062
-0.248	-0.829	-0.075	-0.544	-0.308	-0.455	0.542	-0.120	2.176	1.549	1.461	0.932	-0.688	-1.522	0.097	-0.265	0.120	0.264	-0.061	-0.849	-0.970	-0.693	-1.071	-1.184	-0.784	-0.057	-0.068	0.046	42.969
-0.147	-0.509	-0.043	-0.337	-0.270	-0.567	0.445	-0.456	1.766	1.313	1.229	0.728	-0.561	-1.297	0.246	0.099	0.322	0.174	0.187	-0.498	-0.618	-0.646	-1.066	-1.166	-0.911	-0.118	0.050	-0.033	46.875
0.011	-0.144	0.050	-0.095	-0.192	-0.632	0.319	-0.787	1.327	1.011	0.900	0.405	-0.439	-1.060	0.434	0.491	0.467	0.062	0.414	-0.109	-0.279	-0.575	-1.030	-1.090	-0.983	-0.166	0.171	-0.177	50.781
0.192	0.240	0.184	0.163	-0.070	-0.641	0.179	-1.081	0.905	0.676	0.496	-0.033	-0.326	-0.833	0.623	0.882	0.548	-0.060	0.606	0.292	0.029	-0.485	-0.968	-0.958	-0.991	-0.195	0.293	-0.386	54.688
0.354	0.612	0.328	0.417	0.090	-0.589	0.040	-1.309	0.543	0.347	0.045	-0.579	-0.226	-0.629	0.769	1.245	0.570	-0.179	0.760	0.679	0.297	-0.377	-0.882	-0.779	-0.936	-0.201	0.414	-0.656	58.594
0.458	0.941	0.452	0.650	0.278	-0.482	-0.077	-1.451	0.277	0.064	-0.425	-1.221	-0.143	-0.464	0.833	1.555	0.550	-0.274	0.882	1.027	0.522	-0.256	-0.776	-0.567	-0.821	-0.178	0.534	-0.984	62.500
0.469	1.202	0.530	0.847	0.482	-0.332	-0.152	-1.491	0.137	-0.136	-0.887	-1.946	-0.081	-0.343	0.789	1.796	0.508	-0.326	0.981	1.317	0.705	-0.122	-0.655	-0.336	-0.660	-0.124	0.653	-1.370	66.406
0.373	1.378	0.549	0.998	0.684	-0.155	-0.165	-1.424	0.140	-0.227	-1.316	-2.740	-0.042	-0.273	0.630	1.955	0.466	-0.322	1.069	1.534	0.845	0.020	-0.522	-0.104	-0.468	-0.044	0.763	-1.822	70.312
0.173	1.468	0.512	1.104	0.871	0.031	-0.106	-1.251	0.291	-0.197	-1.696	-3.588	-0.031	-0.252	0.377	2.029	0.443	-0.251	1.156	1.670	0.943	0.167	-0.382	0.111	-0.271	0.046	0.849	-2.350	74.219
-0.105	1.485	0.438	1.171	1.033	0.213	0.027	-0.985	0.582	-0.054	-2.017	-4.473	-0.050	-0.274	0.072	2.028	0.451	-0.117	1.251	1.732	1.000	0.317	-0.242	0.288	-0.093	0.120	0.882	-2.967	78.125
-0.415	1.455	0.353	1.213	1.168	0.383	0.227	-0.648	0.986	0.173	-2.279	-5.373	-0.096	-0.324	-0.226	1.969	0.496	0.070	1.359	1.732	1.023	0.466	-0.104	0.412	0.037	0.142	0.831	-3.684	82.031
-0.706	1.411	0.288	1.247	1.279	0.538	0.477	-0.270	1.462	0.441	-2.489	-6.256	-0.162	-0.385	-0.456	1.879	0.579	0.291	1.481	1.697	1.022	0.613	0.033	0.470	0.097	0.071	0.664	-4.496	85.938
-0.927	1.385	0.264	1.289	1.380	0.677	0.756	0.110	1.958	0.701	-2.658	-7.080	-0.231	-0.432	-0.572	1.785	0.692	0.520	1.618	1.656	1.011	0.761	0.168	0.458	0.069	-0.125	0.362	-5.379	89.844
-1.044	1.398	0.288	1.350	1.484	0.803	1.042	0.457	2.415	0.908	-2.794	-7.790	-0.281	-0.441	-0.553	1.711	0.819	0.730	1.765	1.637	1.008	0.911	0.305	0.384	-0.051	-0.467	-0.073	-6.287	93.750
-1.045	1.456	0.351	1.430	1.604	0.919	1.315	0.736	2.780	1.035	-2.898	-8.328	-0.284	-0.389	-0.405	1.675	0.938	0.897	1.917	1.661	1.031	1.064	0.441	0.265	-0.261	-0.953	-0.613	-7.152	97.656
-0.940	1.549	0.432	1.523	1.749	1.023	1.565	0.923	3.015	1.074	-2.964	-8.638	-0.213	-0.261	-0.165	1.679	1.028	1.007	2.064	1.735	1.089	1.219	0.575	0.130	-0.544	-1.560	-1.207	-7.898	101.562
-0.759	1.657	0.503	1.611	1.920	1.114	1.786	1.006	3.098	1.045	-2.979	-8.678	-0.048	-0.051	0.114	1.718	1.072	1.050	2.199	1.855	1.187	1.372	0.697	0.007	-0.882	-2.248	-1.788	-8.452	105.469
-0.542	1.756	0.537	1.677	2.111	1.189	1.980	0.986	3.030	0.981	-2.927	-8.430	0.218	0.235	0.380	1.782	1.064	1.033	2.316	2.004	1.320	1.516	0.798	-0.077	-1.261	-2.971	-2.292	-8.760	109.375
-0.328	1.829	0.520	1.710	2.312	1.247	2.153	0.874	2.828	0.924	-2.793	-7.907	0.579	0.583	0.589	1.859	1.015	0.970	2.413	2.164	1.478	1.643	0.868	-0.107	-1.676	-3.688	-2.672	-8.804	113.281
-0.146	1.872	0.452	1.710	2.515	1.291	2.315	0.687	2.518	0.913	-2.572	-7.157	1.014	0.976	0.720	1.944	0.953	0.883	2.496	2.320	1.653	1.748	0.899	-0.083	-2.135	-4.373	-2.904	-8.604	117.188
-0.009	1.893	0.349	1.693	2.718	1.329	2.474	0.443	2.126	0.970	-2.268	-6.255	1.492	1.394	0.779	2.041	0.909	0.798	2.577	2.468	1.843	1.827	0.890	-0.019	-2.659	-5.019	-2.995	-8.218	121.094
0.083	1.912	0.236	1.683	2.921	1.372	2.635	0.154	1.675	1.100	-1.902	-5.292	1.978	1.821	0.791	2.159	0.916	0.741	2.669	2.617	2.053	1.882	0.846	0.060	-3.270	-5.632	-2.973	-7.728	125.000
0.145	1.954	0.142	1.714	3.127	1.430	2.798	-0.173	1.178	1.286	-1.502	-4.361	2.436	2.242	0.795	2.315	0.991	0.727	2.785	2.785	2.293	1.918	0.774	0.126	-3.985	-6.221	-2.881	-7.219	128.906
0.194	2.038	0.092	1.809	3.339	1.504	2.954	-0.538	0.647	1.496	-1.102	-3.540	2.835	2.647	0.829	2.520	1.135	0.764	2.932	2.991	2.574	1.942	0.687	0.154	-4.796	-6.786	-2.758	-6.763	132.812
0.247	2.171	0.097	1.978	3.550	1.587	3.085	-0.944	0.089	1.688	-0.729	-2.877	3.153	3.024	0.918	2.775	1.332	0.848	3.108	3.249	2.901	1.963	0.596	0.130	-5.673	-7.306	-2.633	-6.399	136.719
0.309	2.347	0.149	2.209	3.747	1.661	3.168	-1.390	-0.479	1.826	-0.398	-2.383	3.373	3.360	1.066	3.069	1.552	0.963	3.301	3.556	3.268	1.985	0.509	0.054	-6.555	-7.740	-2.515	-6.126	140.625
0.372	2.545	0.227	2.467	3.903	1.703	3.181	-1.871	-1.031	1.881	-0.111	-2.035	3.486	3.632	1.254	3.372	1.757	1.091	3.490	3.893	3.649	2.009	0.430	-0.062	-7.364	-8.027	-2.396	-5.912	144.531
0.418	2.732	0.300	2.702	3.990	1.684	3.104	-2.366	-1.529	1.844	0.150	-1.785	3.488	3.815	1.445	3.645	1.915	1.213	3.646	4.219	4.006	2.028	0.358	-0.199	-8.013	-8.105	-2.254	-5.698	148.438
0.419	2.875	0.336	2.858	3.977	1.587	2.929	-2.846	-1.925	1.727	0.412	-1.571	3.379	3.877	1.588	3.841	1.995	1.318	3.740	4.479	4.286	2.029	0.285	-0.333	-8.424	-7.916	-2.064	-5.419	152.344
0.347	2.942	0.308	2.888	3.839	1.404	2.661	-3.273	-2.169	1.559	0.709	-1.333	3.161	3.785	1.638	3.918	1.981	1.397	3.743	4.614	4.435	1.990	0.198	-0.448	-8.541	-7.426	-1.808	-5.021	156.250
0.179	2.910	0.209	2.762	3.564	1.143	2.317	-3.606	-2.213	1.382	1.071	-1.024	2.837	3.511	1.560	3.842	1.866	1.450	3.634	4.573	4.403	1.888	0.085	-0.535	-8.339	-6.632	-1.476	-4.469	160.156
-0.097	2.769	0.045	2.475	3.156	0.829	1.924	-3.804	-2.024	1.236	1.521	-0.621	2.412	3.039	1.339	3.597	1.653	1.475	3.399	4.320	4.154	1.699	-0.067	-0.596	-7.827	-5.560	-1.076	-3.758	164.062
-0.474	2.519	-0.159	2.048	2.635	0.494	1.512	-3.836	-1.586	1.157	2.066	-0.121	1.890	2.366	0.978	3.183	1.352	1.468	3.040	3.841	3.671	1.404	-0.264	-0.640	-7.042	-4.263	-0.628	-2.909	167.969
-0.934	2.170	-0.368	1.517	2.031	0.175	1.110	-3.684	-0.906	1.166	2.698	0.454	1.281	1.508	0.500	2.616	0.977	1.422	2.567	3.147	2.963	0.997	-0.506	-0.681	-6.041	-2.810	-0.161	-1.967	171.875
-1.446	1.739	-0.549	0.928	1.381	-0.098	0.743	-3.343	-0.017	1.268	3.392	1.069	0.598	0.496	-0.063	1.926	0.540	1.329	2.001	2.275	2.061	0.482	-0.784	-0.733	-4.894	-1.274	0.293	-0.987	175.781
-1.972	1.246	-0.672	0.327	0.722	-0.308	0.423	-2.828	1.031	1.449	4.113	1.682	-0.142	-0.620	-0.673	1.151	0.057	1.182	1.375	1.276	1.018	-0.119	-1.085	-0.803	-3.669	0.279	0.709	-0.028	179.688
-2.477	0.709	-0.723	-0.246	0.085	-0.447	0.156	-2.171	2.170	1.680	4.814	2.249	-0.915	-1.783	-1.290	0.331	-0.457	0.984	0.724	0.214	-0.102	-0.772	-1.388	-0.892	-2.428	1.789	1.067	0.857	183.594
-2.929	0.151	-0.702	-0.764	-0.505	-0.523	-0.062	-1.419	3.324	1.926	5.450	2.733	-1.692	-2.928	-1.881	-0.494	-0.987	0.745	0.084	-0.845	-1.225	-1.436	-1.673	-0.992	-1.221	3.211	1.358	1.627	187.500
-3.309	-0.406	-0.619	-1.214	-1.033	-0.550	-0.236	-0.626	4.417	2.148	5.981	3.108	-2.443	-3.997	-2.412	-1.289	-1.515	0.485	-0.514	-1.840	-2.280	-2.070	-1.924	-1.090	-0.087	4.510	1.584	2.258	191.406
-3.608	-0.941	-0.495	-1.593	-1.489	-0.548	-0.374	0.148	5.382	2.314	6.381	3.363	-3.132	-4.934	-2.862	-2.025	-2.023	0.226	-1.049	-2.725	-3.208	-2.639	-2.131	-1.168	0.948	5.662	1.752	2.740	195.312
-3.828	-1.431	-0.352	-1.910	-1.871	-0.533	-0.475	0.852	6.171	2.405	6.638	3.500	-3.726	-5.698	-3.217	-2.682	-2.495	-0.012	-1.514	-3.467	-3.964	-3.119	-2.292	-1.210	1.868	6.652	1.876	3.082	199.219
-3.988	-1.858	-0.218	-2.179	-2.179	-0.521	-0.539	1.448	6.764	2.421	6.759	3.536	-4.195	-6.262	-3.480	-3.246	-2.919	-0.221	-1.910	-4.054	-4.523	-3.501	-2.413	-1.201	2.666	7.476	1.971	3.302	203.125
-4.112	-2.210	-0.118	-2.419	-2.420	-0.520	-0.557	1.916	7.167	2.380	6.767	3.496	-4.515	-6.612	-3.666	-3.710	-3.289	-0.402	-2.249	-4.490	-4.883	-3.786	-2.502	-1.133	3.343	8.139	2.055	3.429	207.031
-4.232	-2.484	-0.073	-2.645	-2.598	-0.534	-0.521	2.254	7.409	2.314	6.698	3.410	-4.672	-6.753	-3.807	-4.075	-3.605	-0.566	-2.546	-4.790	-5.059	-3.986	-2.568	-0.999	3.908	8.656	2.145	3.496	210.938
-4.379	-2.688	-0.099	-2.869	-2.722	-0.564	-0.426	2.481	7.538	2.262	6.590	3.309	-4.667	-6.705	-3.938	-4.346	-3.871	-0.728	-2.811	-4.977	-5.082	-4.116	-2.619	-0.801	4.375	9.049	2.257	3.533	214.844
-4.577	-2.839	-0.203	-3.100	-2.801	-0.605	-0.270	2.621	7.605	2.259	6.479	3.215	-4.509	-6.500	-4.095	-4.535	-4.094	-0.903	-3.054	-5.080	-4.992	-4.191	-2.658	-0.546	4.764	9.345	2.403	3.565	218.750
-4.837	-2.960	-0.383	-3.339	-2.841	-0.654	-0.057	2.705	7.656	2.329	6.395	3.144	-4.221	-6.179	-4.300	-4.658	-4.281	-1.101	-3.277	-5.125	-4.832	-4.223	-2.685	-0.243	5.095	9.569	2.589	3.611	222.656
-5.158	-3.075	-0.624	-3.585	-2.849	-0.705	0.200	2.760	7.724	2.481	6.353	3.102	-3.835	-5.787	-4.561	-4.734	-4.441	-1.323	-3.477	-5.133	-4.641	-4.219	-2.699	0.093	5.388	9.746	2.815	3.679	226.562
-5.525	-3.206	-0.903	-3.833	-2.828	-0.755	0.489	2.808	7.827	2.704	6.357	3.086	-3.385	-5.367	-4.866	-4.784	-4.579	-1.562	-3.649	-5.123	-4.450	-4.182	-2.699	0.446	5.661	9.891	3.075	3.769	230.469
-5.912	-3.362	-1.191	-4.078	-2.780	-0.799	0.794	2.861	7.968	2.976	6.399	3.086	-2.905	-4.956	-5.191	-4.822	-4.701	-1.805	-3.788	-5.103	-4.279	-4.116	-2.686	0.800	5.921	10.011	3.356	3.873	234.375
-6.290	-3.543	-1.460	-4.310	-2.707	-0.834	1.101	2.924	8.138	3.265	6.466	3.090	-2.428	-4.579	-5.506	-4.861	-4.809	-2.038	-3.892	-5.079	-4.134	-4.023	-2.667	1.138	6.169	10.105	3.641	3.980	238.281
-6.630	-3.740	-1.689	-4.519	-2.608	-0.856	1.398	2.997	8.320	3.543	6.541	3.085	-1.980	-4.252	-5.784	-4.904	-4.909	-2.248	-3.960	-5.050	-4.014	-3.908	-2.649	1.449	6.398	10.166	3.914	4.074	242.188
-6.916	-3.935	-1.866	-4.693	-2.482	-0.866	1.675	3.077	8.492	3.787	6.606	3.063	-1.576	-3.976	-6.011	-4.952	-5.002	-2.429	-3.995	-5.013	-3.905	-3.778	-2.637	1.726	6.597	10.184	4.158	4.141	246.094
-7.140	-4.111	-1.995	-4.825	-2.334	-0.862	1.922	3.158	8.635	3.983	6.647	3.015	-1.225	-3.742	-6.181	-4.997	-5.091	-2.577	-3.999	-4.963	-3.788	-3.638	-2.632	1.967	6.752	10.154	4.363	4.170	250.000
-7.309	-4.254	-2.089	-4.909	-2.169	-0.848	2.129	3.229	8.728	4.124	6.651	2.938	-0.927	-3.531	-6.299	-5.031	-5.173	-2.690	-3.969	-4.896	-3.642	-3.488	-2.625	2.177	6.852	10.075	4.518	4.152	253.906
-7.441	-4.354	-2.169	-4.947	-1.997	-0.829	2.288	3.281	8.756	4.209	6.607	2.828	-0.676	-3.325	-6.377	-5.046	-5.242	-2.767	-3.901	-4.808	-3.449	-3.325	-2.597	2.364	6.894	9.951	4.618	4.082	257.812
-7.556	-4.411	-2.260	-4.945	-1.832	-0.816	2.393	3.305	8.712	4.242	6.508	2.683	-0.463	-3.106	-6.420	-5.034	-5.285	-2.800	-3.785	-4.697	-3.197	-3.140	-2.528	2.540	6.880	9.795	4.660	3.958	261.719
-7.671	-4.430	-2.381	-4.915	-1.692	-0.816	2.439	3.293	8.597	4.226	6.350	2.499	-0.281	-2.863	-6.433	-4.992	-5.289	-2.781	-3.616	-4.564	-2.884	-2.926	-2.398	2.710	6.820	9.616	4.639	3.780	265.625
-7.794	-4.420	-2.540	-4.867	-1.590	-0.839	2.432	3.245	8.421	4.166	6.135	2.276	-0.125	-2.594	-6.410	-4.920	-5.243	-2.702	-3.390	-4.413	-2.521	-2.676	-2.196	2.876	6.725	9.423	4.550	3.548	269.531
-7.920	-4.388	-2.732	-4.810	-1.534	-0.888	2.382	3.164	8.207	4.070	5.875	2.017	0.006	-2.311	-6.341	-4.822	-5.141	-2.555	-3.114	-4.250	-2.128	-2.394	-1.926	3.032	6.605	9.216	4.389	3.267	273.438
-8.030	-4.339	-2.934	-4.748	-1.525	-0.958	2.305	3.061	7.981	3.945	5.584	1.728	0.108	-2.029	-6.213	-4.703	-4.982	-2.340	-2.804	-4.082	-1.734	-2.092	-1.611	3.162	6.466	8.986	4.148	2.938	277.344
-8.099	-4.271	-3.115	-4.679	-1.549	-1.036	2.220	2.949	7.767	3.803	5.279	1.414	0.175	-1.770	-6.015	-4.568	-4.771	-2.068	-2.480	-3.913	-1.370	-1.790	-1.283	3.251	6.308	8.718	3.825	2.568	281.250
-8.098	-4.177	-3.239	-4.593	-1.586	-1.101	2.144	2.841	7.585	3.649	4.975	1.085	0.204	-1.553	-5.745	-4.418	-4.515	-1.757	-2.168	-3.743	-1.061	-1.511	-0.980	3.279	6.125	8.395	3.418	2.160	285.156
-8.006	-4.046	-3.280	-4.482	-1.608	-1.131	2.091	2.748	7.442	3.489	4.679	0.747	0.194	-1.388	-5.407	-4.249	-4.221	-1.431	-1.883	-3.568	-0.822	-1.276	-0.735	3.235	5.907	8.001	2.936	1.720	289.062
-7.818	-3.865	-3.223	-4.334	-1.588	-1.107	2.065	2.674	7.330	3.326	4.389	0.404	0.153	-1.272	-5.016	-4.053	-3.894	-1.121	-1.632	-3.376	-0.652	-1.094	-0.569	3.115	5.645	7.524	2.393	1.254	292.969
-7.541	-3.624	-3.076	-4.142	-1.504	-1.019	2.064	2.616	7.232	3.155	4.096	0.057	0.096	-1.193	-4.594	-3.817	-3.537	-0.854	-1.407	-3.152	-0.535	-0.961	-0.485	2.929	5.330	6.964	1.811	0.770	296.875
-7.198	-3.319	-2.863	-3.903	-1.348	-0.873	2.076	2.561	7.120	2.974	3.784	-0.296	0.042	-1.125	-4.162	-3.528	-3.147	-0.650	-1.189	-2.880	-0.446	-0.861	-0.467	2.695	4.961	6.331	1.218	0.275	300.781
-6.821	-2.954	-2.620	-3.621	-1.122	-0.684	2.085	2.493	6.967	2.775	3.438	-0.653	0.013	-1.039	-3.742	-3.177	-2.721	-0.520	-0.954	-2.548	-0.350	-0.766	-0.488	2.438	4.542	5.644	0.645	-0.220	304.688
-6.440	-2.541	-2.388	-3.304	-0.842	-0.479	2.076	2.387	6.749	2.557	3.046	-1.014	0.030	-0.906	-3.350	-2.760	-2.260	-0.459	-0.678	-2.153	-0.215	-0.649	-0.513	2.188	4.082	4.929	0.121	-0.706	308.594
-6.080	-2.101	-2.203	-2.965	-0.532	-0.287	2.033	2.224	6.455	2.321	2.605	-1.377	0.102	-0.704	-2.998	-2.284	-1.767	-0.452	-0.347	-1.697	-0.017	-0.487	-0.513	1.967	3.597	4.217	-0.334	-1.173	312.500
-5.758	-1.654	-2.089	-2.617	-0.218	-0.134	1.950	1.991	6.087	2.074	2.122	-1.735	0.235	-0.423	-2.693	-1.760	-1.253	-0.471	0.042	-1.190	0.263	-0.270	-0.468	1.793	3.104	3.537	-0.706	-1.617	316.406
-5.481	-1.220	-2.053	-2.273	0.077	-0.033	1.829	1.686	5.665	1.825	1.610	-2.083	0.418	-0.068	-2.436	-1.210	-0.739	-0.486	0.478	-0.649	0.626	-0.004	-0.371	1.672	2.619	2.911	-0.997	-2.034	320.312
-5.251	-0.817	-2.087	-1.941	0.342	0.015	1.681	1.324	5.217	1.592	1.096	-2.413	0.637	0.347	-2.227	-0.654	-0.246	-0.470	0.937	-0.092	1.065	0.294	-0.231	1.600	2.154	2.352	-1.219	-2.426	324.219
-5.067	-0.455	-2.170	-1.627	0.576	0.025	1.524	0.932	4.779	1.390	0.608	-2.717	0.872	0.799	-2.065	-0.114	0.199	-0.409	1.387	0.464	1.562	0.595	-0.069	1.563	1.714	1.862	-1.390	-2.793	328.125
-4.929	-0.145	-2.278	-1.332	0.787	0.020	1.386	0.548	4.387	1.236	0.181	-2.986	1.105	1.263	-1.949	0.391	0.572	-0.307	1.796	1.002	2.092	0.871	0.090	1.543	1.299	1.431	-1.534	-3.137	332.031
-4.842	0.108	-2.387	-1.057	0.993	0.028	1.295	0.217	4.071	1.148	-0.151	-3.209	1.325	1.717	-1.883	0.846	0.856	-0.185	2.135	1.511	2.628	1.099	0.217	1.526	0.901	1.046	-1.669	-3.454	335.938
-4.816	0.298	-2.483	-0.803	1.213	0.072	1.278	-0.022	3.853	1.137	-0.360	-3.374	1.529	2.148	-1.877	1.237	1.042	-0.076	2.388	1.978	3.148	1.270	0.297	1.502	0.514	0.691	-1.806	-3.735	339.844
-4.866	0.421	-2.566	-0.575	1.462	0.163	1.354	-0.138	3.747	1.210	-0.424	-3.468	1.725	2.549	-1.944	1.555	1.130	-0.015	2.551	2.396	3.631	1.390	0.326	1.469	0.132	0.356	-1.944	-3.969	343.750
-5.007	0.474	-2.650	-0.377	1.747	0.304	1.531	-0.118	3.754	1.367	-0.339	-3.485	1.921	2.921	-2.099	1.790	1.132	-0.033	2.637	2.756	4.066	1.477	0.317	1.437	-0.244	0.039	-2.073	-4.141	347.656
-5.248	0.459	-2.757	-0.214	2.067	0.482	1.800	0.030	3.863	1.595	-0.117	-3.423	2.131	3.271	-2.350	1.935	1.067	-0.145	2.667	3.054	4.445	1.564	0.298	1.421	-0.604	-0.257	-2.178	-4.242	351.562
-5.590	0.383	-2.910	-0.084	2.412	0.676	2.139	0.282	4.056	1.874	0.209	-3.293	2.361	3.603	-2.697	1.992	0.955	-0.345	2.674	3.288	4.768	1.682	0.303	1.439	-0.931	-0.521	-2.242	-4.265	355.469
-6.020	0.261	-3.125	0.021	2.769	0.866	2.515	0.600	4.303	2.174	0.590	-3.113	2.612	3.925	-3.128	1.968	0.816	-0.613	2.686	3.461	5.038	1.858	0.365	1.504	-1.205	-0.738	-2.254	-4.216	359.375
-6.513	0.115	-3.406	0.117	3.123	1.034	2.893	0.937	4.573	2.464	0.966	-2.915	2.876	4.239	-3.619	1.882	0.667	-0.917	2.730	3.583	5.261	2.105	0.503	1.624	-1.404	-0.898	-2.209	-4.112	363.281
-7.035	-0.027	-3.740	0.225	3.467	1.175	3.242	1.252	4.830	2.715	1.278	-2.734	3.143	4.545	-4.143	1.758	0.516	-1.224	2.820	3.668	5.447	2.423	0.719	1.796	-1.516	-0.993	-2.111	-3.976	367.188
-7.548	-0.138	-4.100	0.365	3.794	1.289	3.538	1.511	5.042	2.910	1.479	-2.607	3.400	4.841	-4.670	1.630	0.372	-1.505	2.958	3.735	5.606	2.795	0.995	2.011	-1.538	-1.027	-1.970	-3.841	371.094
-8.014	-0.192	-4.453	0.548	4.101	1.387	3.773	1.695	5.187	3.042	1.541	-2.563	3.637	5.122	-5.173	1.527	0.241	-1.747	3.134	3.806	5.750	3.193	1.301	2.248	-1.482	-1.007	-1.797	-3.735	375.000
-8.407	-0.177	-4.763	0.774	4.385	1.478	3.950	1.802	5.253	3.120	1.466	-2.620	3.852	5.386	-5.628	1.475	0.131	-1.948	3.329	3.897	5.888	3.583	1.598	2.489	-1.369	-0.951	-1.602	-3.681	378.906
-8.709	-0.094	-5.005	1.028	4.640	1.567	4.080	1.839	5.241	3.159	1.279	-2.773	4.047	5.630	-6.016	1.490	0.052	-2.118	3.522	4.022	6.028	3.937	1.849	2.713	-1.231	-0.879	-1.390	-3.691	382.812
-8.916	0.042	-5.165	1.282	4.857	1.653	4.182	1.821	5.163	3.180	1.024	-3.003	4.231	5.854	-6.323	1.577	0.012	-2.270	3.695	4.183	6.175	4.232	2.029	2.907	-1.101	-0.817	-1.163	-3.765	386.719
-9.033	0.207	-5.244	1.503	5.027	1.728	4.271	1.766	5.034	3.201	0.750	-3.270	4.415	6.062	-6.537	1.729	0.016	-2.415	3.837	4.378	6.332	4.459	2.126	3.063	-1.011	-0.788	-0.921	-3.888	390.625
-9.067	0.375	-5.253	1.663	5.145	1.782	4.361	1.686	4.872	3.232	0.497	-3.533	4.609	6.261	-6.648	1.931	0.066	-2.559	3.946	4.597	6.499	4.619	2.144	3.179	-0.989	-0.817	-0.670	-4.042	394.531
-9.020	0.527	-5.206	1.747	5.209	1.808	4.459	1.591	4.691	3.274	0.289	-3.753	4.820	6.459	-6.650	2.165	0.157	-2.696	4.031	4.825	6.675	4.723	2.097	3.254	-1.052	-0.929	-0.424	-4.211	398.438
-8.892	0.654	-5.115	1.758	5.228	1.809	4.565	1.487	4.498	3.315	0.125	-3.907	5.047	6.665	-6.540	2.412	0.280	-2.813	4.102	5.049	6.862	4.787	2.008	3.288	-1.211	-1.146	-0.212	-4.389	402.344
-8.678	0.761	-4.987	1.717	5.220	1.796	4.678	1.381	4.298	3.343	-0.017	-3.993	5.285	6.885	-6.322	2.656	0.426	-2.894	4.172	5.256	7.057	4.825	1.900	3.280	-1.468	-1.486	-0.067	-4.579	406.250
-8.378	0.859	-4.824	1.657	5.208	1.791	4.794	1.283	4.093	3.341	-0.169	-4.027	5.522	7.120	-6.009	2.885	0.586	-2.929	4.250	5.439	7.260	4.848	1.796	3.231	-1.811	-1.955	-0.025	-4.796	410.156
-8.001	0.964	-4.628	1.613	5.215	1.821	4.909	1.202	3.888	3.298	-0.366	-4.043	5.746	7.368	-5.625	3.088	0.749	-2.910	4.338	5.591	7.468	4.864	1.713	3.140	-2.223	-2.542	-0.114	-5.057	414.062
-7.568	1.085	-4.403	1.615	5.260	1.906	5.017	1.151	3.690	3.214	-0.631	-4.076	5.943	7.618	-5.201	3.257	0.905	-2.841	4.433	5.709	7.675	4.876	1.666	3.012	-2.673	-3.219	-0.343	-5.373	417.969
-7.111	1.224	-4.157	1.677	5.351	2.060	5.116	1.135	3.507	3.091	-0.967	-4.158	6.102	7.861	-4.772	3.382	1.042	-2.735	4.523	5.790	7.875	4.883	1.661	2.854	-3.129	-3.943	-0.702	-5.745	421.875
-6.664	1.374	-3.903	1.799	5.488	2.281	5.202	1.155	3.342	2.941	-1.359	-4.306	6.216	8.083	-4.373	3.456	1.149	-2.604	4.597	5.831	8.058	4.883	1.699	2.677	-3.554	-4.661	-1.162	-6.162	425.781
-6.257	1.523	-3.652	1.961	5.659	2.552	5.270	1.201	3.195	2.777	-1.777	-4.521	6.280	8.273	-4.025	3.474	1.216	-2.465	4.641	5.833	8.218	4.875	1.772	2.490	-3.919	-5.318	-1.677	-6.599	429.688
-5.907	1.661	-3.416	2.139	5.843	2.846	5.312	1.256	3.061	2.607	-2.183	-4.784	6.294	8.423	-3.738	3.437	1.236	-2.325	4.645	5.798	8.348	4.856	1.865	2.299	-4.204	-5.868	-2.201	-7.020	433.594
-5.617	1.777	-3.199	2.302	6.021	3.130	5.320	1.293	2.927	2.437	-2.542	-5.065	6.259	8.530	-3.503	3.350	1.207	-2.191	4.607	5.731	8.447	4.826	1.960	2.109	-4.400	-6.282	-2.686	-7.393	437.500
-5.372	1.869	-2.998	2.428	6.172	3.372	5.286	1.288	2.779	2.267	-2.828	-5.326	6.177	8.594	-3.300	3.225	1.138	-2.060	4.527	5.641	8.517	4.784	2.038	1.917	-4.515	-6.547	-3.094	-7.683	441.406
-5.155	1.939	-2.810	2.500	6.283	3.546	5.202	1.219	2.602	2.093	-3.033	-5.529	6.053	8.617	-3.102	3.077	1.036	-1.932	4.416	5.537	8.561	4.733	2.083	1.723	-4.565	-6.667	-3.400	-7.868	445.312
-4.944	1.995	-2.628	2.515	6.345	3.638	5.066	1.073	2.387	1.911	-3.160	-5.645	5.892	8.602	-2.887	2.922	0.917	-1.808	4.287	5.427	8.584	4.673	2.087	1.524	-4.572	-6.659	-3.590	-7.934	449.219
-4.729	2.043	-2.452	2.477	6.354	3.647	4.878	0.851	2.136	1.719	-3.223	-5.654	5.705	8.549	-2.642	2.772	0.790	-1.691	4.154	5.316	8.587	4.606	2.052	1.325	-4.554	-6.544	-3.661	-7.873	453.125
-4.514	2.087	-2.288	2.393	6.308	3.580	4.647	0.566	1.857	1.520	-3.236	-5.548	5.502	8.462	-2.373	2.633	0.666	-1.587	4.032	5.203	8.567	4.534	1.986	1.133	-4.523	-6.346	-3.617	-7.690	457.031
-4.315	2.125	-2.153	2.269	6.208	3.453	4.384	0.245	1.569	1.323	-3.212	-5.330	5.295	8.341	-2.098	2.505	0.550	-1.500	3.928	5.085	8.521	4.457	1.907	0.958	-4.480	-6.084	-3.469	-7.394	460.938
-4.161	2.144	-2.065	2.109	6.058	3.279	4.107	-0.084	1.293	1.142	-3.154	-5.012	5.095	8.191	-1.845	2.381	0.445	-1.430	3.848	4.954	8.444	4.377	1.831	0.814	-4.418	-5.773	-3.232	-6.998	464.844
-4.081	2.130	-2.047	1.910	5.859	3.074	3.833	-0.389	1.055	0.991	-3.063	-4.615	4.913	8.018	-1.641	2.251	0.353	-1.371	3.792	4.805	8.333	4.297	1.778	0.713	-4.323	-5.424	-2.923	-6.523	468.750
-4.101	2.065	-2.114	1.669	5.619	2.847	3.578	-0.649	0.876	0.883	-2.936	-4.164	4.756	7.830	-1.507	2.106	0.274	-1.315	3.758	4.632	8.187	4.222	1.763	0.662	-4.183	-5.043	-2.561	-5.991	472.656
-4.230	1.936	-2.271	1.385	5.347	2.607	3.352	-0.849	0.772	0.826	-2.768	-3.684	4.626	7.636	-1.453	1.941	0.208	-1.251	3.741	4.430	8.009	4.158	1.794	0.664	-3.991	-4.637	-2.165	-5.428	476.562
-4.464	1.738	-2.510	1.057	5.053	2.358	3.165	-0.986	0.754	0.824	-2.559	-3.198	4.522	7.442	-1.479	1.751	0.156	-1.177	3.734	4.200	7.802	4.111	1.872	0.716	-3.744	-4.207	-1.755	-4.855	480.469
-4.782	1.476	-2.814	0.694	4.752	2.106	3.018	-1.063	0.826	0.877	-2.310	-2.721	4.443	7.255	-1.577	1.536	0.110	-1.097	3.723	3.939	7.566	4.085	1.991	0.810	-3.447	-3.757	-1.345	-4.293	484.375
-5.150	1.163	-3.154	0.307	4.456	1.853	2.916	-1.090	0.988	0.982	-2.025	-2.262	4.388	7.078	-1.739	1.298	0.060	-1.026	3.696	3.649	7.304	4.082	2.138	0.936	-3.112	-3.286	-0.948	-3.751	488.281
-5.528	0.822	-3.500	-0.087	4.175	1.604	2.861	-1.079	1.233	1.138	-1.707	-1.822	4.359	6.915	-1.956	1.036	-0.013	-0.983	3.636	3.331	7.015	4.100	2.295	1.085	-2.751	-2.798	-0.569	-3.236	492.188
-5.877	0.478	-3.822	-0.468	3.922	1.364	2.858	-1.041	1.548	1.342	-1.358	-1.396	4.356	6.769	-2.224	0.751	-0.135	-0.987	3.528	2.992	6.703	4.131	2.443	1.245	-2.379	-2.296	-0.214	-2.748	496.094
-6.164	0.156	-4.095	-0.818	3.705	1.141	2.912	-0.984	1.914	1.591	-0.982	-0.981	4.386	6.644	-2.536	0.442	-0.330	-1.053	3.360	2.639	6.376	4.161	2.562	1.408	-2.008	-1.794	0.111	-2.286	500.000
-6.369	-0.121	-4.297	-1.121	3.535	0.946	3.025	-0.914	2.308	1.874	-0.584	-0.579	4.447	6.541	-2.885	0.114	-0.616	-1.181	3.125	2.283	6.044	4.176	2.633	1.560	-1.653	-1.306	0.399	-1.854	503.906
-6.481	-0.335	-4.413	-1.362	3.420	0.791	3.195	-0.835	2.701	2.177	-0.173	-0.197	4.535	6.461	-3.252	-0.227	-0.996	-1.364	2.825	1.942	5.724	4.159	2.646	1.687	-1.328	-0.858	0.635	-1.461	507.812
-6.499	-0.475	-4.436	-1.529	3.365	0.694	3.410	-0.747	3.065	2.475	0.234	0.149	4.636	6.401	-3.612	-0.568	-1.453	-1.581	2.473	1.632	5.437	4.098	2.594	1.772	-1.050	-0.476	0.801	-1.122	511.719
-6.432	-0.535	-4.362	-1.615	3.372	0.669	3.644	-0.651	3.369	2.738	0.616	0.437	4.730	6.355	-3.931	-0.890	-1.951	-1.806	2.091	1.370	5.202	3.987	2.480	1.798	-0.833	-0.188	0.873	-0.859	515.625
-6.287	-0.512	-4.194	-1.617	3.437	0.729	3.868	-0.548	3.590	2.930	0.942	0.642	4.790	6.314	-4.173	-1.171	-2.439	-2.010	1.706	1.171	5.037	3.827	2.312	1.745	-0.695	-0.017	0.832	-0.697	519.531
-6.073	-0.413	-3.940	-1.535	3.550	0.876	4.041	-0.444	3.708	3.019	1.180	0.744	4.789	6.270	-4.305	-1.389	-2.859	-2.164	1.351	1.047	4.954	3.627	2.103	1.599	-0.646	0.023	0.662	-0.655	523.438
-5.794	-0.243	-3.611	-1.379	3.697	1.105	4.129	-0.346	3.709	2.981	1.302	0.730	4.705	6.215	-4.300	-1.525	-3.162	-2.246	1.054	1.000	4.957	3.400	1.864	1.354	-0.690	-0.071	0.360	-0.748	527.344
-5.448	-0.015	-3.221	-1.161	3.860	1.398	4.106	-0.265	3.591	2.807	1.285	0.598	4.525	6.143	-4.143	-1.568	-3.314	-2.240	0.835	1.032	5.041	3.160	1.606	1.013	-0.821	-0.290	-0.065	-0.975	531.250
-5.032	0.258	-2.783	-0.901	4.022	1.732	3.960	-0.212	3.362	2.504	1.120	0.356	4.248	6.050	-3.832	-1.514	-3.307	-2.140	0.703	1.133	5.191	2.920	1.338	0.587	-1.026	-0.615	-0.589	-1.324	535.156
-4.543	0.563	-2.311	-0.618	4.171	2.079	3.700	-0.196	3.041	2.094	0.814	0.024	3.886	5.936	-3.380	-1.371	-3.157	-1.947	0.653	1.290	5.385	2.691	1.069	0.101	-1.287	-1.022	-1.181	-1.771	539.062
-3.985	0.885	-1.819	-0.329	4.299	2.412	3.351	-0.220	2.655	1.615	0.388	-0.373	3.466	5.804	-2.810	-1.154	-2.900	-1.672	0.671	1.488	5.598	2.484	0.808	-0.413	-1.581	-1.486	-1.802	-2.284	542.969
-3.368	1.212	-1.322	-0.046	4.408	2.708	2.954	-0.284	2.240	1.109	-0.125	-0.806	3.020	5.661	-2.157	-0.881	-2.584	-1.334	0.739	1.709	5.806	2.309	0.572	-0.920	-1.891	-1.984	-2.412	-2.829	546.875
-2.711	1.531	-0.838	0.223	4.503	2.951	2.552	-0.378	1.829	0.618	-0.690	-1.253	2.585	5.518	-1.459	-0.576	-2.254	-0.953	0.841	1.939	5.987	2.179	0.382	-1.385	-2.205	-2.498	-2.982	-3.376	550.781
-2.041	1.833	-0.386	0.477	4.589	3.131	2.184	-0.493	1.449	0.172	-1.268	-1.695	2.192	5.387	-0.759	-0.257	-1.944	-0.548	0.967	2.165	6.129	2.107	0.262	-1.780	-2.516	-3.015	-3.492	-3.901	554.688
-1.388	2.109	0.010	0.713	4.671	3.244	1.879	-0.618	1.119	-0.213	-1.828	-2.123	1.864	5.279	-0.092	0.060	-1.667	-0.137	1.113	2.380	6.227	2.104	0.233	-2.086	-2.818	-3.524	-3.934	-4.390	558.594
-0.783	2.352	0.331	0.929	4.747	3.290	1.650	-0.740	0.843	-0.531	-2.347	-2.529	1.610	5.202	0.513	0.364	-1.419	0.268	1.283	2.580	6.281	2.174	0.305	-2.297	-3.110	-4.015	-4.315	-4.833	562.500
-0.256	2.557	0.562	1.119	4.807	3.272	1.492	-0.851	0.620	-0.792	-2.807	-2.911	1.426	5.154	1.036	0.646	-1.181	0.660	1.484	2.760	6.298	2.314	0.474	-2.421	-3.387	-4.478	-4.646	-5.223	566.406
0.175	2.717	0.695	1.273	4.839	3.196	1.390	-0.943	0.439	-1.008	-3.200	-3.265	1.298	5.130	1.471	0.903	-0.930	1.034	1.719	2.917	6.283	2.509	0.721	-2.475	-3.643	-4.899	-4.943	-5.557	570.312
0.498	2.829	0.738	1.381	4.827	3.075	1.319	-1.010	0.290	-1.196	-3.522	-3.585	1.202	5.115	1.820	1.131	-0.649	1.386	1.985	3.048	6.245	2.735	1.013	-2.482	-3.870	-5.264	-5.217	-5.827	574.219
0.719	2.888	0.708	1.435	4.762	2.922	1.252	-1.052	0.160	-1.367	-3.778	-3.865	1.117	5.090	2.096	1.327	-0.330	1.712	2.272	3.148	6.187	2.963	1.310	-2.466	-4.061	-5.561	-5.473	-6.030	578.125
0.852	2.894	0.633	1.436	4.638	2.754	1.168	-1.070	0.038	-1.529	-3.977	-4.099	1.023	5.040	2.316	1.491	0.018	2.007	2.565	3.217	6.115	3.166	1.575	-2.450	-4.212	-5.777	-5.708	-6.164	582.031
0.922	2.853	0.542	1.393	4.461	2.586	1.051	-1.075	-0.089	-1.687	-4.131	-4.286	0.909	4.951	2.502	1.624	0.374	2.266	2.844	3.257	6.032	3.322	1.778	-2.448	-4.318	-5.908	-5.913	-6.230	585.938
0.954	2.776	0.467	1.321	4.246	2.434	0.892	-1.080	-0.230	-1.845	-4.257	-4.428	0.772	4.822	2.676	1.730	0.712	2.484	3.093	3.274	5.947	3.423	1.907	-2.465	-4.379	-5.954	-6.077	-6.239	589.844
0.974	2.679	0.427	1.242	4.014	2.305	0.694	-1.105	-0.395	-2.007	-4.368	-4.537	0.619	4.662	2.855	1.817	1.006	2.659	3.298	3.280	5.868	3.472	1.968	-2.499	-4.398	-5.921	-6.188	-6.206	593.750
1.002	2.578	0.430	1.177	3.791	2.201	0.467	-1.167	-0.585	-2.178	-4.476	-4.625	0.463	4.488	3.051	1.894	1.238	2.791	3.457	3.291	5.806	3.483	1.977	-2.544	-4.378	-5.826	-6.243	-6.153	597.656
1.048	2.490	0.474	1.142	3.599	2.118	0.229	-1.280	-0.796	-2.360	-4.584	-4.709	0.318	4.326	3.266	1.968	1.399	2.885	3.574	3.321	5.776	3.478	1.961	-2.585	-4.328	-5.689	-6.246	-6.103	601.562
1.113	2.422	0.542	1.144	3.455	2.044	0.003	-1.447	-1.012	-2.549	-4.687	-4.800	0.201	4.201	3.493	2.046	1.494	2.948	3.660	3.380	5.788	3.480	1.948	-2.613	-4.256	-5.533	-6.205	-6.073	605.469
1.189	2.379	0.617	1.185	3.367	1.969	-0.185	-1.659	-1.212	-2.735	-4.776	-4.904	0.126	4.132	3.717	2.126	1.534	2.986	3.727	3.470	5.847	3.505	1.956	-2.615	-4.172	-5.382	-6.137	-6.077	609.375
1.264	2.357	0.679	1.257	3.334	1.884	-0.313	-1.896	-1.369	-2.900	-4.835	-5.015	0.102	4.129	3.915	2.203	1.533	3.006	3.784	3.582	5.949	3.562	1.993	-2.585	-4.087	-5.254	-6.053	-6.118	613.281
1.324	2.348	0.715	1.350	3.349	1.783	-0.363	-2.129	-1.458	-3.021	-4.845	-5.117	0.131	4.182	4.061	2.264	1.505	3.010	3.832	3.695	6.081	3.645	2.055	-2.521	-4.008	-5.159	-5.965	-6.185	617.188
1.355	2.343	0.715	1.449	3.395	1.668	-0.327	-2.326	-1.460	-3.074	-4.791	-5.183	0.208	4.273	4.132	2.293	1.461	2.996	3.866	3.785	6.214	3.741	2.128	-2.425	-3.942	-5.096	-5.873	-6.260	621.094
1.345	2.334	0.682	1.540	3.456	1.544	-0.209	-2.457	-1.363	-3.039	-4.663	-5.186	0.324	4.368	4.111	2.275	1.405	2.962	3.873	3.823	6.316	3.826	2.192	-2.306	-3.890	-5.055	-5.773	-6.315	625.000
1.289	2.314	0.620	1.612	3.512	1.424	-0.026	-2.504	-1.169	-2.908	-4.457	-5.101	0.459	4.435	3.994	2.200	1.336	2.900	3.843	3.790	6.353	3.879	2.225	-2.175	-3.852	-5.019	-5.652	-6.324	628.906
1.186	2.283	0.540	1.658	3.549	1.318	0.195	-2.459	-0.892	-2.686	-4.182	-4.917	0.596	4.447	3.787	2.072	1.251	2.809	3.764	3.678	6.301	3.878	2.212	-2.044	-3.827	-4.971	-5.501	-6.266	632.812
1.042	2.245	0.453	1.678	3.555	1.236	0.422	-2.329	-0.559	-2.392	-3.859	-4.639	0.713	4.387	3.513	1.902	1.149	2.689	3.637	3.499	6.150	3.816	2.146	-1.929	-3.814	-4.899	-5.314	-6.130	636.719
0.869	2.203	0.370	1.675	3.526	1.186	0.627	-2.132	-0.201	-2.057	-3.515	-4.294	0.796	4.259	3.200	1.719	1.030	2.544	3.469	3.278	5.911	3.692	2.029	-1.839	-3.812	-4.798	-5.092	-5.923	640.625
0.684	2.165	0.297	1.657	3.464	1.169	0.787	-1.890	0.145	-1.721	-3.186	-3.921	0.838	4.079	2.879	1.553	0.904	2.382	3.281	3.056	5.613	3.524	1.873	-1.783	-3.824	-4.674	-4.843	-5.667	644.531
0.503	2.136	0.236	1.633	3.377	1.182	0.893	-1.630	0.448	-1.422	-2.906	-3.573	0.841	3.879	2.578	1.441	0.783	2.214	3.101	2.875	5.299	3.338	1.698	-1.762	-3.852	-4.544	-4.584	-5.397	648.438
0.345	2.119	0.188	1.610	3.275	1.217	0.948	-1.372	0.686	-1.194	-2.705	-3.300	0.816	3.694	2.316	1.410	0.686	2.050	2.963	2.776	5.019	3.169	1.527	-1.771	-3.898	-4.428	-4.335	-5.150	652.344
0.223	2.117	0.145	1.596	3.171	1.262	0.966	-1.136	0.846	-1.058	-2.601	-3.143	0.778	3.558	2.100	1.477	0.630	1.902	2.896	2.787	4.820	3.053	1.383	-1.800	-3.964	-4.349	-4.119	-4.965	656.250
0.145	2.131	0.101	1.596	3.075	1.308	0.964	-0.932	0.928	-1.021	-2.603	-3.127	0.745	3.494	1.927	1.648	0.628	1.775	2.922	2.920	4.734	3.022	1.286	-1.837	-4.049	-4.323	-3.952	-4.870	660.156
0.110	2.163	0.050	1.614	2.995	1.346	0.959	-0.769	0.940	-1.075	-2.705	-3.258	0.732	3.514	1.793	1.910	0.687	1.672	3.049	3.167	4.777	3.098	1.246	-1.867	-4.147	-4.359	-3.845	-4.878	664.062
0.113	2.214	-0.012	1.653	2.933	1.372	0.962	-0.650	0.895	-1.200	-2.892	-3.520	0.747	3.611	1.690	2.243	0.807	1.593	3.270	3.502	4.942	3.284	1.271	-1.877	-4.253	-4.454	-3.802	-4.989	667.969
0.142	2.284	-0.086	1.712	2.887	1.387	0.976	-0.575	0.810	-1.369	-3.141	-3.880	0.789	3.767	1.612	2.614	0.980	1.533	3.560	3.888	5.200	3.569	1.357	-1.856	-4.357	-4.595	-3.815	-5.186	671.875
0.181	2.369	-0.167	1.791	2.853	1.394	0.997	-0.539	0.703	-1.550	-3.423	-4.295	0.854	3.950	1.558	2.987	1.192	1.490	3.884	4.276	5.508	3.922	1.495	-1.800	-4.453	-4.763	-3.872	-5.444	675.781
0.218	2.464	-0.250	1.881	2.823	1.399	1.019	-0.531	0.593	-1.707	-3.706	-4.713	0.931	4.128	1.522	3.324	1.424	1.465	4.200	4.619	5.813	4.303	1.673	-1.706	-4.532	-4.931	-3.952	-5.728	679.688
0.237	2.556	-0.329	1.972	2.786	1.405	1.034	-0.539	0.499	-1.808	-3.958	-5.083	1.008	4.266	1.499	3.587	1.652	1.461	4.467	4.872	6.065	4.665	1.873	-1.575	-4.586	-5.074	-4.027	-6.001	683.594
0.226	2.629	-0.400	2.047	2.734	1.412	1.040	-0.544	0.441	-1.823	-4.148	-5.362	1.080	4.344	1.478	3.746	1.847	1.480	4.651	5.005	6.225	4.967	2.079	-1.413	-4.607	-5.170	-4.073	-6.223	687.500
0.177	2.666	-0.463	2.088	2.662	1.421	1.039	-0.531	0.432	-1.735	-4.253	-5.519	1.146	4.353	1.449	3.779	1.983	1.522	4.729	5.001	6.270	5.179	2.273	-1.224	-4.587	-5.202	-4.065	-6.365	691.406
0.088	2.651	-0.519	2.079	2.571	1.426	1.038	-0.487	0.484	-1.541	-4.263	-5.542	1.208	4.304	1.401	3.680	2.033	1.582	4.698	4.862	6.203	5.285	2.441	-1.016	-4.522	-5.165	-3.989	-6.408	695.312
-0.032	2.575	-0.567	2.010	2.467	1.423	1.042	-0.408	0.594	-1.254	-4.183	-5.442	1.275	4.219	1.335	3.462	1.986	1.650	4.567	4.613	6.046	5.290	2.572	-0.802	-4.416	-5.067	-3.847	-6.352	699.219
-0.161	2.442	-0.605	1.882	2.362	1.408	1.055	-0.300	0.753	-0.909	-4.034	-5.251	1.350	4.126	1.263	3.151	1.844	1.720	4.362	4.291	5.838	5.212	2.660	-0.595	-4.279	-4.932	-3.654	-6.215	703.125
-0.270	2.267	-0.626	1.706	2.269	1.378	1.073	-0.176	0.939	-0.550	-3.852	-5.017	1.433	4.055	1.208	2.790	1.631	1.784	4.118	3.944	5.624	5.080	2.706	-0.414	-4.132	-4.793	-3.438	-6.035	707.031
-0.322	2.075	-0.621	1.505	2.198	1.333	1.084	-0.055	1.125	-0.231	-3.684	-4.798	1.517	4.022	1.199	2.431	1.390	1.846	3.877	3.623	5.444	4.931	2.719	-0.281	-4.001	-4.690	-3.239	-5.858	710.938
-0.280	1.898	-0.582	1.302	2.156	1.277	1.073	0.042	1.281	-0.006	-3.573	-4.650	1.587	4.034	1.264	2.123	1.178	1.911	3.681	3.370	5.325	4.795	2.711	-0.212	-3.914	-4.661	-3.093	-5.731	714.844
-0.116	1.765	-0.499	1.124	2.143	1.215	1.017	0.095	1.376	0.084	-3.560	-4.616	1.627	4.078	1.423	1.909	1.053	1.988	3.564	3.216	5.278	4.700	2.701	-0.221	-3.891	-4.729	-3.032	-5.692	718.750
0.186	1.703	-0.367	0.991	2.149	1.152	0.898	0.090	1.387	0.014	-3.668	-4.718	1.617	4.134	1.684	1.818	1.060	2.081	3.552	3.175	5.291	4.661	2.702	-0.313	-3.943	-4.903	-3.069	-5.758	722.656
0.623	1.724	-0.183	0.915	2.162	1.093	0.703	0.016	1.297	-0.222	-3.900	-4.953	1.545	4.176	2.045	1.861	1.223	2.192	3.653	3.244	5.344	4.681	2.724	-0.479	-4.066	-5.166	-3.205	-5.926	726.562
1.171	1.835	0.050	0.897	2.163	1.042	0.430	-0.129	1.103	-0.607	-4.240	-5.296	1.406	4.179	2.487	2.030	1.537	2.315	3.859	3.405	5.405	4.751	2.768	-0.705	-4.245	-5.488	-3.421	-6.170	730.469
1.794	2.028	0.324	0.933	2.138	0.998	0.089	-0.340	0.816	-1.107	-4.653	-5.704	1.206	4.129	2.987	2.302	1.966	2.445	4.145	3.627	5.446	4.850	2.823	-0.966	-4.456	-5.825	-3.690	-6.458	734.375
2.448	2.290	0.628	1.014	2.074	0.957	-0.297	-0.605	0.463	-1.673	-5.092	-6.129	0.957	4.021	3.514	2.641	2.455	2.577	4.469	3.875	5.444	4.953	2.871	-1.234	-4.677	-6.135	-3.980	-6.751	738.281
3.087	2.602	0.950	1.126	1.968	0.916	-0.694	-0.902	0.084	-2.249	-5.507	-6.521	0.681	3.862	4.034	3.005	2.937	2.708	4.785	4.113	5.386	5.032	2.892	-1.479	-4.884	-6.383	-4.263	-7.021	742.188
3.672	2.941	1.273	1.260	1.826	0.871	-1.064	-1.204	-0.274	-2.780	-5.854	-6.845	0.400	3.670	4.516	3.353	3.347	2.838	5.042	4.309	5.270	5.065	2.870	-1.679	-5.064	-6.549	-4.520	-7.251	746.094
4.176	3.281	1.581	1.404	1.665	0.820	-1.370	-1.480	-0.562	-3.220	-6.101	-7.078	0.137	3.466	4.932	3.648	3.635	2.968	5.202	4.441	5.103	5.037	2.796	-1.819	-5.209	-6.635	-4.744	-7.438	750.000
4.588	3.597	1.864	1.549	1.503	0.766	-1.585	-1.700	-0.743	-3.537	-6.234	-7.218	-0.089	3.272	5.266	3.863	3.773	3.097	5.238	4.498	4.899	4.943	2.673	-1.894	-5.317	-6.657	-4.938	-7.588	753.906
4.908	3.868	2.111	1.686	1.364	0.709	-1.693	-1.844	-0.797	-3.721	-6.257	-7.275	-0.264	3.107	5.515	3.987	3.760	3.224	5.146	4.479	4.679	4.789	2.515	-1.912	-5.387	-6.645	-5.114	-7.711	757.812
5.152	4.076	2.320	1.802	1.260	0.653	-1.701	-1.905	-0.728	-3.783	-6.191	-7.273	-0.382	2.984	5.693	4.020	3.622	3.344	4.943	4.395	4.464	4.589	2.343	-1.886	-5.423	-6.631	-5.283	-7.814	761.719
5.342	4.211	2.492	1.881	1.196	0.595	-1.633	-1.893	-0.568	-3.753	-6.068	-7.239	-0.448	2.905	5.825	3.976	3.404	3.450	4.665	4.264	4.270	4.365	2.183	-1.838	-5.425	-6.641	-5.455	-7.902	765.625
5.507	4.273	2.631	1.903	1.158	0.531	-1.530	-1.840	-0.372	-3.673	-5.924	-7.197	-0.469	2.867	5.949	3.881	3.160	3.534	4.360	4.105	4.111	4.142	2.060	-1.786	-5.391	-6.688	-5.629	-7.971	769.531
5.675	4.270	2.741	1.848	1.121	0.446	-1.445	-1.794	-0.212	-3.596	-5.797	-7.166	-0.464	2.857	6.104	3.762	2.945	3.584	4.079	3.938	3.989	3.949	2.000	-1.743	-5.316	-6.769	-5.799	-8.014	773.438
5.876	4.217	2.830	1.699	1.050	0.322	-1.430	-1.808	-0.165	-3.568	-5.715	-7.157	-0.450	2.861	6.329	3.648	2.806	3.587	3.868	3.776	3.899	3.807	2.021	-1.714	-5.196	-6.866	-5.953	-8.023	777.344
6.135	4.135	2.906	1.446	0.913	0.142	-1.530	-1.936	-0.295	-3.628	-5.700	-7.174	-0.447	2.860	6.653	3.564	2.772	3.532	3.758	3.627	3.829	3.733	2.137	-1.698	-5.025	-6.955	-6.075	-7.990	781.250
6.469	4.044	2.977	1.088	0.686	-0.107	-1.768	-2.212	-0.640	-3.798	-5.758	-7.214	-0.469	2.842	7.088	3.524	2.853	3.412	3.761	3.491	3.765	3.732	2.347	-1.691	-4.802	-7.011	-6.154	-7.913	785.156
6.881	3.962	3.052	0.639	0.363	-0.425	-2.145	-2.644	-1.200	-4.078	-5.886	-7.271	-0.522	2.799	7.631	3.534	3.040	3.228	3.869	3.366	3.694	3.797	2.641	-1.686	-4.529	-7.021	-6.188	-7.795	789.062
7.360	3.896	3.134	0.124	-0.042	-0.800	-2.634	-3.207	-1.934	-4.448	-6.065	-7.337	-0.605	2.730	8.261	3.585	3.305	2.992	4.055	3.248	3.608	3.911	2.996	-1.679	-4.218	-6.985	-6.185	-7.646	792.969
7.880	3.848	3.225	-0.424	-0.499	-1.209	-3.188	-3.848	-2.766	-4.870	-6.272	-7.407	-0.708	2.643	8.940	3.663	3.612	2.729	4.282	3.132	3.508	4.048	3.378	-1.668	-3.886	-6.917	-6.160	-7.480	796.875
