FP1	F3	F7	FC3	C3	C5	P3	P7	PO7	PO3	O1	Oz	Pz	CPz	FP2	Fz	F4	F8	FC4	FCz	Cz	C4	C6	P4	P8	PO8	PO4	O2	time
1.336	0.745	0.338	-1.014	-1.053	-1.051	-0.808	-0.505	-1.814	-1.700	-0.774	-0.840	0.652	0.967	0.948	0.036	0.163	-0.351	-0.365	-0.087	1.292	0.743	0.666	1.546	1.191	0.516	1.836	1.192	-199.219
0.934	0.363	0.191	-1.039	-0.835	-0.825	-0.533	-0.218	-1.285	-1.257	-0.316	-0.502	0.714	0.850	0.383	-0.185	-0.244	-0.407	-0.593	-0.268	1.032	0.486	0.517	1.467	0.975	0.637	1.603	1.321	-195.312
0.574	0.016	0.053	-1.055	-0.635	-0.622	-0.292	0.016	-0.812	-0.855	0.101	-0.199	0.762	0.740	-0.110	-0.377	-0.580	-0.440	-0.777	-0.433	0.784	0.253	0.385	1.375	0.768	0.723	1.383	1.418	-191.406
0.292	-0.268	-0.062	-1.054	-0.465	-0.461	-0.108	0.166	-0.434	-0.522	0.447	0.041	0.787	0.648	-0.480	-0.520	-0.797	-0.441	-0.887	-0.570	0.564	0.064	0.279	1.265	0.578	0.749	1.187	1.463	-187.500
0.103	-0.477	-0.150	-1.034	-0.333	-0.351	0.010	0.222	-0.171	-0.272	0.706	0.211	0.791	0.583	-0.705	-0.606	-0.878	-0.413	-0.909	-0.671	0.384	-0.067	0.206	1.139	0.412	0.705	1.027	1.448	-183.594
0.004	-0.609	-0.211	-0.995	-0.240	-0.292	0.066	0.199	-0.021	-0.104	0.877	0.315	0.779	0.553	-0.797	-0.642	-0.843	-0.373	-0.849	-0.733	0.251	-0.136	0.164	1.007	0.275	0.600	0.910	1.381	-179.688
-0.024	-0.676	-0.248	-0.941	-0.180	-0.272	0.079	0.132	0.038	-0.003	0.971	0.372	0.763	0.564	-0.790	-0.644	-0.738	-0.342	-0.728	-0.759	0.171	-0.152	0.144	0.885	0.170	0.456	0.840	1.279	-175.781
-0.007	-0.696	-0.263	-0.873	-0.139	-0.276	0.072	0.064	0.036	0.050	1.003	0.403	0.753	0.616	-0.732	-0.631	-0.622	-0.341	-0.579	-0.756	0.143	-0.128	0.133	0.785	0.096	0.302	0.809	1.165	-171.875
0.030	-0.685	-0.257	-0.796	-0.104	-0.283	0.069	0.034	0.007	0.076	0.988	0.425	0.759	0.704	-0.666	-0.622	-0.549	-0.385	-0.435	-0.729	0.164	-0.081	0.117	0.720	0.050	0.163	0.804	1.056	-167.969
0.072	-0.658	-0.229	-0.710	-0.062	-0.274	0.083	0.065	-0.024	0.088	0.933	0.442	0.782	0.819	-0.615	-0.626	-0.552	-0.472	-0.324	-0.685	0.226	-0.030	0.084	0.691	0.025	0.051	0.802	0.961	-164.062
0.116	-0.621	-0.174	-0.617	-0.004	-0.238	0.118	0.159	-0.042	0.089	0.839	0.450	0.815	0.945	-0.580	-0.641	-0.633	-0.582	-0.258	-0.627	0.315	0.014	0.032	0.691	0.015	-0.031	0.776	0.878	-160.156
0.168	-0.573	-0.088	-0.518	0.070	-0.174	0.160	0.294	-0.050	0.070	0.696	0.432	0.844	1.059	-0.538	-0.656	-0.767	-0.682	-0.234	-0.555	0.418	0.046	-0.034	0.708	0.009	-0.093	0.702	0.792	-156.250
0.243	-0.511	0.027	-0.415	0.154	-0.088	0.190	0.435	-0.060	0.014	0.496	0.369	0.847	1.139	-0.458	-0.652	-0.902	-0.731	-0.235	-0.471	0.517	0.065	-0.099	0.719	0.003	-0.151	0.563	0.687	-152.344
0.351	-0.430	0.165	-0.308	0.234	0.007	0.182	0.539	-0.093	-0.097	0.234	0.245	0.804	1.163	-0.307	-0.610	-0.983	-0.691	-0.233	-0.374	0.598	0.074	-0.143	0.706	-0.008	-0.221	0.353	0.546	-148.438
0.495	-0.327	0.314	-0.198	0.300	0.094	0.120	0.571	-0.166	-0.274	-0.086	0.055	0.700	1.117	-0.069	-0.517	-0.958	-0.540	-0.202	-0.264	0.647	0.078	-0.151	0.651	-0.025	-0.316	0.082	0.360	-144.531
0.670	-0.204	0.456	-0.088	0.341	0.160	-0.003	0.511	-0.287	-0.514	-0.445	-0.193	0.526	0.993	0.249	-0.368	-0.803	-0.276	-0.123	-0.144	0.656	0.076	-0.113	0.546	-0.046	-0.438	-0.230	0.133	-140.625
0.855	-0.072	0.572	0.018	0.352	0.196	-0.181	0.365	-0.447	-0.799	-0.810	-0.475	0.289	0.796	0.616	-0.172	-0.521	0.078	0.012	-0.020	0.621	0.067	-0.030	0.391	-0.068	-0.577	-0.548	-0.121	-136.719
1.024	0.056	0.648	0.111	0.330	0.200	-0.390	0.160	-0.620	-1.093	-1.139	-0.755	0.006	0.537	0.979	0.048	-0.150	0.481	0.189	0.100	0.542	0.048	0.084	0.201	-0.085	-0.714	-0.836	-0.372	-132.812
1.146	0.162	0.672	0.181	0.280	0.175	-0.601	-0.061	-0.765	-1.353	-1.384	-0.992	-0.297	0.235	1.278	0.259	0.249	0.879	0.383	0.201	0.423	0.016	0.211	-0.003	-0.088	-0.818	-1.053	-0.584	-128.906
1.194	0.232	0.638	0.218	0.204	0.128	-0.784	-0.250	-0.844	-1.539	-1.508	-1.146	-0.592	-0.089	1.456	0.425	0.599	1.214	0.555	0.269	0.268	-0.034	0.331	-0.191	-0.065	-0.855	-1.169	-0.721	-125.000
1.146	0.254	0.550	0.215	0.106	0.068	-0.913	-0.368	-0.823	-1.616	-1.486	-1.190	-0.849	-0.413	1.478	0.513	0.832	1.435	0.668	0.288	0.087	-0.098	0.422	-0.337	-0.007	-0.796	-1.165	-0.754	-121.094
0.992	0.226	0.415	0.170	-0.008	0.003	-0.971	-0.392	-0.688	-1.570	-1.314	-1.109	-1.045	-0.717	1.334	0.503	0.899	1.507	0.691	0.254	-0.110	-0.173	0.472	-0.419	0.097	-0.622	-1.037	-0.670	-117.188
0.735	0.155	0.244	0.090	-0.132	-0.059	-0.953	-0.323	-0.449	-1.402	-1.009	-0.913	-1.160	-0.979	1.041	0.394	0.786	1.420	0.610	0.167	-0.308	-0.249	0.472	-0.428	0.245	-0.339	-0.802	-0.479	-113.281
0.393	0.053	0.049	-0.013	-0.256	-0.111	-0.864	-0.182	-0.135	-1.132	-0.608	-0.625	-1.186	-1.179	0.641	0.204	0.517	1.186	0.434	0.044	-0.485	-0.316	0.423	-0.367	0.429	0.025	-0.492	-0.209	-109.375
-0.006	-0.063	-0.155	-0.118	-0.366	-0.151	-0.714	-0.004	0.211	-0.789	-0.160	-0.286	-1.120	-1.297	0.189	-0.033	0.150	0.843	0.193	-0.090	-0.623	-0.360	0.332	-0.252	0.627	0.422	-0.149	0.093	-105.469
-0.426	-0.178	-0.355	-0.205	-0.444	-0.173	-0.519	0.172	0.542	-0.412	0.279	0.059	-0.970	-1.316	-0.257	-0.271	-0.240	0.444	-0.066	-0.204	-0.700	-0.368	0.214	-0.105	0.805	0.790	0.179	0.368	-101.562
-0.826	-0.275	-0.540	-0.253	-0.473	-0.173	-0.294	0.310	0.814	-0.038	0.656	0.363	-0.752	-1.229	-0.646	-0.462	-0.570	0.050	-0.288	-0.264	-0.704	-0.331	0.087	0.043	0.929	1.067	0.449	0.563	-97.656
-1.167	-0.337	-0.695	-0.246	-0.440	-0.148	-0.057	0.387	0.997	0.299	0.925	0.588	-0.493	-1.042	-0.941	-0.567	-0.771	-0.280	-0.423	-0.247	-0.632	-0.245	-0.027	0.166	0.965	1.204	0.627	0.635	-93.750
-1.417	-0.350	-0.810	-0.175	-0.343	-0.099	0.177	0.393	1.071	0.569	1.055	0.710	-0.223	-0.773	-1.120	-0.560	-0.804	-0.504	-0.436	-0.141	-0.493	-0.113	-0.110	0.240	0.892	1.176	0.694	0.561	-89.844
-1.552	-0.304	-0.874	-0.042	-0.188	-0.025	0.387	0.334	1.032	0.753	1.032	0.719	0.023	-0.459	-1.176	-0.433	-0.658	-0.599	-0.314	0.047	-0.307	0.052	-0.147	0.248	0.707	0.982	0.647	0.344	-85.938
-1.559	-0.194	-0.877	0.139	0.003	0.068	0.555	0.223	0.891	0.842	0.862	0.622	0.210	-0.145	-1.113	-0.203	-0.361	-0.563	-0.070	0.291	-0.105	0.230	-0.135	0.184	0.427	0.650	0.495	0.009	-82.031
-1.438	-0.025	-0.813	0.347	0.203	0.172	0.665	0.081	0.669	0.839	0.572	0.441	0.312	0.120	-0.946	0.093	0.032	-0.413	0.255	0.549	0.076	0.395	-0.079	0.053	0.086	0.228	0.262	-0.398	-78.125
-1.199	0.187	-0.682	0.554	0.381	0.279	0.708	-0.069	0.400	0.760	0.205	0.209	0.317	0.295	-0.696	0.403	0.449	-0.182	0.604	0.772	0.204	0.523	0.008	-0.133	-0.271	-0.225	-0.023	-0.820	-74.219
-0.869	0.419	-0.487	0.730	0.512	0.381	0.686	-0.207	0.122	0.634	-0.186	-0.035	0.224	0.355	-0.390	0.671	0.815	0.089	0.912	0.911	0.250	0.593	0.104	-0.355	-0.599	-0.647	-0.327	-1.201	-70.312
-0.481	0.642	-0.241	0.856	0.580	0.470	0.607	-0.314	-0.127	0.496	-0.546	-0.255	0.051	0.293	-0.057	0.850	1.070	0.356	1.122	0.933	0.200	0.591	0.187	-0.591	-0.859	-0.987	-0.616	-1.494	-66.406
-0.077	0.826	0.040	0.922	0.586	0.544	0.493	-0.377	-0.314	0.380	-0.825	-0.421	-0.172	0.126	0.273	0.911	1.180	0.579	1.192	0.826	0.057	0.516	0.237	-0.817	-1.026	-1.213	-0.863	-1.671	-62.500
0.300	0.949	0.332	0.930	0.542	0.602	0.368	-0.391	-0.419	0.314	-0.993	-0.514	-0.411	-0.115	0.570	0.852	1.142	0.727	1.109	0.604	-0.161	0.377	0.240	-1.017	-1.093	-1.312	-1.048	-1.723	-58.594
0.612	0.998	0.610	0.894	0.468	0.643	0.254	-0.357	-0.434	0.314	-1.038	-0.530	-0.630	-0.387	0.812	0.697	0.985	0.784	0.890	0.307	-0.424	0.192	0.191	-1.177	-1.070	-1.293	-1.159	-1.661	-54.688
0.831	0.974	0.845	0.832	0.384	0.667	0.169	-0.285	-0.366	0.380	-0.968	-0.475	-0.800	-0.647	0.981	0.488	0.760	0.748	0.574	-0.008	-0.691	-0.013	0.095	-1.290	-0.978	-1.183	-1.194	-1.510	-50.781
0.942	0.886	1.013	0.761	0.309	0.671	0.123	-0.194	-0.232	0.499	-0.807	-0.366	-0.901	-0.854	1.067	0.278	0.523	0.630	0.219	-0.282	-0.921	-0.213	-0.036	-1.354	-0.844	-1.013	-1.161	-1.305	-46.875
0.943	0.755	1.093	0.696	0.250	0.651	0.116	-0.105	-0.061	0.648	-0.590	-0.226	-0.925	-0.981	1.067	0.114	0.324	0.451	-0.118	-0.460	-1.074	-0.383	-0.187	-1.368	-0.698	-0.815	-1.069	-1.080	-42.969
0.842	0.599	1.076	0.643	0.210	0.602	0.139	-0.039	0.118	0.800	-0.354	-0.074	-0.872	-1.014	0.984	0.028	0.199	0.236	-0.382	-0.510	-1.127	-0.502	-0.338	-1.334	-0.560	-0.613	-0.933	-0.865	-39.062
0.655	0.440	0.959	0.602	0.184	0.522	0.179	-0.013	0.277	0.928	-0.131	0.073	-0.753	-0.953	0.828	0.033	0.160	0.011	-0.539	-0.424	-1.070	-0.560	-0.473	-1.255	-0.445	-0.418	-0.768	-0.676	-35.156
0.402	0.291	0.754	0.568	0.163	0.411	0.219	-0.037	0.394	1.013	0.056	0.204	-0.585	-0.815	0.616	0.118	0.202	-0.199	-0.575	-0.223	-0.914	-0.551	-0.579	-1.135	-0.358	-0.232	-0.585	-0.519	-31.250
0.102	0.162	0.479	0.533	0.137	0.270	0.246	-0.110	0.459	1.041	0.194	0.315	-0.388	-0.627	0.371	0.257	0.307	-0.373	-0.495	0.051	-0.687	-0.483	-0.649	-0.981	-0.294	-0.049	-0.398	-0.390	-27.344
-0.220	0.058	0.162	0.493	0.098	0.107	0.248	-0.223	0.472	1.010	0.279	0.401	-0.188	-0.425	0.119	0.418	0.446	-0.496	-0.325	0.345	-0.429	-0.366	-0.682	-0.804	-0.246	0.137	-0.220	-0.282	-23.438
-0.538	-0.015	-0.162	0.448	0.045	-0.071	0.219	-0.360	0.444	0.921	0.318	0.460	-0.008	-0.243	-0.108	0.568	0.596	-0.564	-0.099	0.605	-0.183	-0.217	-0.682	-0.617	-0.203	0.330	-0.065	-0.185	-19.531
-0.823	-0.056	-0.459	0.403	-0.025	-0.253	0.155	-0.503	0.387	0.784	0.319	0.490	0.129	-0.112	-0.282	0.685	0.735	-0.579	0.142	0.791	0.012	-0.056	-0.658	-0.438	-0.157	0.529	0.055	-0.098	-15.625
-1.048	-0.063	-0.696	0.369	-0.105	-0.426	0.060	-0.631	0.316	0.611	0.295	0.485	0.209	-0.049	-0.384	0.761	0.850	-0.550	0.363	0.883	0.131	0.100	-0.618	-0.284	-0.106	0.721	0.123	-0.021	-11.719
-1.193	-0.040	-0.852	0.358	-0.188	-0.577	-0.058	-0.729	0.242	0.421	0.258	0.440	0.225	-0.054	-0.404	0.795	0.932	-0.491	0.540	0.884	0.166	0.239	-0.574	-0.170	-0.053	0.890	0.129	0.034	-7.812
-1.250	0.008	-0.915	0.381	-0.265	-0.690	-0.187	-0.781	0.173	0.234	0.220	0.355	0.182	-0.113	-0.350	0.797	0.980	-0.418	0.658	0.813	0.126	0.354	-0.534	-0.105	-0.006	1.015	0.067	0.057	-3.906
-1.226	0.067	-0.890	0.446	-0.323	-0.750	-0.308	-0.775	0.113	0.074	0.193	0.231	0.093	-0.204	-0.243	0.778	0.991	-0.339	0.718	0.701	0.035	0.447	-0.505	-0.090	0.020	1.078	-0.062	0.037	0.000
-1.146	0.125	-0.793	0.554	-0.351	-0.741	-0.402	-0.705	0.067	-0.036	0.185	0.076	-0.022	-0.298	-0.114	0.750	0.965	-0.263	0.727	0.581	-0.080	0.520	-0.491	-0.121	0.013	1.069	-0.251	-0.035	3.906
-1.041	0.172	-0.645	0.702	-0.337	-0.655	-0.453	-0.571	0.039	-0.074	0.201	-0.097	-0.142	-0.374	0.001	0.721	0.904	-0.193	0.700	0.483	-0.193	0.578	-0.493	-0.186	-0.042	0.983	-0.483	-0.156	7.812
-0.947	0.203	-0.476	0.882	-0.276	-0.487	-0.447	-0.379	0.034	-0.030	0.245	-0.269	-0.246	-0.419	0.070	0.699	0.813	-0.136	0.651	0.426	-0.286	0.624	-0.510	-0.272	-0.152	0.829	-0.737	-0.318	11.719
-0.891	0.220	-0.308	1.081	-0.164	-0.247	-0.380	-0.146	0.056	0.097	0.319	-0.420	-0.323	-0.430	0.071	0.688	0.700	-0.099	0.591	0.419	-0.349	0.658	-0.542	-0.365	-0.314	0.620	-0.994	-0.505	15.625
-0.888	0.232	-0.162	1.285	-0.006	0.047	-0.257	0.107	0.108	0.297	0.422	-0.528	-0.365	-0.414	-0.008	0.688	0.576	-0.091	0.525	0.459	-0.381	0.675	-0.587	-0.452	-0.522	0.380	-1.232	-0.695	19.531
-0.939	0.252	-0.049	1.479	0.191	0.370	-0.088	0.355	0.186	0.550	0.554	-0.578	-0.373	-0.384	-0.163	0.700	0.456	-0.123	0.453	0.539	-0.384	0.665	-0.646	-0.527	-0.758	0.132	-1.437	-0.864	23.438
-1.032	0.291	0.031	1.653	0.413	0.692	0.109	0.570	0.282	0.828	0.710	-0.561	-0.351	-0.352	-0.380	0.719	0.351	-0.203	0.373	0.643	-0.361	0.621	-0.718	-0.587	-1.000	-0.097	-1.597	-0.991	27.344
-1.145	0.357	0.082	1.799	0.647	0.988	0.314	0.731	0.380	1.101	0.880	-0.483	-0.309	-0.330	-0.634	0.742	0.269	-0.331	0.280	0.757	-0.315	0.536	-0.804	-0.634	-1.226	-0.288	-1.708	-1.063	31.250
-1.255	0.452	0.117	1.915	0.877	1.236	0.505	0.822	0.458	1.337	1.046	-0.363	-0.258	-0.321	-0.890	0.764	0.215	-0.497	0.176	0.868	-0.246	0.410	-0.904	-0.674	-1.414	-0.427	-1.773	-1.078	35.156
-1.337	0.574	0.153	2.009	1.093	1.428	0.664	0.839	0.496	1.509	1.185	-0.233	-0.210	-0.325	-1.111	0.781	0.189	-0.681	0.064	0.967	-0.150	0.252	-1.015	-0.718	-1.550	-0.511	-1.797	-1.047	39.062
-1.375	0.718	0.206	2.088	1.285	1.564	0.774	0.787	0.477	1.599	1.268	-0.134	-0.175	-0.337	-1.256	0.794	0.187	-0.855	-0.046	1.052	-0.028	0.077	-1.130	-0.774	-1.624	-0.547	-1.792	-0.993	42.969
-1.356	0.879	0.291	2.163	1.447	1.651	0.826	0.680	0.396	1.595	1.274	-0.112	-0.159	-0.347	-1.294	0.806	0.207	-0.996	-0.144	1.124	0.119	-0.094	-1.241	-0.849	-1.640	-0.552	-1.771	-0.944	46.875
-1.278	1.050	0.412	2.244	1.578	1.701	0.818	0.540	0.260	1.500	1.187	-0.202	-0.164	-0.344	-1.211	0.825	0.247	-1.084	-0.219	1.186	0.284	-0.240	-1.337	-0.946	-1.605	-0.546	-1.746	-0.932	50.781
-1.148	1.222	0.568	2.332	1.679	1.725	0.755	0.386	0.085	1.328	1.010	-0.427	-0.188	-0.317	-1.014	0.859	0.305	-1.112	-0.261	1.245	0.461	-0.340	-1.410	-1.059	-1.533	-0.544	-1.723	-0.980	54.688
-0.984	1.386	0.741	2.424	1.748	1.732	0.651	0.242	-0.102	1.106	0.764	-0.792	-0.221	-0.259	-0.740	0.913	0.380	-1.088	-0.271	1.302	0.637	-0.384	-1.455	-1.174	-1.438	-0.554	-1.698	-1.098	58.594
-0.816	1.529	0.907	2.507	1.787	1.728	0.528	0.123	-0.269	0.874	0.485	-1.277	-0.252	-0.166	-0.444	0.987	0.465	-1.031	-0.252	1.358	0.800	-0.367	-1.468	-1.270	-1.329	-0.570	-1.661	-1.282	62.500
-0.685	1.635	1.038	2.562	1.793	1.714	0.410	0.045	-0.383	0.675	0.223	-1.853	-0.267	-0.039	-0.194	1.072	0.548	-0.963	-0.211	1.411	0.941	-0.295	-1.453	-1.325	-1.213	-0.571	-1.592	-1.517	66.406
-0.633	1.689	1.106	2.569	1.764	1.692	0.322	0.020	-0.413	0.555	0.022	-2.480	-0.252	0.114	-0.050	1.157	0.615	-0.903	-0.156	1.456	1.050	-0.177	-1.414	-1.317	-1.092	-0.534	-1.476	-1.783	70.312
-0.694	1.680	1.097	2.515	1.699	1.659	0.280	0.058	-0.340	0.547	-0.085	-3.129	-0.199	0.282	-0.051	1.225	0.654	-0.863	-0.087	1.489	1.124	-0.025	-1.355	-1.233	-0.971	-0.440	-1.303	-2.069	74.219
-0.882	1.607	1.010	2.396	1.597	1.617	0.295	0.166	-0.153	0.668	-0.088	-3.778	-0.108	0.447	-0.204	1.265	0.664	-0.843	-0.002	1.508	1.165	0.149	-1.280	-1.074	-0.855	-0.287	-1.084	-2.377	78.125
-1.184	1.478	0.864	2.219	1.464	1.572	0.363	0.347	0.144	0.913	-0.004	-4.422	0.014	0.593	-0.478	1.274	0.652	-0.831	0.109	1.516	1.178	0.333	-1.192	-0.856	-0.757	-0.092	-0.846	-2.722	82.031
-1.559	1.314	0.695	2.006	1.308	1.530	0.475	0.599	0.535	1.255	0.129	-5.065	0.155	0.704	-0.820	1.254	0.639	-0.809	0.251	1.515	1.172	0.515	-1.095	-0.609	-0.693	0.108	-0.634	-3.131	85.938
-1.947	1.139	0.543	1.783	1.143	1.501	0.616	0.916	0.995	1.654	0.263	-5.707	0.299	0.768	-1.162	1.217	0.647	-0.759	0.423	1.506	1.154	0.679	-0.998	-0.372	-0.681	0.263	-0.494	-3.626	89.844
-2.284	0.977	0.447	1.581	0.987	1.497	0.774	1.288	1.498	2.068	0.355	-6.341	0.431	0.777	-1.447	1.172	0.694	-0.668	0.610	1.487	1.127	0.805	-0.916	-0.183	-0.732	0.330	-0.465	-4.215	93.750
-2.521	0.843	0.431	1.423	0.856	1.523	0.939	1.701	2.022	2.460	0.381	-6.939	0.544	0.732	-1.640	1.124	0.783	-0.536	0.782	1.451	1.092	0.870	-0.867	-0.072	-0.845	0.281	-0.564	-4.880	97.656
-2.635	0.739	0.498	1.323	0.764	1.584	1.111	2.141	2.553	2.809	0.348	-7.456	0.642	0.640	-1.737	1.070	0.896	-0.379	0.900	1.385	1.042	0.854	-0.873	-0.050	-1.006	0.113	-0.780	-5.574	101.562
-2.643	0.658	0.627	1.283	0.719	1.676	1.297	2.589	3.081	3.111	0.288	-7.832	0.734	0.516	-1.764	0.998	0.996	-0.227	0.926	1.275	0.969	0.743	-0.950	-0.112	-1.186	-0.147	-1.077	-6.225	105.469
-2.593	0.582	0.777	1.295	0.725	1.788	1.505	3.026	3.604	3.374	0.253	-8.009	0.835	0.380	-1.765	0.893	1.040	-0.118	0.833	1.116	0.867	0.536	-1.105	-0.233	-1.350	-0.452	-1.400	-6.751	109.375
-2.552	0.497	0.901	1.342	0.778	1.906	1.739	3.429	4.117	3.612	0.298	-7.941	0.962	0.254	-1.790	0.744	0.989	-0.092	0.615	0.907	0.731	0.250	-1.329	-0.379	-1.462	-0.742	-1.688	-7.078	113.281
-2.587	0.390	0.951	1.406	0.869	2.011	1.998	3.778	4.609	3.837	0.467	-7.610	1.121	0.156	-1.880	0.547	0.821	-0.175	0.293	0.661	0.565	-0.084	-1.603	-0.514	-1.498	-0.961	-1.890	-7.154	117.188
-2.743	0.260	0.894	1.467	0.984	2.084	2.271	4.051	5.065	4.054	0.784	-7.030	1.314	0.100	-2.058	0.313	0.539	-0.373	-0.094	0.403	0.379	-0.424	-1.895	-0.608	-1.447	-1.068	-1.972	-6.960	121.094
-3.037	0.115	0.721	1.512	1.107	2.110	2.538	4.232	5.462	4.254	1.239	-6.244	1.525	0.092	-2.324	0.066	0.170	-0.668	-0.489	0.162	0.188	-0.729	-2.169	-0.643	-1.316	-1.042	-1.920	-6.513	125.000
-3.447	-0.029	0.442	1.527	1.220	2.078	2.776	4.317	5.780	4.421	1.800	-5.322	1.732	0.125	-2.660	-0.168	-0.239	-1.026	-0.837	-0.035	0.008	-0.965	-2.394	-0.615	-1.125	-0.880	-1.744	-5.863	128.906
-3.930	-0.157	0.090	1.504	1.303	1.985	2.961	4.311	6.003	4.538	2.419	-4.337	1.905	0.188	-3.035	-0.361	-0.640	-1.403	-1.095	-0.171	-0.153	-1.113	-2.547	-0.531	-0.901	-0.597	-1.463	-5.073	132.812
-4.430	-0.258	-0.294	1.440	1.343	1.835	3.078	4.232	6.127	4.591	3.044	-3.359	2.017	0.258	-3.417	-0.500	-0.989	-1.759	-1.244	-0.244	-0.293	-1.172	-2.620	-0.408	-0.669	-0.213	-1.106	-4.211	136.719
-4.896	-0.330	-0.668	1.335	1.331	1.643	3.121	4.108	6.162	4.577	3.636	-2.439	2.046	0.311	-3.785	-0.589	-1.264	-2.068	-1.287	-0.272	-0.422	-1.158	-2.622	-0.265	-0.443	0.252	-0.696	-3.335	140.625
-5.294	-0.381	-0.998	1.189	1.263	1.424	3.095	3.973	6.133	4.506	4.173	-1.603	1.978	0.319	-4.129	-0.648	-1.462	-2.323	-1.254	-0.287	-0.558	-1.100	-2.569	-0.121	-0.222	0.787	-0.252	-2.480	144.531
-5.616	-0.432	-1.265	1.008	1.141	1.196	3.013	3.856	6.074	4.402	4.656	-0.854	1.813	0.258	-4.455	-0.709	-1.601	-2.532	-1.187	-0.328	-0.726	-1.030	-2.490	0.012	0.004	1.387	0.214	-1.663	148.438
-5.872	-0.506	-1.469	0.794	0.970	0.971	2.892	3.783	6.023	4.293	5.104	-0.178	1.559	0.107	-4.778	-0.810	-1.712	-2.716	-1.135	-0.438	-0.948	-0.980	-2.412	0.124	0.260	2.052	0.696	-0.883	152.344
-6.090	-0.628	-1.624	0.550	0.755	0.753	2.750	3.769	6.019	4.209	5.545	0.449	1.232	-0.144	-5.112	-0.982	-1.827	-2.893	-1.136	-0.647	-1.242	-0.971	-2.357	0.214	0.569	2.785	1.189	-0.131	156.250
-6.305	-0.818	-1.754	0.277	0.498	0.540	2.602	3.818	6.090	4.176	6.011	1.048	0.852	-0.496	-5.471	-1.246	-1.972	-3.075	-1.218	-0.971	-1.617	-1.014	-2.341	0.284	0.953	3.584	1.687	0.607	160.156
-6.547	-1.086	-1.884	-0.026	0.201	0.323	2.456	3.924	6.252	4.212	6.522	1.633	0.444	-0.941	-5.855	-1.604	-2.164	-3.265	-1.385	-1.407	-2.071	-1.109	-2.368	0.339	1.419	4.441	2.184	1.336	164.062
-6.835	-1.434	-2.035	-0.355	-0.133	0.092	2.316	4.072	6.507	4.325	7.087	2.204	0.030	-1.454	-6.256	-2.043	-2.400	-3.451	-1.628	-1.936	-2.589	-1.246	-2.434	0.388	1.963	5.339	2.672	2.055	167.969
-7.177	-1.848	-2.218	-0.704	-0.500	-0.156	2.185	4.240	6.841	4.515	7.697	2.749	-0.366	-2.005	-6.658	-2.533	-2.668	-3.620	-1.923	-2.521	-3.145	-1.411	-2.529	0.439	2.566	6.253	3.146	2.750	171.875
-7.563	-2.307	-2.429	-1.060	-0.888	-0.420	2.063	4.404	7.226	4.770	8.328	3.243	-0.724	-2.557	-7.045	-3.039	-2.946	-3.753	-2.238	-3.121	-3.709	-1.588	-2.640	0.501	3.197	7.156	3.598	3.401	175.781
-7.976	-2.780	-2.655	-1.406	-1.279	-0.687	1.950	4.545	7.630	5.074	8.947	3.659	-1.030	-3.071	-7.403	-3.523	-3.206	-3.843	-2.545	-3.691	-4.243	-1.764	-2.753	0.580	3.822	8.020	4.026	3.985	179.688
-8.394	-3.236	-2.878	-1.723	-1.650	-0.939	1.850	4.645	8.019	5.406	9.517	3.974	-1.273	-3.516	-7.724	-3.952	-3.430	-3.886	-2.821	-4.193	-4.718	-1.929	-2.859	0.680	4.410	8.823	4.425	4.485	183.594
-8.795	-3.647	-3.080	-1.994	-1.976	-1.155	1.767	4.699	8.372	5.747	10.004	4.173	-1.452	-3.868	-8.009	-4.305	-3.606	-3.893	-3.050	-4.602	-5.110	-2.076	-2.948	0.801	4.935	9.549	4.792	4.888	187.500
-9.162	-3.990	-3.244	-2.210	-2.237	-1.321	1.705	4.712	8.676	6.075	10.388	4.254	-1.571	-4.123	-8.263	-4.573	-3.736	-3.879	-3.230	-4.910	-5.411	-2.203	-3.016	0.940	5.383	10.190	5.122	5.196	191.406
-9.487	-4.255	-3.367	-2.368	-2.420	-1.426	1.667	4.700	8.937	6.377	10.663	4.233	-1.643	-4.287	-8.498	-4.763	-3.834	-3.863	-3.366	-5.122	-5.623	-2.314	-3.059	1.091	5.752	10.746	5.411	5.418	195.312
-9.766	-4.440	-3.449	-2.475	-2.526	-1.475	1.652	4.687	9.170	6.645	10.835	4.133	-1.685	-4.382	-8.723	-4.889	-3.919	-3.862	-3.472	-5.256	-5.764	-2.414	-3.081	1.244	6.046	11.222	5.653	5.571	199.219
-10.001	-4.552	-3.498	-2.543	-2.562	-1.475	1.661	4.697	9.399	6.877	10.924	3.987	-1.715	-4.436	-8.947	-4.972	-4.011	-3.889	-3.563	-5.339	-5.856	-2.512	-3.083	1.389	6.273	11.624	5.843	5.675	203.125
-10.197	-4.602	-3.523	-2.587	-2.542	-1.440	1.692	4.756	9.644	7.079	10.959	3.828	-1.749	-4.479	-9.173	-5.034	-4.128	-3.953	-3.658	-5.396	-5.920	-2.618	-3.074	1.513	6.443	11.956	5.975	5.745	207.031
-10.364	-4.606	-3.534	-2.617	-2.485	-1.384	1.747	4.882	9.921	7.261	10.967	3.684	-1.796	-4.532	-9.404	-5.090	-4.277	-4.055	-3.774	-5.449	-5.977	-2.742	-3.063	1.608	6.564	12.223	6.045	5.794	210.938
-10.511	-4.577	-3.542	-2.639	-2.404	-1.320	1.828	5.081	10.233	7.439	10.974	3.574	-1.856	-4.603	-9.638	-5.151	-4.462	-4.193	-3.927	-5.512	-6.036	-2.893	-3.061	1.670	6.641	12.424	6.054	5.826	214.844
-10.653	-4.526	-3.554	-2.654	-2.311	-1.252	1.937	5.350	10.569	7.625	11.000	3.506	-1.920	-4.691	-9.875	-5.221	-4.677	-4.358	-4.124	-5.591	-6.098	-3.072	-3.076	1.697	6.679	12.562	6.007	5.841	218.750
-10.802	-4.461	-3.574	-2.658	-2.214	-1.182	2.077	5.673	10.911	7.829	11.052	3.475	-1.974	-4.777	-10.110	-5.299	-4.913	-4.539	-4.369	-5.684	-6.158	-3.279	-3.117	1.696	6.680	12.641	5.911	5.834	222.656
-10.967	-4.387	-3.603	-2.644	-2.117	-1.108	2.245	6.028	11.237	8.057	11.129	3.468	-2.000	-4.840	-10.333	-5.379	-5.154	-4.718	-4.652	-5.785	-6.203	-3.502	-3.190	1.676	6.646	12.662	5.777	5.797	226.562
-11.152	-4.309	-3.636	-2.609	-2.023	-1.023	2.436	6.390	11.523	8.303	11.217	3.463	-1.983	-4.853	-10.533	-5.454	-5.382	-4.878	-4.956	-5.882	-6.221	-3.726	-3.295	1.646	6.581	12.629	5.618	5.722	230.469
-11.351	-4.234	-3.666	-2.556	-1.931	-0.923	2.639	6.735	11.753	8.556	11.297	3.436	-1.916	-4.795	-10.695	-5.516	-5.579	-5.002	-5.253	-5.962	-6.198	-3.933	-3.429	1.615	6.483	12.545	5.446	5.602	234.375
-11.549	-4.169	-3.686	-2.491	-1.841	-0.805	2.841	7.042	11.917	8.794	11.345	3.364	-1.796	-4.652	-10.806	-5.555	-5.724	-5.083	-5.509	-6.011	-6.124	-4.098	-3.583	1.592	6.356	12.412	5.276	5.436	238.281
-11.727	-4.124	-3.690	-2.425	-1.752	-0.668	3.031	7.297	12.012	8.994	11.339	3.232	-1.633	-4.420	-10.862	-5.564	-5.800	-5.122	-5.692	-6.016	-5.989	-4.201	-3.740	1.584	6.203	12.235	5.120	5.225	242.188
-11.862	-4.111	-3.675	-2.370	-1.663	-0.519	3.197	7.493	12.040	9.132	11.261	3.034	-1.438	-4.109	-10.865	-5.538	-5.799	-5.130	-5.775	-5.965	-5.794	-4.220	-3.880	1.596	6.031	12.019	4.992	4.975	246.094
-11.938	-4.138	-3.648	-2.339	-1.574	-0.368	3.332	7.632	12.008	9.191	11.105	2.775	-1.230	-3.739	-10.826	-5.476	-5.717	-5.121	-5.742	-5.856	-5.540	-4.144	-3.977	1.634	5.852	11.773	4.901	4.698	250.000
-11.945	-4.209	-3.617	-2.338	-1.490	-0.231	3.436	7.723	11.924	9.163	10.872	2.466	-1.027	-3.337	-10.758	-5.382	-5.568	-5.112	-5.595	-5.693	-5.242	-3.969	-4.006	1.701	5.680	11.508	4.852	4.404	253.906
-11.887	-4.324	-3.596	-2.370	-1.413	-0.123	3.509	7.780	11.803	9.051	10.577	2.127	-0.842	-2.934	-10.671	-5.264	-5.374	-5.110	-5.348	-5.488	-4.916	-3.701	-3.951	1.799	5.529	11.232	4.844	4.106	257.812
-11.781	-4.474	-3.594	-2.432	-1.350	-0.056	3.559	7.824	11.658	8.872	10.243	1.778	-0.687	-2.561	-10.571	-5.139	-5.170	-5.119	-5.032	-5.265	-4.588	-3.359	-3.803	1.927	5.411	10.957	4.868	3.814	261.719
-11.651	-4.648	-3.618	-2.518	-1.305	-0.037	3.592	7.872	11.507	8.649	9.897	1.441	-0.565	-2.242	-10.455	-5.025	-4.994	-5.132	-4.686	-5.050	-4.284	-2.969	-3.570	2.081	5.336	10.692	4.910	3.536	265.625
-11.524	-4.834	-3.668	-2.618	-1.281	-0.065	3.614	7.941	11.365	8.412	9.570	1.134	-0.471	-1.994	-10.319	-4.943	-4.878	-5.138	-4.351	-4.873	-4.030	-2.561	-3.271	2.254	5.306	10.444	4.955	3.277	269.531
-11.423	-5.014	-3.737	-2.722	-1.279	-0.128	3.628	8.038	11.246	8.187	9.283	0.871	-0.397	-1.820	-10.159	-4.910	-4.842	-5.129	-4.061	-4.757	-3.848	-2.166	-2.937	2.441	5.318	10.219	4.986	3.039	273.438
-11.363	-5.176	-3.815	-2.821	-1.296	-0.210	3.631	8.160	11.156	7.992	9.052	0.655	-0.329	-1.713	-9.975	-4.936	-4.888	-5.095	-3.839	-4.721	-3.750	-1.805	-2.596	2.635	5.366	10.023	4.995	2.823	277.344
-11.342	-5.309	-3.888	-2.908	-1.327	-0.292	3.616	8.292	11.095	7.836	8.878	0.485	-0.256	-1.657	-9.774	-5.022	-5.002	-5.031	-3.694	-4.768	-3.741	-1.494	-2.276	2.832	5.439	9.859	4.979	2.627	281.250
-11.353	-5.408	-3.946	-2.979	-1.367	-0.356	3.576	8.415	11.057	7.717	8.753	0.351	-0.166	-1.628	-9.566	-5.159	-5.152	-4.937	-3.618	-4.888	-3.811	-1.236	-1.994	3.029	5.527	9.729	4.939	2.448	285.156
-11.379	-5.475	-3.982	-3.031	-1.407	-0.392	3.504	8.504	11.032	7.625	8.662	0.241	-0.055	-1.600	-9.366	-5.327	-5.301	-4.815	-3.590	-5.055	-3.938	-1.024	-1.757	3.221	5.620	9.630	4.879	2.286	289.062
-11.400	-5.519	-3.996	-3.063	-1.437	-0.396	3.399	8.535	11.006	7.543	8.587	0.139	0.076	-1.551	-9.186	-5.501	-5.409	-4.671	-3.583	-5.234	-4.092	-0.848	-1.563	3.403	5.707	9.558	4.802	2.136	292.969
-11.396	-5.550	-3.993	-3.072	-1.450	-0.372	3.264	8.495	10.966	7.455	8.509	0.032	0.219	-1.466	-9.031	-5.649	-5.445	-4.510	-3.568	-5.385	-4.239	-0.696	-1.404	3.567	5.781	9.500	4.707	1.996	296.875
-11.354	-5.579	-3.975	-3.058	-1.438	-0.334	3.108	8.376	10.903	7.349	8.415	-0.090	0.360	-1.342	-8.895	-5.743	-5.390	-4.341	-3.525	-5.473	-4.351	-0.564	-1.276	3.699	5.833	9.441	4.587	1.862	300.781
-11.261	-5.611	-3.946	-3.021	-1.399	-0.293	2.943	8.190	10.812	7.218	8.298	-0.231	0.483	-1.191	-8.764	-5.762	-5.241	-4.167	-3.446	-5.473	-4.407	-0.456	-1.176	3.784	5.856	9.362	4.432	1.729	304.688
-11.115	-5.645	-3.902	-2.959	-1.336	-0.262	2.783	7.957	10.699	7.067	8.161	-0.390	0.570	-1.034	-8.621	-5.697	-5.010	-3.995	-3.337	-5.381	-4.404	-0.384	-1.109	3.807	5.847	9.249	4.234	1.595	308.594
-10.922	-5.674	-3.841	-2.879	-1.255	-0.251	2.641	7.708	10.574	6.909	8.012	-0.557	0.608	-0.897	-8.449	-5.554	-4.720	-3.824	-3.214	-5.211	-4.350	-0.365	-1.083	3.759	5.804	9.094	3.988	1.460	312.500
-10.695	-5.689	-3.760	-2.789	-1.171	-0.266	2.528	7.476	10.457	6.760	7.864	-0.715	0.591	-0.807	-8.243	-5.353	-4.405	-3.655	-3.098	-4.994	-4.264	-0.415	-1.107	3.640	5.731	8.900	3.703	1.326	316.406
-10.452	-5.685	-3.662	-2.700	-1.097	-0.306	2.451	7.292	10.368	6.642	7.734	-0.845	0.523	-0.780	-8.008	-5.126	-4.097	-3.488	-3.014	-4.770	-4.170	-0.544	-1.185	3.458	5.635	8.679	3.395	1.200	320.312
-10.218	-5.660	-3.554	-2.626	-1.046	-0.371	2.416	7.175	10.330	6.571	7.634	-0.924	0.418	-0.818	-7.759	-4.908	-3.827	-3.325	-2.976	-4.579	-4.090	-0.745	-1.316	3.232	5.521	8.452	3.092	1.093	324.219
-10.014	-5.622	-3.447	-2.580	-1.029	-0.456	2.420	7.134	10.357	6.557	7.576	-0.936	0.296	-0.913	-7.520	-4.732	-3.618	-3.170	-2.991	-4.452	-4.037	-1.003	-1.488	2.985	5.394	8.239	2.825	1.013	328.125
-9.859	-5.582	-3.359	-2.567	-1.049	-0.555	2.460	7.162	10.456	6.601	7.565	-0.866	0.179	-1.042	-7.315	-4.619	-3.479	-3.034	-3.052	-4.403	-4.019	-1.288	-1.686	2.743	5.258	8.060	2.620	0.965	332.031
-9.762	-5.551	-3.301	-2.589	-1.103	-0.664	2.525	7.243	10.619	6.691	7.602	-0.715	0.087	-1.178	-7.164	-4.576	-3.406	-2.931	-3.143	-4.424	-4.029	-1.567	-1.887	2.528	5.112	7.927	2.495	0.952	335.938
-9.724	-5.539	-3.284	-2.637	-1.185	-0.775	2.603	7.351	10.826	6.805	7.682	-0.488	0.031	-1.297	-7.079	-4.592	-3.381	-2.876	-3.240	-4.494	-4.054	-1.808	-2.075	2.352	4.957	7.839	2.449	0.970	339.844
-9.734	-5.544	-3.309	-2.697	-1.277	-0.881	2.676	7.461	11.050	6.916	7.799	-0.204	0.013	-1.377	-7.060	-4.646	-3.381	-2.883	-3.319	-4.576	-4.074	-1.986	-2.235	2.218	4.792	7.788	2.469	1.009	343.750
-9.777	-5.557	-3.370	-2.748	-1.364	-0.970	2.731	7.550	11.262	6.994	7.942	0.113	0.026	-1.406	-7.095	-4.705	-3.384	-2.956	-3.360	-4.632	-4.070	-2.089	-2.362	2.117	4.616	7.753	2.526	1.057	347.656
-9.833	-5.558	-3.455	-2.770	-1.424	-1.032	2.755	7.607	11.441	7.019	8.101	0.438	0.058	-1.379	-7.170	-4.740	-3.374	-3.092	-3.352	-4.630	-4.021	-2.117	-2.457	2.037	4.427	7.713	2.589	1.105	351.562
-9.893	-5.528	-3.550	-2.745	-1.439	-1.055	2.744	7.629	11.578	6.980	8.267	0.750	0.096	-1.296	-7.267	-4.728	-3.346	-3.280	-3.293	-4.545	-3.916	-2.081	-2.527	1.962	4.224	7.644	2.629	1.148	355.469
-9.955	-5.450	-3.648	-2.660	-1.394	-1.030	2.703	7.624	11.679	6.887	8.434	1.036	0.133	-1.161	-7.380	-4.659	-3.306	-3.505	-3.190	-4.373	-3.747	-1.997	-2.582	1.882	4.007	7.531	2.632	1.191	359.375
-10.032	-5.319	-3.749	-2.512	-1.279	-0.948	2.642	7.607	11.757	6.760	8.598	1.290	0.172	-0.979	-7.515	-4.536	-3.268	-3.750	-3.056	-4.119	-3.515	-1.882	-2.628	1.795	3.775	7.372	2.601	1.243	363.281
-10.148	-5.144	-3.860	-2.305	-1.091	-0.809	2.583	7.592	11.831	6.635	8.756	1.515	0.225	-0.753	-7.686	-4.372	-3.243	-4.002	-2.905	-3.804	-3.228	-1.750	-2.669	1.712	3.532	7.176	2.557	1.321	367.188
-10.327	-4.949	-3.997	-2.054	-0.838	-0.621	2.545	7.587	11.913	6.547	8.905	1.715	0.311	-0.481	-7.913	-4.186	-3.239	-4.251	-2.748	-3.453	-2.894	-1.604	-2.703	1.652	3.285	6.962	2.534	1.435	371.094
-10.590	-4.764	-4.176	-1.779	-0.534	-0.399	2.550	7.594	12.003	6.528	9.034	1.888	0.454	-0.160	-8.210	-4.000	-3.254	-4.490	-2.594	-3.093	-2.524	-1.442	-2.721	1.638	3.044	6.755	2.567	1.589	375.000
-10.937	-4.620	-4.405	-1.502	-0.198	-0.169	2.611	7.605	12.086	6.596	9.129	2.028	0.675	0.214	-8.577	-3.829	-3.283	-4.717	-2.447	-2.749	-2.128	-1.256	-2.714	1.695	2.820	6.574	2.684	1.774	378.906
-11.351	-4.541	-4.682	-1.246	0.146	0.042	2.734	7.607	12.138	6.753	9.168	2.124	0.989	0.644	-8.992	-3.686	-3.318	-4.930	-2.308	-2.441	-1.713	-1.036	-2.671	1.843	2.626	6.434	2.897	1.967	382.812
-11.794	-4.538	-4.992	-1.031	0.474	0.208	2.917	7.587	12.133	6.984	9.133	2.163	1.397	1.128	-9.420	-3.576	-3.353	-5.132	-2.180	-2.183	-1.285	-0.778	-2.586	2.088	2.473	6.336	3.197	2.140	386.719
-12.215	-4.606	-5.308	-0.869	0.769	0.310	3.151	7.541	12.051	7.265	9.008	2.136	1.887	1.659	-9.817	-3.499	-3.387	-5.327	-2.066	-1.985	-0.855	-0.484	-2.457	2.423	2.365	6.268	3.556	2.262	390.625
-12.560	-4.724	-5.596	-0.763	1.017	0.344	3.422	7.472	11.889	7.561	8.787	2.042	2.435	2.217	-10.137	-3.453	-3.423	-5.522	-1.972	-1.853	-0.434	-0.163	-2.291	2.821	2.301	6.208	3.925	2.302	394.531
-12.784	-4.861	-5.823	-0.710	1.215	0.320	3.714	7.393	11.660	7.840	8.476	1.886	3.003	2.777	-10.348	-3.434	-3.461	-5.719	-1.904	-1.788	-0.037	0.164	-2.098	3.246	2.272	6.128	4.252	2.239	398.438
-12.855	-4.981	-5.959	-0.693	1.368	0.265	4.009	7.325	11.386	8.071	8.089	1.676	3.551	3.306	-10.429	-3.435	-3.500	-5.914	-1.867	-1.786	0.316	0.476	-1.892	3.649	2.263	5.995	4.479	2.057	402.344
-12.763	-5.045	-5.984	-0.692	1.492	0.215	4.291	7.285	11.093	8.229	7.646	1.423	4.037	3.776	-10.379	-3.449	-3.531	-6.098	-1.860	-1.834	0.610	0.750	-1.686	3.980	2.254	5.781	4.562	1.749	406.250
-12.517	-5.022	-5.892	-0.680	1.607	0.207	4.543	7.286	10.800	8.297	7.166	1.132	4.429	4.163	-10.211	-3.461	-3.537	-6.251	-1.873	-1.912	0.837	0.973	-1.492	4.197	2.224	5.464	4.471	1.320	410.156
-12.141	-4.891	-5.692	-0.629	1.734	0.270	4.751	7.327	10.512	8.267	6.662	0.804	4.707	4.460	-9.947	-3.453	-3.494	-6.353	-1.889	-1.987	0.999	1.139	-1.318	4.272	2.152	5.034	4.200	0.779	414.062
-11.668	-4.644	-5.405	-0.520	1.892	0.421	4.904	7.395	10.223	8.135	6.141	0.433	4.867	4.676	-9.612	-3.404	-3.379	-6.381	-1.880	-2.021	1.112	1.259	-1.169	4.196	2.020	4.489	3.761	0.145	417.969
-11.133	-4.289	-5.060	-0.340	2.095	0.655	4.994	7.466	9.917	7.907	5.601	0.012	4.921	4.834	-9.229	-3.289	-3.173	-6.316	-1.821	-1.974	1.205	1.350	-1.045	3.978	1.814	3.842	3.189	-0.558	421.875
-10.568	-3.850	-4.692	-0.092	2.343	0.951	5.018	7.515	9.575	7.593	5.038	-0.465	4.892	4.964	-8.813	-3.091	-2.865	-6.148	-1.688	-1.816	1.311	1.438	-0.944	3.646	1.527	3.113	2.529	-1.301	425.781
-9.998	-3.359	-4.329	0.208	2.628	1.277	4.976	7.518	9.184	7.209	4.447	-0.992	4.806	5.095	-8.371	-2.803	-2.461	-5.879	-1.469	-1.534	1.463	1.544	-0.863	3.236	1.162	2.332	1.831	-2.051	429.688
-9.441	-2.859	-3.994	0.533	2.931	1.595	4.874	7.460	8.739	6.774	3.834	-1.549	4.692	5.248	-7.906	-2.430	-1.981	-5.522	-1.168	-1.138	1.682	1.680	-0.794	2.791	0.729	1.536	1.144	-2.770	433.594
-8.906	-2.390	-3.698	0.847	3.224	1.871	4.722	7.335	8.248	6.310	3.211	-2.101	4.570	5.427	-7.418	-1.995	-1.460	-5.104	-0.804	-0.659	1.971	1.850	-0.733	2.347	0.251	0.766	0.511	-3.419	437.500
-8.402	-1.984	-3.443	1.119	3.479	2.083	4.532	7.150	7.726	5.834	2.600	-2.603	4.450	5.619	-6.911	-1.533	-0.940	-4.656	-0.405	-0.146	2.317	2.044	-0.670	1.935	-0.246	0.063	-0.036	-3.959	441.406
-7.936	-1.662	-3.226	1.325	3.674	2.222	4.314	6.916	7.193	5.363	2.031	-3.006	4.337	5.801	-6.396	-1.082	-0.465	-4.215	-0.002	0.349	2.693	2.242	-0.601	1.574	-0.728	-0.535	-0.475	-4.358	445.312
-7.522	-1.429	-3.040	1.457	3.797	2.294	4.079	6.648	6.669	4.908	1.532	-3.271	4.226	5.945	-5.896	-0.678	-0.069	-3.816	0.378	0.778	3.063	2.424	-0.523	1.271	-1.165	-0.998	-0.795	-4.592	449.219
-7.176	-1.276	-2.882	1.524	3.848	2.320	3.838	6.365	6.168	4.476	1.126	-3.374	4.112	6.027	-5.440	-0.345	0.226	-3.487	0.716	1.111	3.398	2.568	-0.436	1.027	-1.528	-1.308	-0.997	-4.655	453.125
-6.919	-1.183	-2.751	1.549	3.845	2.326	3.600	6.081	5.698	4.074	0.830	-3.312	3.990	6.034	-5.065	-0.093	0.417	-3.245	1.003	1.338	3.673	2.659	-0.349	0.834	-1.803	-1.461	-1.089	-4.556	457.031
-6.772	-1.123	-2.652	1.565	3.815	2.341	3.376	5.809	5.261	3.709	0.647	-3.105	3.856	5.967	-4.803	0.085	0.518	-3.099	1.238	1.471	3.877	2.690	-0.276	0.683	-1.985	-1.469	-1.086	-4.324	460.938
-6.747	-1.072	-2.591	1.602	3.790	2.385	3.176	5.561	4.858	3.389	0.569	-2.789	3.715	5.842	-4.679	0.206	0.555	-3.047	1.425	1.537	4.011	2.661	-0.230	0.568	-2.082	-1.353	-1.004	-3.999	464.844
-6.848	-1.008	-2.572	1.683	3.799	2.470	3.012	5.348	4.496	3.126	0.581	-2.407	3.573	5.682	-4.702	0.293	0.554	-3.080	1.566	1.565	4.085	2.584	-0.227	0.486	-2.111	-1.144	-0.864	-3.626	468.750
-7.064	-0.925	-2.596	1.812	3.856	2.594	2.895	5.180	4.186	2.934	0.668	-2.001	3.444	5.518	-4.865	0.362	0.535	-3.187	1.658	1.579	4.111	2.473	-0.273	0.442	-2.093	-0.868	-0.681	-3.245	472.656
-7.373	-0.828	-2.659	1.975	3.966	2.742	2.835	5.069	3.951	2.830	0.814	-1.600	3.343	5.373	-5.150	0.418	0.502	-3.361	1.691	1.590	4.102	2.345	-0.372	0.443	-2.045	-0.548	-0.465	-2.883	476.562
-7.747	-0.732	-2.754	2.142	4.112	2.895	2.839	5.024	3.816	2.828	1.013	-1.217	3.284	5.268	-5.525	0.452	0.445	-3.596	1.649	1.589	4.064	2.216	-0.519	0.501	-1.977	-0.198	-0.222	-2.549	480.469
-8.156	-0.664	-2.871	2.274	4.271	3.028	2.912	5.051	3.810	2.938	1.263	-0.848	3.279	5.209	-5.956	0.442	0.340	-3.887	1.514	1.556	3.998	2.097	-0.699	0.622	-1.890	0.181	0.047	-2.235	484.375
-8.574	-0.652	-3.002	2.327	4.409	3.116	3.050	5.150	3.951	3.161	1.568	-0.479	3.333	5.192	-6.408	0.361	0.161	-4.230	1.274	1.462	3.901	1.996	-0.896	0.810	-1.775	0.592	0.346	-1.919	488.281
-8.981	-0.723	-3.141	2.270	4.495	3.141	3.246	5.311	4.245	3.488	1.933	-0.089	3.446	5.205	-6.851	0.182	-0.115	-4.609	0.928	1.281	3.771	1.919	-1.086	1.060	-1.620	1.044	0.677	-1.575	492.188
-9.362	-0.895	-3.289	2.083	4.502	3.088	3.481	5.518	4.675	3.899	2.357	0.335	3.606	5.234	-7.264	-0.110	-0.494	-5.000	0.492	0.995	3.606	1.868	-1.242	1.361	-1.411	1.542	1.039	-1.181	496.094
-9.704	-1.172	-3.448	1.766	4.416	2.952	3.732	5.747	5.205	4.362	2.831	0.798	3.797	5.262	-7.634	-0.510	-0.964	-5.367	0.000	0.606	3.412	1.850	-1.343	1.695	-1.141	2.083	1.427	-0.725	500.000
-9.995	-1.546	-3.621	1.342	4.236	2.735	3.970	5.969	5.780	4.835	3.333	1.287	3.995	5.278	-7.958	-0.996	-1.489	-5.671	-0.498	0.136	3.199	1.869	-1.370	2.037	-0.813	2.655	1.827	-0.213	503.906
-10.222	-1.992	-3.809	0.849	3.974	2.452	4.163	6.157	6.335	5.274	3.835	1.778	4.172	5.271	-8.237	-1.526	-2.018	-5.876	-0.947	-0.378	2.982	1.932	-1.312	2.358	-0.440	3.232	2.220	0.332	507.812
-10.371	-2.471	-4.008	0.337	3.659	2.128	4.286	6.287	6.809	5.632	4.300	2.234	4.302	5.234	-8.474	-2.048	-2.488	-5.959	-1.291	-0.885	2.775	2.038	-1.171	2.630	-0.043	3.781	2.577	0.872	511.719
-10.435	-2.936	-4.203	-0.136	3.328	1.795	4.321	6.347	7.149	5.871	4.693	2.619	4.359	5.163	-8.669	-2.509	-2.841	-5.916	-1.491	-1.336	2.590	2.182	-0.961	2.825	0.349	4.265	2.870	1.362	515.625
-10.412	-3.339	-4.377	-0.518	3.023	1.493	4.264	6.334	7.327	5.967	4.984	2.901	4.327	5.053	-8.819	-2.864	-3.040	-5.760	-1.532	-1.686	2.436	2.349	-0.707	2.920	0.708	4.648	3.068	1.754	519.531
-10.314	-3.635	-4.511	-0.766	2.784	1.257	4.124	6.260	7.341	5.913	5.156	3.061	4.202	4.907	-8.917	-3.086	-3.070	-5.521	-1.423	-1.906	2.314	2.520	-0.441	2.902	1.007	4.903	3.152	2.013	523.438
-10.161	-3.796	-4.590	-0.857	2.645	1.119	3.928	6.147	7.212	5.724	5.206	3.094	3.992	4.730	-8.960	-3.169	-2.947	-5.237	-1.203	-1.987	2.224	2.670	-0.199	2.768	1.228	5.019	3.108	2.116	527.344
-9.985	-3.809	-4.605	-0.789	2.626	1.095	3.709	6.026	6.983	5.434	5.147	3.014	3.719	4.536	-8.944	-3.128	-2.713	-4.941	-0.925	-1.938	2.164	2.779	-0.011	2.529	1.356	4.996	2.938	2.062	531.250
-9.815	-3.685	-4.556	-0.580	2.730	1.186	3.506	5.927	6.708	5.090	5.007	2.844	3.413	4.341	-8.877	-2.999	-2.427	-4.663	-0.648	-1.787	2.132	2.831	0.100	2.205	1.391	4.853	2.658	1.867	535.156
-9.673	-3.453	-4.449	-0.267	2.944	1.379	3.350	5.878	6.439	4.743	4.816	2.614	3.110	4.166	-8.767	-2.822	-2.147	-4.417	-0.425	-1.572	2.124	2.822	0.129	1.826	1.336	4.615	2.288	1.558	539.062
-9.563	-3.150	-4.292	0.108	3.237	1.648	3.261	5.893	6.216	4.436	4.602	2.350	2.834	4.024	-8.623	-2.640	-1.919	-4.207	-0.291	-1.338	2.134	2.756	0.082	1.423	1.206	4.311	1.854	1.167	542.969
-9.467	-2.815	-4.089	0.498	3.568	1.961	3.237	5.972	6.057	4.192	4.382	2.068	2.602	3.921	-8.443	-2.483	-1.764	-4.023	-0.254	-1.123	2.153	2.652	-0.018	1.024	1.020	3.967	1.379	0.724	546.875
-9.347	-2.483	-3.840	0.865	3.892	2.285	3.255	6.095	5.957	4.011	4.157	1.770	2.410	3.850	-8.218	-2.363	-1.675	-3.849	-0.298	-0.954	2.174	2.531	-0.138	0.648	0.800	3.598	0.879	0.246	550.781
-9.152	-2.170	-3.541	1.182	4.165	2.589	3.277	6.234	5.886	3.868	3.908	1.444	2.239	3.794	-7.923	-2.276	-1.615	-3.661	-0.384	-0.846	2.187	2.419	-0.244	0.307	0.568	3.210	0.363	-0.260	554.688
-8.831	-1.885	-3.187	1.432	4.352	2.848	3.257	6.348	5.800	3.723	3.609	1.070	2.065	3.731	-7.530	-2.200	-1.534	-3.434	-0.463	-0.795	2.189	2.340	-0.302	0.004	0.343	2.799	-0.164	-0.794	558.594
-8.350	-1.622	-2.780	1.614	4.431	3.043	3.150	6.401	5.653	3.531	3.226	0.627	1.859	3.641	-7.011	-2.109	-1.377	-3.141	-0.486	-0.783	2.183	2.313	-0.289	-0.263	0.136	2.357	-0.700	-1.361	562.500
-7.697	-1.376	-2.326	1.732	4.400	3.166	2.930	6.364	5.405	3.255	2.738	0.105	1.606	3.512	-6.354	-1.975	-1.101	-2.767	-0.416	-0.784	2.181	2.350	-0.194	-0.495	-0.047	1.877	-1.234	-1.958	566.406
-6.893	-1.140	-1.848	1.798	4.269	3.212	2.588	6.220	5.035	2.877	2.137	-0.491	1.306	3.348	-5.566	-1.780	-0.688	-2.308	-0.234	-0.765	2.202	2.454	-0.021	-0.691	-0.205	1.360	-1.751	-2.574	570.312
-5.989	-0.913	-1.377	1.825	4.066	3.187	2.142	5.971	4.543	2.402	1.434	-1.137	0.979	3.167	-4.683	-1.516	-0.149	-1.779	0.056	-0.699	2.263	2.623	0.216	-0.845	-0.342	0.817	-2.227	-3.185	574.219
-5.054	-0.696	-0.952	1.825	3.826	3.097	1.628	5.631	3.951	1.857	0.662	-1.794	0.660	2.996	-3.760	-1.193	0.478	-1.214	0.431	-0.565	2.381	2.847	0.496	-0.945	-0.465	0.269	-2.632	-3.757	578.125
-4.169	-0.496	-0.612	1.809	3.584	2.952	1.097	5.226	3.300	1.288	-0.135	-2.414	0.393	2.869	-2.865	-0.827	1.137	-0.658	0.853	-0.356	2.560	3.115	0.795	-0.978	-0.580	-0.257	-2.937	-4.253	582.031
-3.403	-0.316	-0.391	1.790	3.375	2.763	0.602	4.785	2.639	0.747	-0.910	-2.950	0.221	2.815	-2.070	-0.444	1.765	-0.158	1.280	-0.079	2.794	3.407	1.094	-0.933	-0.689	-0.731	-3.121	-4.639	585.938
-2.807	-0.159	-0.307	1.776	3.223	2.542	0.190	4.337	2.016	0.285	-1.615	-3.365	0.173	2.852	-1.433	-0.071	2.305	0.243	1.667	0.247	3.061	3.705	1.375	-0.807	-0.797	-1.131	-3.177	-4.890	589.844
-2.400	-0.024	-0.359	1.779	3.143	2.304	-0.108	3.909	1.473	-0.062	-2.216	-3.641	0.257	2.978	-0.989	0.268	2.715	0.523	1.981	0.591	3.332	3.986	1.628	-0.607	-0.903	-1.444	-3.114	-5.001	593.750
-2.171	0.092	-0.519	1.807	3.139	2.068	-0.275	3.522	1.040	-0.274	-2.690	-3.777	0.459	3.178	-0.742	0.553	2.970	0.678	2.195	0.917	3.570	4.227	1.844	-0.355	-1.007	-1.671	-2.964	-4.983	597.656
-2.080	0.194	-0.743	1.866	3.206	1.856	-0.316	3.193	0.729	-0.353	-3.031	-3.791	0.744	3.417	-0.664	0.772	3.069	0.724	2.300	1.191	3.741	4.404	2.013	-0.085	-1.107	-1.827	-2.770	-4.867	601.562
-2.070	0.288	-0.970	1.956	3.329	1.692	-0.251	2.934	0.538	-0.318	-3.243	-3.716	1.060	3.654	-0.703	0.919	3.030	0.691	2.300	1.388	3.818	4.500	2.126	0.160	-1.207	-1.941	-2.582	-4.699	605.469
-2.076	0.378	-1.139	2.072	3.486	1.595	-0.111	2.755	0.457	-0.197	-3.335	-3.587	1.350	3.844	-0.796	0.995	2.889	0.616	2.211	1.491	3.785	4.502	2.172	0.336	-1.313	-2.046	-2.451	-4.528	609.375
-2.041	0.463	-1.195	2.202	3.650	1.579	0.068	2.663	0.464	-0.028	-3.321	-3.440	1.561	3.949	-0.880	1.004	2.693	0.530	2.058	1.493	3.640	4.408	2.143	0.406	-1.431	-2.173	-2.411	-4.399	613.281
-1.925	0.540	-1.108	2.325	3.789	1.646	0.248	2.659	0.540	0.159	-3.214	-3.301	1.651	3.940	-0.907	0.956	2.495	0.459	1.872	1.401	3.392	4.225	2.037	0.345	-1.565	-2.340	-2.479	-4.346	617.188
-1.710	0.602	-0.873	2.420	3.875	1.786	0.398	2.737	0.664	0.336	-3.025	-3.186	1.598	3.804	-0.854	0.858	2.340	0.418	1.682	1.227	3.060	3.969	1.862	0.149	-1.712	-2.547	-2.648	-4.379	621.094
-1.406	0.641	-0.510	2.468	3.883	1.977	0.494	2.886	0.822	0.490	-2.764	-3.097	1.400	3.541	-0.725	0.721	2.261	0.413	1.509	0.989	2.672	3.664	1.636	-0.166	-1.862	-2.774	-2.892	-4.489	625.000
-1.048	0.649	-0.067	2.455	3.799	2.190	0.523	3.085	1.003	0.617	-2.445	-3.025	1.072	3.169	-0.546	0.554	2.265	0.437	1.368	0.709	2.256	3.333	1.381	-0.566	-1.995	-2.985	-3.170	-4.648	628.906
-0.686	0.622	0.397	2.379	3.624	2.396	0.485	3.308	1.203	0.719	-2.080	-2.959	0.650	2.718	-0.354	0.369	2.335	0.480	1.260	0.412	1.846	3.002	1.127	-1.003	-2.089	-3.138	-3.437	-4.820	632.812
-0.373	0.563	0.822	2.251	3.375	2.569	0.391	3.527	1.420	0.805	-1.692	-2.885	0.178	2.228	-0.190	0.181	2.434	0.522	1.183	0.124	1.474	2.693	0.897	-1.427	-2.128	-3.201	-3.655	-4.966	636.719
-0.153	0.481	1.158	2.093	3.085	2.695	0.259	3.719	1.652	0.882	-1.307	-2.797	-0.293	1.748	-0.083	0.006	2.520	0.549	1.127	-0.126	1.170	2.424	0.708	-1.794	-2.105	-3.157	-3.797	-5.060	640.625
-0.046	0.392	1.379	1.936	2.795	2.771	0.109	3.864	1.890	0.954	-0.961	-2.700	-0.717	1.325	-0.043	-0.138	2.552	0.546	1.081	-0.314	0.959	2.208	0.568	-2.071	-2.029	-3.016	-3.855	-5.090	644.531
-0.047	0.315	1.481	1.814	2.550	2.803	-0.035	3.953	2.122	1.017	-0.693	-2.610	-1.055	1.001	-0.059	-0.236	2.511	0.512	1.038	-0.422	0.858	2.055	0.471	-2.243	-1.924	-2.812	-3.836	-5.066	648.438
-0.125	0.268	1.487	1.755	2.390	2.807	-0.158	3.984	2.323	1.059	-0.540	-2.553	-1.284	0.805	-0.103	-0.278	2.402	0.455	0.997	-0.440	0.873	1.971	0.408	-2.313	-1.826	-2.598	-3.762	-5.010	652.344
-0.230	0.264	1.438	1.775	2.337	2.803	-0.250	3.965	2.463	1.063	-0.532	-2.555	-1.392	0.749	-0.132	-0.258	2.258	0.396	0.964	-0.373	0.994	1.958	0.367	-2.295	-1.772	-2.433	-3.661	-4.956	656.250
-0.309	0.310	1.376	1.874	2.397	2.808	-0.309	3.907	2.514	1.014	-0.682	-2.636	-1.385	0.824	-0.110	-0.180	2.125	0.358	0.952	-0.236	1.203	2.017	0.341	-2.213	-1.797	-2.369	-3.565	-4.938	660.156
-0.316	0.400	1.341	2.038	2.553	2.832	-0.340	3.822	2.450	0.900	-0.979	-2.802	-1.280	1.004	-0.010	-0.054	2.055	0.363	0.977	-0.053	1.468	2.142	0.332	-2.091	-1.917	-2.440	-3.495	-4.979	664.062
-0.228	0.521	1.354	2.240	2.771	2.875	-0.351	3.722	2.264	0.720	-1.389	-3.042	-1.104	1.251	0.170	0.106	2.082	0.421	1.055	0.148	1.755	2.325	0.344	-1.946	-2.130	-2.649	-3.466	-5.090	667.969
-0.045	0.655	1.420	2.447	3.005	2.931	-0.353	3.618	1.968	0.487	-1.857	-3.330	-0.884	1.520	0.410	0.284	2.216	0.526	1.190	0.337	2.029	2.551	0.387	-1.793	-2.415	-2.972	-3.477	-5.260	671.875
0.207	0.783	1.523	2.629	3.209	2.986	-0.352	3.519	1.595	0.227	-2.315	-3.626	-0.651	1.766	0.673	0.463	2.437	0.656	1.377	0.493	2.259	2.798	0.467	-1.636	-2.734	-3.360	-3.516	-5.463	675.781
0.486	0.887	1.639	2.761	3.344	3.024	-0.353	3.434	1.195	-0.023	-2.697	-3.891	-0.428	1.952	0.910	0.626	2.696	0.778	1.597	0.600	2.425	3.041	0.582	-1.480	-3.041	-3.751	-3.565	-5.666	679.688
0.745	0.956	1.738	2.827	3.382	3.031	-0.353	3.370	0.827	-0.225	-2.946	-4.087	-0.232	2.057	1.075	0.759	2.936	0.855	1.820	0.651	2.513	3.252	0.726	-1.323	-3.291	-4.084	-3.601	-5.829	683.594
0.942	0.984	1.793	2.823	3.313	2.995	-0.348	3.333	0.544	-0.345	-3.026	-4.191	-0.070	2.072	1.132	0.852	3.098	0.861	2.010	0.645	2.521	3.408	0.883	-1.167	-3.448	-4.310	-3.606	-5.923	687.500
1.049	0.967	1.787	2.750	3.141	2.912	-0.330	3.330	0.391	-0.357	-2.926	-4.195	0.056	2.005	1.062	0.897	3.144	0.786	2.133	0.584	2.455	3.493	1.033	-1.014	-3.494	-4.399	-3.567	-5.929	691.406
1.053	0.904	1.710	2.616	2.885	2.784	-0.292	3.363	0.391	-0.254	-2.662	-4.104	0.156	1.876	0.864	0.888	3.061	0.644	2.166	0.472	2.328	3.502	1.158	-0.866	-3.425	-4.345	-3.479	-5.842	695.312
0.958	0.798	1.566	2.430	2.574	2.616	-0.230	3.433	0.545	-0.045	-2.270	-3.939	0.238	1.713	0.556	0.826	2.862	0.467	2.102	0.315	2.158	3.440	1.245	-0.730	-3.257	-4.162	-3.349	-5.677	699.219
0.782	0.653	1.366	2.204	2.239	2.420	-0.145	3.536	0.829	0.242	-1.799	-3.727	0.309	1.543	0.176	0.714	2.586	0.302	1.950	0.118	1.966	3.321	1.287	-0.610	-3.020	-3.883	-3.191	-5.457	703.125
0.554	0.480	1.133	1.955	1.913	2.210	-0.043	3.663	1.201	0.568	-1.307	-3.502	0.370	1.392	-0.229	0.565	2.284	0.194	1.736	-0.110	1.774	3.167	1.287	-0.514	-2.750	-3.551	-3.025	-5.215	707.031
0.312	0.298	0.896	1.703	1.620	2.003	0.061	3.794	1.602	0.884	-0.848	-3.298	0.415	1.274	-0.606	0.395	2.009	0.176	1.494	-0.356	1.602	2.999	1.255	-0.453	-2.487	-3.213	-2.876	-4.984	710.938
0.099	0.129	0.687	1.474	1.380	1.813	0.148	3.909	1.968	1.138	-0.469	-3.142	0.427	1.190	-0.901	0.228	1.807	0.258	1.263	-0.603	1.469	2.840	1.208	-0.434	-2.265	-2.909	-2.768	-4.790	714.844
-0.038	0.000	0.543	1.293	1.200	1.655	0.192	3.980	2.233	1.284	-0.209	-3.054	0.387	1.132	-1.069	0.090	1.703	0.430	1.076	-0.829	1.387	2.705	1.163	-0.464	-2.106	-2.668	-2.717	-4.645	718.750
-0.059	-0.066	0.495	1.183	1.080	1.539	0.170	3.984	2.347	1.288	-0.088	-3.045	0.275	1.080	-1.079	0.002	1.702	0.661	0.957	-1.015	1.359	2.601	1.135	-0.548	-2.016	-2.505	-2.732	-4.549	722.656
0.068	-0.059	0.563	1.156	1.007	1.469	0.065	3.905	2.279	1.138	-0.115	-3.113	0.081	1.011	-0.920	-0.025	1.790	0.918	0.913	-1.148	1.375	2.532	1.136	-0.680	-1.986	-2.418	-2.807	-4.493	726.562
0.353	0.022	0.753	1.207	0.962	1.442	-0.128	3.740	2.032	0.841	-0.282	-3.247	-0.195	0.905	-0.601	0.007	1.938	1.167	0.938	-1.221	1.419	2.492	1.170	-0.848	-1.995	-2.394	-2.923	-4.457	730.469
0.781	0.160	1.048	1.319	0.923	1.449	-0.400	3.500	1.633	0.429	-0.564	-3.427	-0.537	0.750	-0.157	0.084	2.109	1.386	1.011	-1.240	1.467	2.472	1.235	-1.031	-2.014	-2.411	-3.050	-4.424	734.375
1.312	0.328	1.413	1.462	0.870	1.475	-0.724	3.209	1.135	-0.045	-0.925	-3.626	-0.909	0.547	0.362	0.182	2.270	1.563	1.107	-1.220	1.493	2.461	1.323	-1.202	-2.018	-2.442	-3.154	-4.381	738.281
1.890	0.494	1.800	1.600	0.789	1.501	-1.063	2.897	0.605	-0.521	-1.321	-3.818	-1.268	0.312	0.892	0.273	2.393	1.696	1.201	-1.179	1.478	2.450	1.422	-1.333	-1.985	-2.466	-3.203	-4.322	742.188
2.447	0.628	2.157	1.700	0.675	1.511	-1.376	2.594	0.105	-0.938	-1.706	-3.980	-1.565	0.070	1.369	0.338	2.463	1.789	1.276	-1.130	1.411	2.431	1.522	-1.400	-1.908	-2.470	-3.178	-4.255	746.094
2.927	0.712	2.437	1.741	0.536	1.494	-1.623	2.325	-0.316	-1.247	-2.041	-4.098	-1.761	-0.148	1.743	0.369	2.480	1.847	1.323	-1.084	1.293	2.402	1.614	-1.391	-1.793	-2.454	-3.077	-4.196	750.000
3.291	0.743	2.613	1.718	0.386	1.445	-1.778	2.101	-0.630	-1.424	-2.301	-4.173	-1.830	-0.310	1.984	0.375	2.454	1.879	1.348	-1.038	1.140	2.365	1.690	-1.308	-1.659	-2.432	-2.916	-4.167	753.906
3.531	0.736	2.681	1.644	0.249	1.369	-1.833	1.922	-0.838	-1.469	-2.477	-4.217	-1.770	-0.395	2.087	0.376	2.408	1.895	1.367	-0.979	0.977	2.328	1.749	-1.168	-1.535	-2.426	-2.727	-4.192	757.812
3.666	0.717	2.657	1.543	0.147	1.277	-1.799	1.777	-0.957	-1.410	-2.582	-4.252	-1.598	-0.394	2.079	0.405	2.369	1.904	1.398	-0.891	0.835	2.299	1.789	-1.001	-1.451	-2.463	-2.552	-4.291	761.719
3.738	0.722	2.577	1.449	0.097	1.181	-1.703	1.651	-1.021	-1.295	-2.641	-4.305	-1.353	-0.309	2.003	0.489	2.365	1.919	1.461	-0.755	0.745	2.289	1.813	-0.840	-1.431	-2.568	-2.427	-4.472	765.625
3.797	0.785	2.484	1.393	0.107	1.092	-1.583	1.524	-1.064	-1.181	-2.687	-4.400	-1.080	-0.158	1.920	0.652	2.420	1.950	1.573	-0.560	0.729	2.308	1.821	-0.718	-1.493	-2.759	-2.382	-4.731	769.531
3.898	0.936	2.421	1.403	0.170	1.019	-1.480	1.380	-1.115	-1.123	-2.754	-4.553	-0.829	0.034	1.891	0.902	2.551	2.009	1.742	-0.305	0.797	2.361	1.817	-0.658	-1.639	-3.042	-2.430	-5.051	773.438
4.082	1.197	2.423	1.493	0.272	0.960	-1.431	1.207	-1.189	-1.165	-2.869	-4.768	-0.639	0.239	1.971	1.240	2.766	2.103	1.973	0.004	0.946	2.449	1.800	-0.676	-1.861	-3.413	-2.573	-5.407	777.344
4.380	1.577	2.513	1.666	0.391	0.913	-1.460	0.997	-1.290	-1.331	-3.048	-5.042	-0.537	0.432	2.195	1.652	3.062	2.235	2.263	0.353	1.162	2.572	1.771	-0.773	-2.142	-3.864	-2.797	-5.771	781.250
4.799	2.072	2.701	1.918	0.507	0.871	-1.577	0.752	-1.412	-1.626	-3.297	-5.364	-0.532	0.595	2.579	2.124	3.428	2.401	2.607	0.726	1.424	2.722	1.732	-0.942	-2.462	-4.378	-3.085	-6.121	785.156
5.332	2.667	2.977	2.231	0.606	0.828	-1.776	0.477	-1.545	-2.034	-3.607	-5.721	-0.614	0.720	3.110	2.637	3.848	2.596	2.995	1.110	1.712	2.892	1.683	-1.166	-2.801	-4.938	-3.415	-6.445	789.062
5.953	3.333	3.322	2.587	0.683	0.780	-2.038	0.179	-1.681	-2.523	-3.966	-6.099	-0.762	0.811	3.754	3.173	4.301	2.811	3.413	1.496	2.009	3.076	1.626	-1.425	-3.146	-5.527	-3.767	-6.743	792.969
6.622	4.034	3.704	2.961	0.741	0.727	-2.334	-0.132	-1.816	-3.054	-4.352	-6.485	-0.942	0.879	4.459	3.716	4.768	3.034	3.843	1.881	2.304	3.263	1.566	-1.697	-3.485	-6.126	-4.121	-7.021	796.875
